Time (s);AF3;F7;F3;FC5;T7;P7;O1;O2;P8;T8;FC6;F4;F8;AF4;Sampling Rate
0.0000000000e+000;4.2982050781e+003;4.1957690430e+003;4.2260258789e+003;4.2485898438e+003;4.1973076172e+003;4.2321796875e+003;4.2326923828e+003;4.2605126953e+003;4.2283334961e+003;4.1594873047e+003;4.2166665039e+003;4.1903847656e+003;4.2116665039e+003;4.2174360352e+003;128
7.8125000000e-003;4.2837177734e+003;4.1739741211e+003;4.2070512695e+003;4.2288461914e+003;4.1811538086e+003;4.2216665039e+003;4.2182050781e+003;4.2314101563e+003;4.2014101563e+003;4.1302563477e+003;4.1905126953e+003;4.1682050781e+003;4.1869228516e+003;4.1956411133e+003;
1.5625000000e-002;4.2966665039e+003;4.1857690430e+003;4.2191025391e+003;4.2391025391e+003;4.1928203125e+003;4.2334614258e+003;4.2280771484e+003;4.2411538086e+003;4.2123076172e+003;4.1419228516e+003;4.2019228516e+003;4.1776923828e+003;4.1969228516e+003;4.2065385742e+003;
2.3437500000e-002;4.2644873047e+003;4.1496152344e+003;4.1908974609e+003;4.2098715820e+003;4.1589741211e+003;4.2080771484e+003;4.1994873047e+003;4.2092309570e+003;4.1787177734e+003;4.1083334961e+003;4.1679487305e+003;4.1430771484e+003;4.1597436523e+003;4.1697436523e+003;
3.1250000000e-002;4.3111538086e+003;4.1869228516e+003;4.2176923828e+003;4.2423076172e+003;4.2008974609e+003;4.2524360352e+003;4.2376923828e+003;4.2430771484e+003;4.2201284180e+003;4.1534614258e+003;4.1997436523e+003;4.1751284180e+003;4.1992309570e+003;4.1983334961e+003;
3.9062500000e-002;4.2600000000e+003;4.1380771484e+003;4.1688461914e+003;4.1939741211e+003;4.1510258789e+003;4.2071796875e+003;4.1898715820e+003;4.1952563477e+003;4.1746152344e+003;4.1048715820e+003;4.1520512695e+003;4.1288461914e+003;4.1508974609e+003;4.1521796875e+003;
4.6875000000e-002;4.2030771484e+003;4.0873076172e+003;4.1202563477e+003;4.1470512695e+003;4.0983334961e+003;4.1564101563e+003;4.1419228516e+003;4.1444873047e+003;4.1265385742e+003;4.0498718262e+003;4.1069228516e+003;4.0821794434e+003;4.1019228516e+003;4.1101284180e+003;
5.4687500000e-002;4.2175639648e+003;4.1029487305e+003;4.1365385742e+003;4.1635898438e+003;4.1139741211e+003;4.1693588867e+003;4.1571796875e+003;4.1634614258e+003;4.1450000000e+003;4.0697436523e+003;4.1270512695e+003;4.1020512695e+003;4.1211538086e+003;4.1319228516e+003;
6.2500000000e-002;4.1197436523e+003;4.0014101563e+003;4.0391025391e+003;4.0708974609e+003;4.0162819824e+003;4.0798718262e+003;4.0642307129e+003;4.0791025391e+003;4.0593588867e+003;3.9810256348e+003;4.0357692871e+003;4.0155129395e+003;4.0297436523e+003;4.0417949219e+003;
7.0312500000e-002;4.0728205566e+003;3.9530769043e+003;3.9911538086e+003;4.0252563477e+003;3.9680769043e+003;4.0344870605e+003;4.0175642090e+003;4.0302563477e+003;4.0123076172e+003;3.9279487305e+003;3.9866667480e+003;3.9662819824e+003;3.9797436523e+003;3.9934614258e+003;
7.8125000000e-002;4.0516667480e+003;3.9284614258e+003;3.9673076172e+003;4.0029487305e+003;3.9425642090e+003;4.0096154785e+003;3.9926923828e+003;4.0042307129e+003;3.9860256348e+003;3.8987180176e+003;3.9601281738e+003;3.9407692871e+003;3.9525642090e+003;3.9702563477e+003;
8.5937500000e-002;4.0541025391e+003;3.9242307129e+003;3.9647436523e+003;4.0010256348e+003;3.9369230957e+003;4.0037180176e+003;3.9876923828e+003;3.9997436523e+003;3.9773076172e+003;3.8924357910e+003;3.9535898438e+003;3.9375642090e+003;3.9469230957e+003;3.9687180176e+003;
9.3750000000e-002;4.2101284180e+003;4.0623076172e+003;4.0998715820e+003;4.1288461914e+003;4.0674357910e+003;4.1126923828e+003;4.1080771484e+003;4.1276923828e+003;4.1006411133e+003;4.0326923828e+003;4.0870512695e+003;4.0723076172e+003;4.0864101563e+003;4.1034614258e+003;
1.0156250000e-001;4.1934614258e+003;4.0482050781e+003;4.0866667480e+003;4.1146152344e+003;4.0524357910e+003;4.0973076172e+003;4.0934614258e+003;4.1158974609e+003;4.0914101563e+003;4.0219230957e+003;4.0744870605e+003;4.0597436523e+003;4.0707692871e+003;4.0900000000e+003;
1.0937500000e-001;4.1569228516e+003;4.0141025391e+003;4.0514101563e+003;4.0848718262e+003;4.0228205566e+003;4.0747436523e+003;4.0755129395e+003;4.0841025391e+003;4.0512819824e+003;3.9842307129e+003;4.0346154785e+003;4.0196154785e+003;4.0307692871e+003;4.0471794434e+003;
1.1718750000e-001;4.1237177734e+003;3.9833332520e+003;4.0198718262e+003;4.0628205566e+003;3.9983332520e+003;4.0603845215e+003;4.0485898438e+003;4.0557692871e+003;4.0219230957e+003;3.9600000000e+003;4.0043588867e+003;3.9902563477e+003;4.0044870605e+003;4.0224357910e+003;
1.2500000000e-001;4.0757692871e+003;3.9347436523e+003;3.9712819824e+003;4.0170512695e+003;3.9514101563e+003;4.0200000000e+003;4.0047436523e+003;4.0051281738e+003;3.9728205566e+003;3.9076923828e+003;3.9562819824e+003;3.9425642090e+003;3.9548718262e+003;3.9767949219e+003;
1.3281250000e-001;4.1520512695e+003;4.0102563477e+003;4.0424357910e+003;4.0834614258e+003;4.0253845215e+003;4.0901281738e+003;4.0775642090e+003;4.0737180176e+003;4.0446154785e+003;3.9810256348e+003;4.0293588867e+003;4.0139743652e+003;4.0316667480e+003;4.0488461914e+003;
1.4062500000e-001;4.1302563477e+003;3.9882050781e+003;4.0151281738e+003;4.0619230957e+003;4.0020512695e+003;4.0634614258e+003;4.0456411133e+003;4.0432050781e+003;4.0250000000e+003;3.9601281738e+003;4.0008974609e+003;3.9875642090e+003;4.0047436523e+003;4.0255129395e+003;
1.4843750000e-001;4.1316665039e+003;3.9889743652e+003;4.0126923828e+003;4.0601281738e+003;4.0024357910e+003;4.0616667480e+003;4.0434614258e+003;4.0407692871e+003;4.0237180176e+003;3.9596154785e+003;4.0002563477e+003;3.9865385742e+003;4.0017949219e+003;4.0250000000e+003;
1.5625000000e-001;4.1338461914e+003;3.9900000000e+003;4.0126923828e+003;4.0597436523e+003;4.0025642090e+003;4.0612819824e+003;4.0432050781e+003;4.0420512695e+003;4.0237180176e+003;3.9601281738e+003;4.0014101563e+003;3.9875642090e+003;4.0014101563e+003;4.0260256348e+003;
1.6406250000e-001;4.1442309570e+003;4.0008974609e+003;4.0220512695e+003;4.0701281738e+003;4.0108974609e+003;4.0685898438e+003;4.0537180176e+003;4.0551281738e+003;4.0328205566e+003;3.9701281738e+003;4.0121794434e+003;3.9976923828e+003;4.0141025391e+003;4.0367949219e+003;
1.7187500000e-001;4.1734614258e+003;4.0361538086e+003;4.0557692871e+003;4.0993588867e+003;4.0470512695e+003;4.0965385742e+003;4.0815385742e+003;4.0992309570e+003;4.0766667480e+003;4.0187180176e+003;4.0508974609e+003;4.0335898438e+003;4.0553845215e+003;4.0712819824e+003;
1.7968750000e-001;4.1435898438e+003;4.0051281738e+003;4.0296154785e+003;4.0707692871e+003;4.0182050781e+003;4.0712819824e+003;4.0561538086e+003;4.0741025391e+003;4.0525642090e+003;3.9908974609e+003;4.0215385742e+003;4.0053845215e+003;4.0250000000e+003;4.0406411133e+003;
1.8750000000e-001;4.1362822266e+003;3.9971794434e+003;4.0243588867e+003;4.0650000000e+003;4.0120512695e+003;4.0671794434e+003;4.0556411133e+003;4.0688461914e+003;4.0491025391e+003;3.9828205566e+003;4.0134614258e+003;3.9971794434e+003;4.0160256348e+003;4.0312819824e+003;
1.9531250000e-001;4.1744873047e+003;4.0370512695e+003;4.0623076172e+003;4.1033334961e+003;4.0520512695e+003;4.1039741211e+003;4.0979487305e+003;4.1083334961e+003;4.0898718262e+003;4.0225642090e+003;4.0524357910e+003;4.0337180176e+003;4.0544870605e+003;4.0683332520e+003;
2.0312500000e-001;3.9996154785e+003;3.8607692871e+003;3.8955129395e+003;3.9379487305e+003;3.8714101563e+003;3.9261538086e+003;3.9074357910e+003;3.9417949219e+003;3.9196154785e+003;3.8655129395e+003;3.8917949219e+003;3.8771794434e+003;3.8914101563e+003;3.9102563477e+003;
2.1093750000e-001;3.8789743652e+003;3.7324357910e+003;3.7746154785e+003;3.8194870605e+003;3.7441025391e+003;3.8066667480e+003;3.7846154785e+003;3.8124357910e+003;3.7894870605e+003;3.7300000000e+003;3.7642307129e+003;3.7541025391e+003;3.7655129395e+003;3.7875642090e+003;
2.1875000000e-001;3.7948718262e+003;3.6302563477e+003;3.6732050781e+003;3.7312819824e+003;3.6424357910e+003;3.7121794434e+003;3.6971794434e+003;3.6976923828e+003;3.6733332520e+003;3.6006411133e+003;3.6489743652e+003;3.6441025391e+003;3.6516667480e+003;3.6823076172e+003;
2.2656250000e-001;3.7930769043e+003;3.6238461914e+003;3.6662819824e+003;3.7274357910e+003;3.6376923828e+003;3.7084614258e+003;3.6946154785e+003;3.6885898438e+003;3.6623076172e+003;3.5903845215e+003;3.6392307129e+003;3.6355129395e+003;3.6401281738e+003;3.6724357910e+003;
2.3437500000e-001;3.7741025391e+003;3.5964101563e+003;3.6400000000e+003;3.7002563477e+003;3.6171794434e+003;3.6911538086e+003;3.6714101563e+003;3.6658974609e+003;3.6325642090e+003;3.5679487305e+003;3.6137180176e+003;3.6110256348e+003;3.6141025391e+003;3.6444870605e+003;
2.4218750000e-001;3.6058974609e+003;3.4125642090e+003;3.4585898438e+003;3.5289743652e+003;3.4364101563e+003;3.5305129395e+003;3.4983332520e+003;3.4882050781e+003;3.4601281738e+003;3.3794870605e+003;3.4293588867e+003;3.4287180176e+003;3.4325642090e+003;3.4619230957e+003;
2.5000000000e-001;3.6083332520e+003;3.4094870605e+003;3.4539743652e+003;3.5266667480e+003;3.4346154785e+003;3.5296154785e+003;3.4974357910e+003;3.4862819824e+003;3.4592307129e+003;3.3757692871e+003;3.4251281738e+003;3.4238461914e+003;3.4293588867e+003;3.4575642090e+003;
2.5781250000e-001;3.6208974609e+003;3.4102563477e+003;3.4565385742e+003;3.5334614258e+003;3.4373076172e+003;3.5352563477e+003;3.5069230957e+003;3.5032050781e+003;3.4753845215e+003;3.3914101563e+003;3.4284614258e+003;3.4288461914e+003;3.4350000000e+003;3.4616667480e+003;
2.6562500000e-001;3.6010256348e+003;3.3807692871e+003;3.4234614258e+003;3.5012819824e+003;3.4032050781e+003;3.4958974609e+003;3.4635898438e+003;3.4623076172e+003;3.4482050781e+003;3.3567949219e+003;3.3955129395e+003;3.3928205566e+003;3.4042307129e+003;3.4250000000e+003;
2.7343750000e-001;3.6106411133e+003;3.3855129395e+003;3.4294870605e+003;3.5060256348e+003;3.4065385742e+003;3.4976923828e+003;3.4644870605e+003;3.4642307129e+003;3.4510256348e+003;3.3602563477e+003;3.4019230957e+003;3.3982050781e+003;3.4075642090e+003;3.4297436523e+003;
2.8125000000e-001;3.6884614258e+003;3.4548718262e+003;3.4943588867e+003;3.5721794434e+003;3.4734614258e+003;3.5498718262e+003;3.5212819824e+003;3.5243588867e+003;3.5007692871e+003;3.4228205566e+003;3.4697436523e+003;3.4629487305e+003;3.4735898438e+003;3.4964101563e+003;
2.8906250000e-001;3.7000000000e+003;3.4650000000e+003;3.5035898438e+003;3.5801281738e+003;3.4814101563e+003;3.5526923828e+003;3.5257692871e+003;3.5335898438e+003;3.5100000000e+003;3.4364101563e+003;3.4821794434e+003;3.4774357910e+003;3.4862819824e+003;3.5083332520e+003;
2.9687500000e-001;3.6392307129e+003;3.3957692871e+003;3.4407692871e+003;3.5117949219e+003;3.4075642090e+003;3.4800000000e+003;3.4547436523e+003;3.4646154785e+003;3.4443588867e+003;3.3730769043e+003;3.4214101563e+003;3.4242307129e+003;3.4208974609e+003;3.4485898438e+003;
3.0468750000e-001;3.6198718262e+003;3.3710256348e+003;3.4185898438e+003;3.4871794434e+003;3.3819230957e+003;3.4539743652e+003;3.4301281738e+003;3.4375642090e+003;3.4173076172e+003;3.3458974609e+003;3.3982050781e+003;3.4011538086e+003;3.3948718262e+003;3.4266667480e+003;
3.1250000000e-001;3.6211538086e+003;3.3676923828e+003;3.4160256348e+003;3.4832050781e+003;3.3785898438e+003;3.4483332520e+003;3.4253845215e+003;3.4323076172e+003;3.4111538086e+003;3.3406411133e+003;3.3946154785e+003;3.3955129395e+003;3.3898718262e+003;3.4242307129e+003;
3.2031250000e-001;3.5412819824e+003;3.2760256348e+003;3.3291025391e+003;3.3996154785e+003;3.2891025391e+003;3.3661538086e+003;3.3384614258e+003;3.3487180176e+003;3.3257692871e+003;3.2544870605e+003;3.3042307129e+003;3.3058974609e+003;3.3010256348e+003;3.3356411133e+003;
3.2812500000e-001;3.4371794434e+003;3.1630769043e+003;3.2201281738e+003;3.2962819824e+003;3.1787180176e+003;3.2665385742e+003;3.2355129395e+003;3.2423076172e+003;3.2185898438e+003;3.1428205566e+003;3.1924357910e+003;3.1979487305e+003;3.1911538086e+003;3.2247436523e+003;
3.3593750000e-001;3.3441025391e+003;3.0607692871e+003;3.1201281738e+003;3.2024357910e+003;3.0794870605e+003;3.1758974609e+003;3.1444870605e+003;3.1434614258e+003;3.1187180176e+003;3.0378205566e+003;3.0906411133e+003;3.0987180176e+003;3.0907692871e+003;3.1233332520e+003;
3.4375000000e-001;3.2120512695e+003;2.8883332520e+003;2.9488461914e+003;3.0506411133e+003;2.9184614258e+003;3.0341025391e+003;2.9962819824e+003;2.9893588867e+003;2.9669230957e+003;2.8715385742e+003;2.9250000000e+003;2.9364101563e+003;2.9275642090e+003;2.9611538086e+003;
3.5156250000e-001;3.1889743652e+003;2.8605129395e+003;2.9208974609e+003;3.0258974609e+003;2.8950000000e+003;3.0123076172e+003;2.9710256348e+003;2.9653845215e+003;2.9443588867e+003;2.8452563477e+003;2.8960256348e+003;2.9078205566e+003;2.9003845215e+003;2.9315385742e+003;
3.5937500000e-001;3.1444870605e+003;2.8033332520e+003;2.8610256348e+003;2.9737180176e+003;2.8444870605e+003;2.9660256348e+003;2.9234614258e+003;2.9179487305e+003;2.8976923828e+003;2.7970512695e+003;2.8437180176e+003;2.8517949219e+003;2.8406411133e+003;2.8748718262e+003;
3.6718750000e-001;3.2019230957e+003;2.8398718262e+003;2.9005129395e+003;3.0120512695e+003;2.8833332520e+003;2.9967949219e+003;2.9596154785e+003;2.9528205566e+003;2.9341025391e+003;2.8382050781e+003;2.8847436523e+003;2.8947436523e+003;2.8821794434e+003;2.9165385742e+003;
3.7500000000e-001;3.2047436523e+003;2.8415385742e+003;2.9024357910e+003;3.0148718262e+003;2.8853845215e+003;2.9960256348e+003;2.9562819824e+003;2.9525642090e+003;2.9357692871e+003;2.8419230957e+003;2.8858974609e+003;2.8989743652e+003;2.8856411133e+003;2.9176923828e+003;
3.8281250000e-001;3.1769230957e+003;2.8141025391e+003;2.8593588867e+003;2.9816667480e+003;2.8501281738e+003;2.9583332520e+003;2.9137180176e+003;2.8998718262e+003;2.8932050781e+003;2.7983332520e+003;2.8458974609e+003;2.8600000000e+003;2.8494870605e+003;2.8741025391e+003;
3.9062500000e-001;3.2098718262e+003;2.8442307129e+003;2.8867949219e+003;3.0074357910e+003;2.8760256348e+003;2.9811538086e+003;2.9375642090e+003;2.9232050781e+003;2.9175642090e+003;2.8260256348e+003;2.8738461914e+003;2.8866667480e+003;2.8766667480e+003;2.9006411133e+003;
3.9843750000e-001;3.2050000000e+003;2.8297436523e+003;2.8833332520e+003;2.9978205566e+003;2.8597436523e+003;2.9633332520e+003;2.9207692871e+003;2.9089743652e+003;2.8987180176e+003;2.8165385742e+003;2.8598718262e+003;2.8779487305e+003;2.8619230957e+003;2.8865385742e+003;
4.0625000000e-001;3.1828205566e+003;2.8046154785e+003;2.8632050781e+003;2.9765385742e+003;2.8361538086e+003;2.9380769043e+003;2.8973076172e+003;2.8833332520e+003;2.8714101563e+003;2.7908974609e+003;2.8333332520e+003;2.8542307129e+003;2.8366667480e+003;2.8594870605e+003;
4.1406250000e-001;3.2287180176e+003;2.8514101563e+003;2.9035898438e+003;3.0116667480e+003;2.8797436523e+003;2.9707692871e+003;2.9308974609e+003;2.9235898438e+003;2.9170512695e+003;2.8338461914e+003;2.8779487305e+003;2.8960256348e+003;2.8816667480e+003;2.8997436523e+003;
4.2187500000e-001;3.2116667480e+003;2.8303845215e+003;2.8855129395e+003;2.9912819824e+003;2.8573076172e+003;2.9514101563e+003;2.9097436523e+003;2.9051281738e+003;2.8983332520e+003;2.8143588867e+003;2.8594870605e+003;2.8783332520e+003;2.8623076172e+003;2.8829487305e+003;
4.2968750000e-001;3.1756411133e+003;2.7858974609e+003;2.8476923828e+003;2.9507692871e+003;2.8116667480e+003;2.9092307129e+003;2.8732050781e+003;2.8619230957e+003;2.8515385742e+003;2.7698718262e+003;2.8175642090e+003;2.8397436523e+003;2.8205129395e+003;2.8457692871e+003;
4.3750000000e-001;3.1871794434e+003;2.7976923828e+003;2.8582050781e+003;2.9601281738e+003;2.8230769043e+003;2.9175642090e+003;2.8861538086e+003;2.8734614258e+003;2.8616667480e+003;2.7823076172e+003;2.8302563477e+003;2.8532050781e+003;2.8328205566e+003;2.8582050781e+003;
4.4531250000e-001;3.1643588867e+003;2.7697436523e+003;2.8297436523e+003;2.9329487305e+003;2.8014101563e+003;2.8970512695e+003;2.8650000000e+003;2.8537180176e+003;2.8429487305e+003;2.7578205566e+003;2.8084614258e+003;2.8297436523e+003;2.8100000000e+003;2.8342307129e+003;
4.5312500000e-001;3.1716667480e+003;2.7720512695e+003;2.8325642090e+003;2.9364101563e+003;2.8064101563e+003;2.9044870605e+003;2.8711538086e+003;2.8560256348e+003;2.8482050781e+003;2.7606411133e+003;2.8112819824e+003;2.8300000000e+003;2.8146154785e+003;2.8382050781e+003;
4.6093750000e-001;3.1967949219e+003;2.7939743652e+003;2.8538461914e+003;2.9567949219e+003;2.8293588867e+003;2.9293588867e+003;2.8955129395e+003;2.8778205566e+003;2.8735898438e+003;2.7858974609e+003;2.8342307129e+003;2.8510256348e+003;2.8385898438e+003;2.8623076172e+003;
4.6875000000e-001;3.1693588867e+003;2.7630769043e+003;2.8178205566e+003;2.9226923828e+003;2.8028205566e+003;2.9058974609e+003;2.8716667480e+003;2.8457692871e+003;2.8506411133e+003;2.7644870605e+003;2.8065385742e+003;2.8252563477e+003;2.8088461914e+003;2.8307692871e+003;
4.7656250000e-001;3.1806411133e+003;2.7714101563e+003;2.8279487305e+003;2.9312819824e+003;2.8117949219e+003;2.9142307129e+003;2.8780769043e+003;2.8537180176e+003;2.8578205566e+003;2.7750000000e+003;2.8147436523e+003;2.8334614258e+003;2.8180769043e+003;2.8367949219e+003;
4.8437500000e-001;3.2123076172e+003;2.8019230957e+003;2.8565385742e+003;2.9560256348e+003;2.8337180176e+003;2.9360256348e+003;2.8946154785e+003;2.8664101563e+003;2.8723076172e+003;2.7970512695e+003;2.8355129395e+003;2.8557692871e+003;2.8500000000e+003;2.8620512695e+003;
4.9218750000e-001;3.3189743652e+003;2.9137180176e+003;2.9594870605e+003;3.0544870605e+003;2.9379487305e+003;3.0228205566e+003;2.9897436523e+003;2.9721794434e+003;2.9800000000e+003;2.9160256348e+003;2.9503845215e+003;2.9696154785e+003;2.9602563477e+003;2.9730769043e+003;
5.0000000000e-001;3.3017949219e+003;2.8955129395e+003;2.9428205566e+003;3.0376923828e+003;2.9192307129e+003;3.0046154785e+003;2.9721794434e+003;2.9574357910e+003;2.9608974609e+003;2.8987180176e+003;2.9346154785e+003;2.9553845215e+003;2.9408974609e+003;2.9565385742e+003;
5.0781250000e-001;3.3461538086e+003;2.9448718262e+003;2.9914101563e+003;3.0816667480e+003;2.9652563477e+003;3.0400000000e+003;3.0098718262e+003;3.0058974609e+003;3.0011538086e+003;2.9448718262e+003;2.9776923828e+003;2.9971794434e+003;2.9894870605e+003;3.0029487305e+003;
5.1562500000e-001;3.3487180176e+003;2.9478205566e+003;2.9948718262e+003;3.0841025391e+003;2.9676923828e+003;3.0396154785e+003;3.0121794434e+003;3.0102563477e+003;3.0066667480e+003;2.9503845215e+003;2.9802563477e+003;3.0008974609e+003;2.9933332520e+003;3.0074357910e+003;
5.2343750000e-001;3.3264101563e+003;2.9219230957e+003;2.9661538086e+003;3.0552563477e+003;2.9402563477e+003;3.0123076172e+003;2.9888461914e+003;2.9829487305e+003;2.9819230957e+003;2.9237180176e+003;2.9558974609e+003;2.9767949219e+003;2.9657692871e+003;2.9850000000e+003;
5.3125000000e-001;3.3317949219e+003;2.9258974609e+003;2.9669230957e+003;3.0553845215e+003;2.9424357910e+003;3.0152563477e+003;2.9908974609e+003;2.9846154785e+003;2.9841025391e+003;2.9273076172e+003;2.9610256348e+003;2.9800000000e+003;2.9691025391e+003;2.9896154785e+003;
5.3906250000e-001;3.2944870605e+003;2.8888461914e+003;2.9319230957e+003;3.0211538086e+003;2.9030769043e+003;2.9832050781e+003;2.9565385742e+003;2.9498718262e+003;2.9433332520e+003;2.8924357910e+003;2.9211538086e+003;2.9450000000e+003;2.9351281738e+003;2.9525642090e+003;
5.4687500000e-001;3.2952563477e+003;2.8894870605e+003;2.9323076172e+003;3.0239743652e+003;2.9058974609e+003;2.9846154785e+003;2.9602563477e+003;2.9488461914e+003;2.9426923828e+003;2.8914101563e+003;2.9197436523e+003;2.9455129395e+003;2.9364101563e+003;2.9519230957e+003;
5.5468750000e-001;3.3311538086e+003;2.9264101563e+003;2.9629487305e+003;3.0576923828e+003;2.9455129395e+003;3.0205129395e+003;2.9938461914e+003;2.9801281738e+003;2.9828205566e+003;2.9298718262e+003;2.9574357910e+003;2.9807692871e+003;2.9726923828e+003;2.9873076172e+003;
5.6250000000e-001;3.3193588867e+003;2.9153845215e+003;2.9507692871e+003;3.0457692871e+003;2.9342307129e+003;3.0126923828e+003;2.9816667480e+003;2.9674357910e+003;2.9739743652e+003;2.9202563477e+003;2.9461538086e+003;2.9680769043e+003;2.9603845215e+003;2.9752563477e+003;
5.7031250000e-001;3.3016667480e+003;2.8987180176e+003;2.9338461914e+003;3.0284614258e+003;2.9179487305e+003;2.9992307129e+003;2.9658974609e+003;2.9473076172e+003;2.9553845215e+003;2.9017949219e+003;2.9252563477e+003;2.9465385742e+003;2.9408974609e+003;2.9546154785e+003;
5.7812500000e-001;3.4014101563e+003;3.0002563477e+003;3.0244870605e+003;3.1161538086e+003;3.0194870605e+003;3.0926923828e+003;3.0652563477e+003;3.0382050781e+003;3.0452563477e+003;3.0029487305e+003;3.0175642090e+003;3.0362819824e+003;3.0315385742e+003;3.0474357910e+003;
5.8593750000e-001;3.3664101563e+003;2.9650000000e+003;2.9916667480e+003;3.0839743652e+003;2.9838461914e+003;3.0615385742e+003;3.0323076172e+003;3.0052563477e+003;3.0124357910e+003;2.9650000000e+003;2.9832050781e+003;3.0005129395e+003;2.9944870605e+003;3.0108974609e+003;
5.9375000000e-001;3.3620512695e+003;2.9662819824e+003;2.9946154785e+003;3.0885898438e+003;2.9902563477e+003;3.0579487305e+003;3.0314101563e+003;3.0152563477e+003;3.0153845215e+003;2.9667949219e+003;2.9806411133e+003;3.0007692871e+003;2.9934614258e+003;3.0064101563e+003;
6.0156250000e-001;3.3347436523e+003;2.9387180176e+003;2.9685898438e+003;3.0642307129e+003;2.9650000000e+003;3.0350000000e+003;3.0083332520e+003;2.9932050781e+003;2.9893588867e+003;2.9424357910e+003;2.9542307129e+003;2.9770512695e+003;2.9673076172e+003;2.9807692871e+003;
6.0937500000e-001;3.3471794434e+003;2.9534614258e+003;2.9792307129e+003;3.0766667480e+003;2.9792307129e+003;3.0501281738e+003;3.0291025391e+003;3.0124357910e+003;3.0048718262e+003;2.9591025391e+003;2.9705129395e+003;2.9937180176e+003;2.9825642090e+003;2.9956411133e+003;
6.1718750000e-001;3.3937180176e+003;3.0032050781e+003;3.0311538086e+003;3.1256411133e+003;3.0311538086e+003;3.0925642090e+003;3.0751281738e+003;3.0621794434e+003;3.0538461914e+003;3.0132050781e+003;3.0229487305e+003;3.0506411133e+003;3.0396154785e+003;3.0579487305e+003;
6.2500000000e-001;3.4093588867e+003;3.0202563477e+003;3.0488461914e+003;3.1415385742e+003;3.0474357910e+003;3.1075642090e+003;3.0888461914e+003;3.0753845215e+003;3.0679487305e+003;3.0316667480e+003;3.0379487305e+003;3.0666667480e+003;3.0557692871e+003;3.0752563477e+003;
6.3281250000e-001;3.4005129395e+003;3.0166667480e+003;3.0485898438e+003;3.1323076172e+003;3.0361538086e+003;3.0973076172e+003;3.0747436523e+003;3.0658974609e+003;3.0626923828e+003;3.0365385742e+003;3.0360256348e+003;3.0629487305e+003;3.0480769043e+003;3.0687180176e+003;
6.4062500000e-001;3.4084614258e+003;3.0257692871e+003;3.0556411133e+003;3.1389743652e+003;3.0447436523e+003;3.1025642090e+003;3.0832050781e+003;3.0702563477e+003;3.0707692871e+003;3.0435898438e+003;3.0476923828e+003;3.0724357910e+003;3.0601281738e+003;3.0802563477e+003;
6.4843750000e-001;3.4928205566e+003;3.1167949219e+003;3.1396154785e+003;3.2221794434e+003;3.1362819824e+003;3.1833332520e+003;3.1669230957e+003;3.1517949219e+003;3.1623076172e+003;3.1350000000e+003;3.1420512695e+003;3.1648718262e+003;3.1587180176e+003;3.1776923828e+003;
6.5625000000e-001;3.4955129395e+003;3.1224357910e+003;3.1455129395e+003;3.2276923828e+003;3.1430769043e+003;3.1912819824e+003;3.1696154785e+003;3.1573076172e+003;3.1723076172e+003;3.1465385742e+003;3.1485898438e+003;3.1732050781e+003;3.1648718262e+003;3.1853845215e+003;
6.6406250000e-001;3.3841025391e+003;3.0087180176e+003;3.0329487305e+003;3.1207692871e+003;3.0348718262e+003;3.0967949219e+003;3.0626923828e+003;3.0406411133e+003;3.0611538086e+003;3.0387180176e+003;3.0323076172e+003;3.0570512695e+003;3.0447436523e+003;3.0689743652e+003;
6.7187500000e-001;3.4085898438e+003;3.0346154785e+003;3.0561538086e+003;3.1446154785e+003;3.0597436523e+003;3.1196154785e+003;3.0879487305e+003;3.0641025391e+003;3.0835898438e+003;3.0629487305e+003;3.0583332520e+003;3.0806411133e+003;3.0717949219e+003;3.0953845215e+003;
6.7968750000e-001;3.4614101563e+003;3.0942307129e+003;3.1128205566e+003;3.2002563477e+003;3.1158974609e+003;3.1707692871e+003;3.1434614258e+003;3.1256411133e+003;3.1376923828e+003;3.1180769043e+003;3.1176923828e+003;3.1396154785e+003;3.1326923828e+003;3.1562819824e+003;
6.8750000000e-001;3.4719230957e+003;3.1073076172e+003;3.1244870605e+003;3.2111538086e+003;3.1289743652e+003;3.1812819824e+003;3.1560256348e+003;3.1406411133e+003;3.1482050781e+003;3.1275642090e+003;3.1282050781e+003;3.1496154785e+003;3.1430769043e+003;3.1667949219e+003;
6.9531250000e-001;3.4914101563e+003;3.1311538086e+003;3.1470512695e+003;3.2296154785e+003;3.1561538086e+003;3.2058974609e+003;3.1858974609e+003;3.1765385742e+003;3.1794870605e+003;3.1614101563e+003;3.1488461914e+003;3.1696154785e+003;3.1658974609e+003;3.1857692871e+003;
7.0312500000e-001;3.4647436523e+003;3.1067949219e+003;3.1244870605e+003;3.2076923828e+003;3.1324357910e+003;3.1874357910e+003;3.1657692871e+003;3.1562819824e+003;3.1589743652e+003;3.1403845215e+003;3.1233332520e+003;3.1483332520e+003;3.1435898438e+003;3.1610256348e+003;
7.1093750000e-001;3.4494870605e+003;3.0941025391e+003;3.1119230957e+003;3.1960256348e+003;3.1206411133e+003;3.1783332520e+003;3.1548718262e+003;3.1437180176e+003;3.1460256348e+003;3.1253845215e+003;3.1078205566e+003;3.1348718262e+003;3.1307692871e+003;3.1450000000e+003;
7.1875000000e-001;3.4689743652e+003;3.1158974609e+003;3.1319230957e+003;3.2148718262e+003;3.1434614258e+003;3.1982050781e+003;3.1741025391e+003;3.1625642090e+003;3.1653845215e+003;3.1429487305e+003;3.1276923828e+003;3.1517949219e+003;3.1507692871e+003;3.1616667480e+003;
7.2656250000e-001;3.5176923828e+003;3.1728205566e+003;3.1851281738e+003;3.2605129395e+003;3.1914101563e+003;3.2356411133e+003;3.2224357910e+003;3.2098718262e+003;3.2192307129e+003;3.2048718262e+003;3.1892307129e+003;3.2052563477e+003;3.2046154785e+003;3.2175642090e+003;
7.3437500000e-001;3.6437180176e+003;3.3138461914e+003;3.3189743652e+003;3.3889743652e+003;3.3333332520e+003;3.3644870605e+003;3.3469230957e+003;3.3442307129e+003;3.3539743652e+003;3.3555129395e+003;3.3337180176e+003;3.3465385742e+003;3.3511538086e+003;3.3593588867e+003;
7.4218750000e-001;3.6212819824e+003;3.2925642090e+003;3.3005129395e+003;3.3687180176e+003;3.3130769043e+003;3.3457692871e+003;3.3271794434e+003;3.3225642090e+003;3.3332050781e+003;3.3364101563e+003;3.3142307129e+003;3.3270512695e+003;3.3307692871e+003;3.3383332520e+003;
7.5000000000e-001;3.6310256348e+003;3.3119230957e+003;3.3139743652e+003;3.3823076172e+003;3.3305129395e+003;3.3571794434e+003;3.3396154785e+003;3.3284614258e+003;3.3433332520e+003;3.3469230957e+003;3.3232050781e+003;3.3394870605e+003;3.3400000000e+003;3.3439743652e+003;
7.5781250000e-001;3.6523076172e+003;3.3402563477e+003;3.3376923828e+003;3.4057692871e+003;3.3561538086e+003;3.3788461914e+003;3.3606411133e+003;3.3517949219e+003;3.3683332520e+003;3.3708974609e+003;3.3455129395e+003;3.3637180176e+003;3.3617949219e+003;3.3653845215e+003;
7.6562500000e-001;3.6238461914e+003;3.3185898438e+003;3.3183332520e+003;3.3816667480e+003;3.3292307129e+003;3.3564101563e+003;3.3384614258e+003;3.3300000000e+003;3.3414101563e+003;3.3465385742e+003;3.3211538086e+003;3.3374357910e+003;3.3379487305e+003;3.3456411133e+003;
7.7343750000e-001;3.6248718262e+003;3.3293588867e+003;3.3294870605e+003;3.3944870605e+003;3.3424357910e+003;3.3698718262e+003;3.3514101563e+003;3.3402563477e+003;3.3469230957e+003;3.3597436523e+003;3.3346154785e+003;3.3512819824e+003;3.3492307129e+003;3.3564101563e+003;
7.8125000000e-001;3.6183332520e+003;3.3267949219e+003;3.3269230957e+003;3.3944870605e+003;3.3392307129e+003;3.3675642090e+003;3.3485898438e+003;3.3366667480e+003;3.3420512695e+003;3.3530769043e+003;3.3298718262e+003;3.3479487305e+003;3.3419230957e+003;3.3511538086e+003;
7.8906250000e-001;3.6692307129e+003;3.3808974609e+003;3.3838461914e+003;3.4433332520e+003;3.3903845215e+003;3.4153845215e+003;3.4060256348e+003;3.3966667480e+003;3.3930769043e+003;3.4037180176e+003;3.3846154785e+003;3.4042307129e+003;3.3952563477e+003;3.4064101563e+003;
7.9687500000e-001;3.6616667480e+003;3.3729487305e+003;3.3794870605e+003;3.4357692871e+003;3.3843588867e+003;3.4124357910e+003;3.4026923828e+003;3.3939743652e+003;3.3889743652e+003;3.3992307129e+003;3.3794870605e+003;3.4024357910e+003;3.3897436523e+003;3.4016667480e+003;
8.0468750000e-001;3.6685898438e+003;3.3842307129e+003;3.3883332520e+003;3.4458974609e+003;3.3991025391e+003;3.4287180176e+003;3.4152563477e+003;3.4056411133e+003;3.4026923828e+003;3.4107692871e+003;3.3885898438e+003;3.4126923828e+003;3.3979487305e+003;3.4078205566e+003;
8.1250000000e-001;3.7102563477e+003;3.4306411133e+003;3.4298718262e+003;3.4874357910e+003;3.4453845215e+003;3.4692307129e+003;3.4565385742e+003;3.4507692871e+003;3.4484614258e+003;3.4585898438e+003;3.4337180176e+003;3.4534614258e+003;3.4434614258e+003;3.4488461914e+003;
8.2031250000e-001;3.6956411133e+003;3.4202563477e+003;3.4241025391e+003;3.4743588867e+003;3.4329487305e+003;3.4578205566e+003;3.4492307129e+003;3.4489743652e+003;3.4446154785e+003;3.4602563477e+003;3.4275642090e+003;3.4489743652e+003;3.4393588867e+003;3.4407692871e+003;
8.2812500000e-001;3.6746154785e+003;3.3987180176e+003;3.4039743652e+003;3.4546154785e+003;3.4105129395e+003;3.4393588867e+003;3.4303845215e+003;3.4244870605e+003;3.4239743652e+003;3.4373076172e+003;3.4043588867e+003;3.4310256348e+003;3.4180769043e+003;3.4217949219e+003;
8.3593750000e-001;3.6915385742e+003;3.4161538086e+003;3.4191025391e+003;3.4715385742e+003;3.4273076172e+003;3.4553845215e+003;3.4453845215e+003;3.4358974609e+003;3.4419230957e+003;3.4548718262e+003;3.4205129395e+003;3.4500000000e+003;3.4370512695e+003;3.4410256348e+003;
8.4375000000e-001;3.7253845215e+003;3.4514101563e+003;3.4510256348e+003;3.5051281738e+003;3.4625642090e+003;3.4869230957e+003;3.4755129395e+003;3.4661538086e+003;3.4783332520e+003;3.4939743652e+003;3.4569230957e+003;3.4865385742e+003;3.4764101563e+003;3.4787180176e+003;
8.5156250000e-001;3.7296154785e+003;3.4696154785e+003;3.4606411133e+003;3.5111538086e+003;3.4755129395e+003;3.4867949219e+003;3.4779487305e+003;3.4652563477e+003;3.4828205566e+003;3.5070512695e+003;3.4710256348e+003;3.4932050781e+003;3.4864101563e+003;3.4870512695e+003;
8.5937500000e-001;3.7412819824e+003;3.4841025391e+003;3.4758974609e+003;3.5230769043e+003;3.4856411133e+003;3.4966667480e+003;3.4864101563e+003;3.4761538086e+003;3.4957692871e+003;3.5201281738e+003;3.4837180176e+003;3.5056411133e+003;3.4964101563e+003;3.4980769043e+003;
8.6718750000e-001;3.6925642090e+003;3.4366667480e+003;3.4382050781e+003;3.4853845215e+003;3.4407692871e+003;3.4593588867e+003;3.4408974609e+003;3.4261538086e+003;3.4487180176e+003;3.4703845215e+003;3.4411538086e+003;3.4646154785e+003;3.4535898438e+003;3.4526923828e+003;
8.7500000000e-001;3.7511538086e+003;3.5024357910e+003;3.4983332520e+003;3.5406411133e+003;3.5029487305e+003;3.5111538086e+003;3.5003845215e+003;3.4939743652e+003;3.5101281738e+003;3.5347436523e+003;3.5044870605e+003;3.5307692871e+003;3.5170512695e+003;3.5137180176e+003;
8.8281250000e-001;3.7262819824e+003;3.4801281738e+003;3.4780769043e+003;3.5180769043e+003;3.4770512695e+003;3.4875642090e+003;3.4767949219e+003;3.4755129395e+003;3.4880769043e+003;3.5132050781e+003;3.4823076172e+003;3.5112819824e+003;3.4944870605e+003;3.4917949219e+003;
8.9062500000e-001;3.6869230957e+003;3.4479487305e+003;3.4466667480e+003;3.4848718262e+003;3.4414101563e+003;3.4546154785e+003;3.4433332520e+003;3.4375642090e+003;3.4428205566e+003;3.4674357910e+003;3.4473076172e+003;3.4770512695e+003;3.4611538086e+003;3.4582050781e+003;
8.9843750000e-001;3.6688461914e+003;3.4334614258e+003;3.4338461914e+003;3.4729487305e+003;3.4246154785e+003;3.4411538086e+003;3.4385898438e+003;3.4255129395e+003;3.4267949219e+003;3.4502563477e+003;3.4294870605e+003;3.4639743652e+003;3.4455129395e+003;3.4405129395e+003;
9.0625000000e-001;3.6848718262e+003;3.4543588867e+003;3.4551281738e+003;3.4917949219e+003;3.4464101563e+003;3.4602563477e+003;3.4615385742e+003;3.4455129395e+003;3.4465385742e+003;3.4706411133e+003;3.4501281738e+003;3.4830769043e+003;3.4660256348e+003;3.4598718262e+003;
9.1406250000e-001;3.6894870605e+003;3.4747436523e+003;3.4721794434e+003;3.5053845215e+003;3.4684614258e+003;3.4811538086e+003;3.4771794434e+003;3.4671794434e+003;3.4658974609e+003;3.4934614258e+003;3.4719230957e+003;3.4993588867e+003;3.4869230957e+003;3.4824357910e+003;
9.2187500000e-001;3.6716667480e+003;3.4564101563e+003;3.4530769043e+003;3.4887180176e+003;3.4508974609e+003;3.4657692871e+003;3.4596154785e+003;3.4500000000e+003;3.4492307129e+003;3.4761538086e+003;3.4541025391e+003;3.4808974609e+003;3.4711538086e+003;3.4641025391e+003;
9.2968750000e-001;3.7110256348e+003;3.4933332520e+003;3.4924357910e+003;3.5271794434e+003;3.4928205566e+003;3.5044870605e+003;3.4991025391e+003;3.4906411133e+003;3.4962819824e+003;3.5252563477e+003;3.4960256348e+003;3.5217949219e+003;3.5125642090e+003;3.5016667480e+003;
9.3750000000e-001;3.7298718262e+003;3.5129487305e+003;3.5153845215e+003;3.5465385742e+003;3.5148718262e+003;3.5264101563e+003;3.5206411133e+003;3.5134614258e+003;3.5239743652e+003;3.5530769043e+003;3.5187180176e+003;3.5460256348e+003;3.5320512695e+003;3.5239743652e+003;
9.4531250000e-001;3.7080769043e+003;3.4994870605e+003;3.5030769043e+003;3.5301281738e+003;3.5006411133e+003;3.5166667480e+003;3.5084614258e+003;3.5015385742e+003;3.5194870605e+003;3.5400000000e+003;3.5078205566e+003;3.5347436523e+003;3.5196154785e+003;3.5155129395e+003;
9.5312500000e-001;3.7010256348e+003;3.4964101563e+003;3.4970512695e+003;3.5255129395e+003;3.4950000000e+003;3.5093588867e+003;3.5005129395e+003;3.4992307129e+003;3.5156411133e+003;3.5373076172e+003;3.5060256348e+003;3.5305129395e+003;3.5187180176e+003;3.5117949219e+003;
9.6093750000e-001;3.6692307129e+003;3.4671794434e+003;3.4669230957e+003;3.4978205566e+003;3.4633332520e+003;3.4782050781e+003;3.4685898438e+003;3.4726923828e+003;3.4869230957e+003;3.5111538086e+003;3.4788461914e+003;3.5016667480e+003;3.4906411133e+003;3.4823076172e+003;
9.6875000000e-001;3.6164101563e+003;3.4139743652e+003;3.4153845215e+003;3.4497436523e+003;3.4093588867e+003;3.4273076172e+003;3.4176923828e+003;3.4224357910e+003;3.4348718262e+003;3.4600000000e+003;3.4269230957e+003;3.4492307129e+003;3.4374357910e+003;3.4292307129e+003;
9.7656250000e-001;3.6358974609e+003;3.4348718262e+003;3.4364101563e+003;3.4746154785e+003;3.4361538086e+003;3.4508974609e+003;3.4475642090e+003;3.4458974609e+003;3.4585898438e+003;3.4760256348e+003;3.4444870605e+003;3.4657692871e+003;3.4570512695e+003;3.4505129395e+003;
9.8437500000e-001;3.6202563477e+003;3.4217949219e+003;3.4237180176e+003;3.4616667480e+003;3.4241025391e+003;3.4416667480e+003;3.4378205566e+003;3.4369230957e+003;3.4479487305e+003;3.4624357910e+003;3.4307692871e+003;3.4546154785e+003;3.4424357910e+003;3.4376923828e+003;
9.9218750000e-001;3.6210256348e+003;3.4235898438e+003;3.4191025391e+003;3.4623076172e+003;3.4324357910e+003;3.4515385742e+003;3.4534614258e+003;3.4421794434e+003;3.4429487305e+003;3.4561538086e+003;3.4251281738e+003;3.4505129395e+003;3.4387180176e+003;3.4312819824e+003;
1.0000000000e+000;3.6964101563e+003;3.5097436523e+003;3.4978205566e+003;3.5451281738e+003;3.5162819824e+003;3.5302563477e+003;3.5344870605e+003;3.5233332520e+003;3.5167949219e+003;3.5429487305e+003;3.5067949219e+003;3.5283332520e+003;3.5197436523e+003;3.5085898438e+003;
1.0078125000e+000;3.7250000000e+003;3.5461538086e+003;3.5292307129e+003;3.5776923828e+003;3.5492307129e+003;3.5587180176e+003;3.5646154785e+003;3.5502563477e+003;3.5444870605e+003;3.5746154785e+003;3.5385898438e+003;3.5571794434e+003;3.5505129395e+003;3.5389743652e+003;
1.0156250000e+000;3.7757692871e+003;3.6038461914e+003;3.5842307129e+003;3.6252563477e+003;3.6014101563e+003;3.6021794434e+003;3.6042307129e+003;3.5878205566e+003;3.5906411133e+003;3.6315385742e+003;3.5907692871e+003;3.6128205566e+003;3.6016667480e+003;3.5939743652e+003;
1.0234375000e+000;3.7620512695e+003;3.5937180176e+003;3.5729487305e+003;3.6121794434e+003;3.5893588867e+003;3.5848718262e+003;3.5842307129e+003;3.5630769043e+003;3.5771794434e+003;3.6176923828e+003;3.5756411133e+003;3.6001281738e+003;3.5892307129e+003;3.5796154785e+003;
1.0312500000e+000;3.7655129395e+003;3.6046154785e+003;3.5832050781e+003;3.6215385742e+003;3.5970512695e+003;3.5903845215e+003;3.5891025391e+003;3.5738461914e+003;3.5919230957e+003;3.6298718262e+003;3.5851281738e+003;3.6103845215e+003;3.5984614258e+003;3.5903845215e+003;
1.0390625000e+000;3.7403845215e+003;3.5844870605e+003;3.5656411133e+003;3.6028205566e+003;3.5755129395e+003;3.5700000000e+003;3.5666667480e+003;3.5575642090e+003;3.5773076172e+003;3.6119230957e+003;3.5657692871e+003;3.5928205566e+003;3.5773076172e+003;3.5732050781e+003;
1.0468750000e+000;3.7087180176e+003;3.5508974609e+003;3.5361538086e+003;3.5726923828e+003;3.5465385742e+003;3.5425642090e+003;3.5379487305e+003;3.5305129395e+003;3.5484614258e+003;3.5792307129e+003;3.5352563477e+003;3.5624357910e+003;3.5462819824e+003;3.5437180176e+003;
1.0546875000e+000;3.8060256348e+003;3.6533332520e+003;3.6307692871e+003;3.6683332520e+003;3.6502563477e+003;3.6408974609e+003;3.6402563477e+003;3.6434614258e+003;3.6548718262e+003;3.6853845215e+003;3.6392307129e+003;3.6601281738e+003;3.6538461914e+003;3.6403845215e+003;
1.0625000000e+000;3.7853845215e+003;3.6384614258e+003;3.6147436523e+003;3.6524357910e+003;3.6324357910e+003;3.6276923828e+003;3.6256411133e+003;3.6306411133e+003;3.6379487305e+003;3.6665385742e+003;3.6215385742e+003;3.6439743652e+003;3.6348718262e+003;3.6220512695e+003;
1.0703125000e+000;3.7623076172e+003;3.6194870605e+003;3.5948718262e+003;3.6316667480e+003;3.6112819824e+003;3.6096154785e+003;3.6074357910e+003;3.6102563477e+003;3.6143588867e+003;3.6420512695e+003;3.5993588867e+003;3.6224357910e+003;3.6110256348e+003;3.5991025391e+003;
1.0781250000e+000;3.7476923828e+003;3.6047436523e+003;3.5814101563e+003;3.6169230957e+003;3.5987180176e+003;3.5958974609e+003;3.5970512695e+003;3.5943588867e+003;3.5997436523e+003;3.6297436523e+003;3.5871794434e+003;3.6073076172e+003;3.5969230957e+003;3.5865385742e+003;
1.0859375000e+000;3.7228205566e+003;3.5766667480e+003;3.5580769043e+003;3.5939743652e+003;3.5741025391e+003;3.5734614258e+003;3.5746154785e+003;3.5705129395e+003;3.5775642090e+003;3.6085898438e+003;3.5642307129e+003;3.5841025391e+003;3.5741025391e+003;3.5660256348e+003;
1.0937500000e+000;3.6870512695e+003;3.5382050781e+003;3.5250000000e+003;3.5606411133e+003;3.5380769043e+003;3.5419230957e+003;3.5416667480e+003;3.5350000000e+003;3.5421794434e+003;3.5735898438e+003;3.5287180176e+003;3.5500000000e+003;3.5393588867e+003;3.5339743652e+003;
1.1015625000e+000;3.6497436523e+003;3.4941025391e+003;3.4926923828e+003;3.5212819824e+003;3.4996154785e+003;3.5097436523e+003;3.5106411133e+003;3.4919230957e+003;3.5025642090e+003;3.5346154785e+003;3.4970512695e+003;3.5191025391e+003;3.5035898438e+003;3.4982050781e+003;
1.1093750000e+000;3.6543588867e+003;3.4994870605e+003;3.4956411133e+003;3.5282050781e+003;3.5078205566e+003;3.5153845215e+003;3.5198718262e+003;3.4965385742e+003;3.5067949219e+003;3.5380769043e+003;3.5026923828e+003;3.5226923828e+003;3.5085898438e+003;3.5044870605e+003;
1.1171875000e+000;3.7337180176e+003;3.5924357910e+003;3.5765385742e+003;3.6069230957e+003;3.5960256348e+003;3.5912819824e+003;3.5912819824e+003;3.5779487305e+003;3.5819230957e+003;3.6193588867e+003;3.5800000000e+003;3.6025642090e+003;3.5903845215e+003;3.5828205566e+003;
1.1250000000e+000;3.6819230957e+003;3.5457692871e+003;3.5280769043e+003;3.5602563477e+003;3.5479487305e+003;3.5408974609e+003;3.5405129395e+003;3.5296154785e+003;3.5442307129e+003;3.5696154785e+003;3.5333332520e+003;3.5535898438e+003;3.5428205566e+003;3.5269230957e+003;
1.1328125000e+000;3.6980769043e+003;3.5638461914e+003;3.5428205566e+003;3.5751281738e+003;3.5648718262e+003;3.5544870605e+003;3.5561538086e+003;3.5479487305e+003;3.5652563477e+003;3.5903845215e+003;3.5533332520e+003;3.5716667480e+003;3.5582050781e+003;3.5425642090e+003;
1.1406250000e+000;3.6767949219e+003;3.5411538086e+003;3.5188461914e+003;3.5507692871e+003;3.5425642090e+003;3.5357692871e+003;3.5288461914e+003;3.5291025391e+003;3.5462819824e+003;3.5702563477e+003;3.5284614258e+003;3.5535898438e+003;3.5333332520e+003;3.5166667480e+003;
1.1484375000e+000;3.7223076172e+003;3.5882050781e+003;3.5641025391e+003;3.6006411133e+003;3.5932050781e+003;3.5869230957e+003;3.5775642090e+003;3.5866667480e+003;3.6089743652e+003;3.6264101563e+003;3.5794870605e+003;3.6005129395e+003;3.5915385742e+003;3.5661538086e+003;
1.1562500000e+000;3.7050000000e+003;3.5691025391e+003;3.5484614258e+003;3.5841025391e+003;3.5743588867e+003;3.5721794434e+003;3.5641025391e+003;3.5716667480e+003;3.5935898438e+003;3.6092307129e+003;3.5641025391e+003;3.5846154785e+003;3.5730769043e+003;3.5480769043e+003;
1.1640625000e+000;3.6896154785e+003;3.5515385742e+003;3.5341025391e+003;3.5674357910e+003;3.5575642090e+003;3.5580769043e+003;3.5520512695e+003;3.5544870605e+003;3.5747436523e+003;3.5902563477e+003;3.5484614258e+003;3.5680769043e+003;3.5547436523e+003;3.5301281738e+003;
1.1718750000e+000;3.7170512695e+003;3.5820512695e+003;3.5646154785e+003;3.5932050781e+003;3.5889743652e+003;3.5891025391e+003;3.5847436523e+003;3.5805129395e+003;3.5994870605e+003;3.6197436523e+003;3.5796154785e+003;3.5958974609e+003;3.5853845215e+003;3.5600000000e+003;
1.1796875000e+000;3.7023076172e+003;3.5747436523e+003;3.5566667480e+003;3.5870512695e+003;3.5803845215e+003;3.5911538086e+003;3.5843588867e+003;3.5732050781e+003;3.5915385742e+003;3.6110256348e+003;3.5692307129e+003;3.5926923828e+003;3.5761538086e+003;3.5552563477e+003;
1.1875000000e+000;3.7153845215e+003;3.5867949219e+003;3.5689743652e+003;3.5965385742e+003;3.5928205566e+003;3.6005129395e+003;3.5956411133e+003;3.5819230957e+003;3.5982050781e+003;3.6180769043e+003;3.5789743652e+003;3.6047436523e+003;3.5839743652e+003;3.5655129395e+003;
1.1953125000e+000;3.7376923828e+003;3.6080769043e+003;3.5911538086e+003;3.6146154785e+003;3.6143588867e+003;3.6157692871e+003;3.6135898438e+003;3.6012819824e+003;3.6146154785e+003;3.6365385742e+003;3.5992307129e+003;3.6271794434e+003;3.6025642090e+003;3.5855129395e+003;
1.2031250000e+000;3.7250000000e+003;3.5944870605e+003;3.5815385742e+003;3.6039743652e+003;3.6006411133e+003;3.5957692871e+003;3.5988461914e+003;3.5891025391e+003;3.5962819824e+003;3.6217949219e+003;3.5848718262e+003;3.6178205566e+003;3.5896154785e+003;3.5734614258e+003;
1.2109375000e+000;3.7152563477e+003;3.5851281738e+003;3.5729487305e+003;3.5985898438e+003;3.5910256348e+003;3.5855129395e+003;3.5914101563e+003;3.5767949219e+003;3.5832050781e+003;3.6088461914e+003;3.5737180176e+003;3.6069230957e+003;3.5797436523e+003;3.5647436523e+003;
1.2187500000e+000;3.7370512695e+003;3.6085898438e+003;3.5956411133e+003;3.6221794434e+003;3.6134614258e+003;3.6052563477e+003;3.6137180176e+003;3.5939743652e+003;3.6007692871e+003;3.6278205566e+003;3.5948718262e+003;3.6267949219e+003;3.6005129395e+003;3.5878205566e+003;
1.2265625000e+000;3.7943588867e+003;3.6656411133e+003;3.6601281738e+003;3.6726923828e+003;3.6684614258e+003;3.6523076172e+003;3.6624357910e+003;3.6564101563e+003;3.6550000000e+003;3.6920512695e+003;3.6639743652e+003;3.6919230957e+003;3.6650000000e+003;3.6491025391e+003;
1.2343750000e+000;3.8248718262e+003;3.6980769043e+003;3.6894870605e+003;3.7034614258e+003;3.6991025391e+003;3.6806411133e+003;3.6930769043e+003;3.6882050781e+003;3.6914101563e+003;3.7261538086e+003;3.6960256348e+003;3.7215385742e+003;3.7008974609e+003;3.6825642090e+003;
1.2421875000e+000;3.8194870605e+003;3.7010256348e+003;3.6946154785e+003;3.7024357910e+003;3.7000000000e+003;3.6861538086e+003;3.6973076172e+003;3.6932050781e+003;3.7042307129e+003;3.7369230957e+003;3.6911538086e+003;3.7210256348e+003;3.7041025391e+003;3.6848718262e+003;
1.2500000000e+000;3.9493588867e+003;3.8407692871e+003;3.8207692871e+003;3.8334614258e+003;3.8403845215e+003;3.8183332520e+003;3.8283332520e+003;3.8280769043e+003;3.8441025391e+003;3.8767949219e+003;3.8265385742e+003;3.8506411133e+003;3.8364101563e+003;3.8155129395e+003;
1.2578125000e+000;3.9548718262e+003;3.8508974609e+003;3.8279487305e+003;3.8419230957e+003;3.8497436523e+003;3.8301281738e+003;3.8370512695e+003;3.8414101563e+003;3.8565385742e+003;3.8908974609e+003;3.8396154785e+003;3.8621794434e+003;3.8448718262e+003;3.8266667480e+003;
1.2656250000e+000;3.8978205566e+003;3.8024357910e+003;3.7826923828e+003;3.7916667480e+003;3.8066667480e+003;3.7912819824e+003;3.7964101563e+003;3.8008974609e+003;3.8133332520e+003;3.8469230957e+003;3.7950000000e+003;3.8166667480e+003;3.8008974609e+003;3.7797436523e+003;
1.2734375000e+000;3.8508974609e+003;3.7578205566e+003;3.7475642090e+003;3.7555129395e+003;3.7650000000e+003;3.7539743652e+003;3.7621794434e+003;3.7602563477e+003;3.7760256348e+003;3.8039743652e+003;3.7539743652e+003;3.7760256348e+003;3.7606411133e+003;3.7407692871e+003;
1.2812500000e+000;3.8403845215e+003;3.7488461914e+003;3.7387180176e+003;3.7461538086e+003;3.7566667480e+003;3.7465385742e+003;3.7557692871e+003;3.7492307129e+003;3.7639743652e+003;3.7910256348e+003;3.7439743652e+003;3.7648718262e+003;3.7498718262e+003;3.7298718262e+003;
1.2890625000e+000;3.8638461914e+003;3.7739743652e+003;3.7623076172e+003;3.7684614258e+003;3.7833332520e+003;3.7712819824e+003;3.7820512695e+003;3.7724357910e+003;3.7847436523e+003;3.8129487305e+003;3.7687180176e+003;3.7876923828e+003;3.7746154785e+003;3.7534614258e+003;
1.2968750000e+000;4.0206411133e+003;3.9356411133e+003;3.9198718262e+003;3.9238461914e+003;3.9496154785e+003;3.9270512695e+003;3.9446154785e+003;3.9282050781e+003;3.9333332520e+003;3.9729487305e+003;3.9312819824e+003;3.9467949219e+003;3.9382050781e+003;3.9187180176e+003;
1.3046875000e+000;4.4371796875e+003;4.3833334961e+003;4.3469228516e+003;4.3332050781e+003;4.3855126953e+003;4.3278203125e+003;4.3602563477e+003;4.3475639648e+003;4.3452563477e+003;4.4178203125e+003;4.3658974609e+003;4.3755126953e+003;4.3719228516e+003;4.3567949219e+003;
1.3125000000e+000;4.4783334961e+003;4.4384614258e+003;4.3967949219e+003;4.3750000000e+003;4.4324360352e+003;4.3687177734e+003;4.3991025391e+003;4.3982050781e+003;4.3947436523e+003;4.4739741211e+003;4.4166665039e+003;4.4266665039e+003;4.4219228516e+003;4.4053847656e+003;
1.3203125000e+000;4.4175639648e+003;4.3871796875e+003;4.3450000000e+003;4.3206411133e+003;4.3760258789e+003;4.3147436523e+003;4.3392309570e+003;4.3471796875e+003;4.3430771484e+003;4.4226923828e+003;4.3635898438e+003;4.3756411133e+003;4.3685898438e+003;4.3503847656e+003;
1.3281250000e+000;4.3011538086e+003;4.2746152344e+003;4.2348715820e+003;4.2138461914e+003;4.2626923828e+003;4.2083334961e+003;4.2270512695e+003;4.2362822266e+003;4.2325639648e+003;4.3079487305e+003;4.2511538086e+003;4.2650000000e+003;4.2566665039e+003;4.2379487305e+003;
1.3359375000e+000;4.0848718262e+003;4.0542307129e+003;4.0305129395e+003;4.0096154785e+003;4.0456411133e+003;4.0083332520e+003;4.0255129395e+003;4.0256411133e+003;4.0361538086e+003;4.0924357910e+003;4.0398718262e+003;4.0585898438e+003;4.0497436523e+003;4.0465385742e+003;
1.3437500000e+000;4.0305129395e+003;3.9984614258e+003;3.9789743652e+003;3.9584614258e+003;3.9900000000e+003;3.9582050781e+003;3.9734614258e+003;3.9746154785e+003;3.9888461914e+003;4.0383332520e+003;3.9860256348e+003;4.0066667480e+003;3.9964101563e+003;3.9966667480e+003;
1.3515625000e+000;3.9588461914e+003;3.9238461914e+003;3.8976923828e+003;3.8943588867e+003;3.9176923828e+003;3.8896154785e+003;3.9019230957e+003;3.9121794434e+003;3.9329487305e+003;3.9675642090e+003;3.9146154785e+003;3.9294870605e+003;3.9215385742e+003;3.9224357910e+003;
1.3593750000e+000;3.9287180176e+003;3.8921794434e+003;3.8674357910e+003;3.8656411133e+003;3.8873076172e+003;3.8650000000e+003;3.8774357910e+003;3.8883332520e+003;3.9091025391e+003;3.9412819824e+003;3.8848718262e+003;3.9001281738e+003;3.8897436523e+003;3.8926923828e+003;
1.3671875000e+000;3.8242307129e+003;3.7874357910e+003;3.7660256348e+003;3.7643588867e+003;3.7892307129e+003;3.7816667480e+003;3.7932050781e+003;3.7878205566e+003;3.8006411133e+003;3.8307692871e+003;3.7778205566e+003;3.7916667480e+003;3.7835898438e+003;3.7915385742e+003;
1.3750000000e+000;3.7573076172e+003;3.7158974609e+003;3.6980769043e+003;3.7064101563e+003;3.7266667480e+003;3.7202563477e+003;3.7216667480e+003;3.7229487305e+003;3.7376923828e+003;3.7680769043e+003;3.7126923828e+003;3.7303845215e+003;3.7179487305e+003;3.7243588867e+003;
1.3828125000e+000;3.7100000000e+003;3.6647436523e+003;3.6485898438e+003;3.6612819824e+003;3.6764101563e+003;3.6744870605e+003;3.6761538086e+003;3.6723076172e+003;3.6879487305e+003;3.7146154785e+003;3.6603845215e+003;3.6812819824e+003;3.6660256348e+003;3.6724357910e+003;
1.3906250000e+000;3.6882050781e+003;3.6376923828e+003;3.6156411133e+003;3.6362819824e+003;3.6457692871e+003;3.6466667480e+003;3.6521794434e+003;3.6343588867e+003;3.6450000000e+003;3.6684614258e+003;3.6278205566e+003;3.6478205566e+003;3.6346154785e+003;3.6450000000e+003;
1.3984375000e+000;3.6939743652e+003;3.6393588867e+003;3.6184614258e+003;3.6396154785e+003;3.6483332520e+003;3.6474357910e+003;3.6517949219e+003;3.6323076172e+003;3.6416667480e+003;3.6665385742e+003;3.6284614258e+003;3.6514101563e+003;3.6355129395e+003;3.6487180176e+003;
1.4062500000e+000;3.7521794434e+003;3.6910256348e+003;3.6717949219e+003;3.6901281738e+003;3.7011538086e+003;3.6926923828e+003;3.6939743652e+003;3.6756411133e+003;3.6864101563e+003;3.7166667480e+003;3.6751281738e+003;3.7048718262e+003;3.6852563477e+003;3.6969230957e+003;
1.4140625000e+000;3.7828205566e+003;3.7220512695e+003;3.7030769043e+003;3.7185898438e+003;3.7301281738e+003;3.7196154785e+003;3.7194870605e+003;3.7060256348e+003;3.7175642090e+003;3.7505129395e+003;3.7062819824e+003;3.7355129395e+003;3.7165385742e+003;3.7258974609e+003;
1.4218750000e+000;3.7582050781e+003;3.6912819824e+003;3.6764101563e+003;3.6887180176e+003;3.6911538086e+003;3.6814101563e+003;3.6875642090e+003;3.6770512695e+003;3.6839743652e+003;3.7162819824e+003;3.6826923828e+003;3.7061538086e+003;3.6843588867e+003;3.7034614258e+003;
1.4296875000e+000;3.7884614258e+003;3.7129487305e+003;3.6970512695e+003;3.7084614258e+003;3.7116667480e+003;3.6957692871e+003;3.7060256348e+003;3.6946154785e+003;3.7025642090e+003;3.7360256348e+003;3.7033332520e+003;3.7285898438e+003;3.7042307129e+003;3.7264101563e+003;
1.4375000000e+000;3.8561538086e+003;3.7635898438e+003;3.7450000000e+003;3.7546154785e+003;3.7603845215e+003;3.7355129395e+003;3.7438461914e+003;3.7435898438e+003;3.7569230957e+003;3.7962819824e+003;3.7521794434e+003;3.7825642090e+003;3.7570512695e+003;3.7765385742e+003;
1.4453125000e+000;3.8441025391e+003;3.7473076172e+003;3.7283332520e+003;3.7385898438e+003;3.7433332520e+003;3.7196154785e+003;3.7239743652e+003;3.7305129395e+003;3.7457692871e+003;3.7846154785e+003;3.7366667480e+003;3.7653845215e+003;3.7435898438e+003;3.7600000000e+003;
1.4531250000e+000;3.7966667480e+003;3.7044870605e+003;3.6869230957e+003;3.6974357910e+003;3.7029487305e+003;3.6803845215e+003;3.6856411133e+003;3.6994870605e+003;3.7237180176e+003;3.7455129395e+003;3.7033332520e+003;3.7178205566e+003;3.7075642090e+003;3.7206411133e+003;
1.4609375000e+000;3.7596154785e+003;3.6694870605e+003;3.6542307129e+003;3.6670512695e+003;3.6694870605e+003;3.6535898438e+003;3.6579487305e+003;3.6729487305e+003;3.6984614258e+003;3.7160256348e+003;3.6717949219e+003;3.6889743652e+003;3.6747436523e+003;3.6880769043e+003;
1.4687500000e+000;3.6480769043e+003;3.5587180176e+003;3.5457692871e+003;3.5685898438e+003;3.5621794434e+003;3.5674357910e+003;3.5693588867e+003;3.5771794434e+003;3.5957692871e+003;3.6097436523e+003;3.5610256348e+003;3.5867949219e+003;3.5673076172e+003;3.5766667480e+003;
1.4765625000e+000;3.7141025391e+003;3.6317949219e+003;3.6226923828e+003;3.6398718262e+003;3.6467949219e+003;3.6435898438e+003;3.6528205566e+003;3.6528205566e+003;3.6638461914e+003;3.6812819824e+003;3.6353845215e+003;3.6542307129e+003;3.6464101563e+003;3.6520512695e+003;
1.4843750000e+000;3.7167949219e+003;3.6344870605e+003;3.6265385742e+003;3.6448718262e+003;3.6510256348e+003;3.6487180176e+003;3.6551281738e+003;3.6521794434e+003;3.6652563477e+003;3.6838461914e+003;3.6364101563e+003;3.6582050781e+003;3.6476923828e+003;3.6543588867e+003;
1.4921875000e+000;3.7603845215e+003;3.6844870605e+003;3.6715385742e+003;3.6905129395e+003;3.7007692871e+003;3.6966667480e+003;3.6952563477e+003;3.6907692871e+003;3.7041025391e+003;3.7319230957e+003;3.6765385742e+003;3.7038461914e+003;3.6891025391e+003;3.6934614258e+003;
1.5000000000e+000;3.7805129395e+003;3.7151281738e+003;3.6969230957e+003;3.7150000000e+003;3.7307692871e+003;3.7169230957e+003;3.7205129395e+003;3.7030769043e+003;3.7173076172e+003;3.7452563477e+003;3.7001281738e+003;3.7192307129e+003;3.7130769043e+003;3.7167949219e+003;
1.5078125000e+000;3.8316667480e+003;3.7693588867e+003;3.7507692871e+003;3.7666667480e+003;3.7843588867e+003;3.7651281738e+003;3.7702563477e+003;3.7534614258e+003;3.7698718262e+003;3.8006411133e+003;3.7552563477e+003;3.7730769043e+003;3.7689743652e+003;3.7725642090e+003;
1.5156250000e+000;3.7676923828e+003;3.7082050781e+003;3.6929487305e+003;3.7079487305e+003;3.7189743652e+003;3.7102563477e+003;3.7079487305e+003;3.7019230957e+003;3.7139743652e+003;3.7479487305e+003;3.6992307129e+003;3.7256411133e+003;3.7123076172e+003;3.7178205566e+003;
1.5234375000e+000;3.7437180176e+003;3.6860256348e+003;3.6682050781e+003;3.6848718262e+003;3.6955129395e+003;3.6870512695e+003;3.6855129395e+003;3.6771794434e+003;3.6871794434e+003;3.7192307129e+003;3.6742307129e+003;3.7014101563e+003;3.6887180176e+003;3.6914101563e+003;
1.5312500000e+000;3.8242307129e+003;3.7743588867e+003;3.7530769043e+003;3.7662819824e+003;3.7796154785e+003;3.7565385742e+003;3.7658974609e+003;3.7575642090e+003;3.7679487305e+003;3.8029487305e+003;3.7610256348e+003;3.7844870605e+003;3.7770512695e+003;3.7717949219e+003;
1.5390625000e+000;3.8821794434e+003;3.8351281738e+003;3.8151281738e+003;3.8246154785e+003;3.8378205566e+003;3.8078205566e+003;3.8237180176e+003;3.8166667480e+003;3.8279487305e+003;3.8673076172e+003;3.8242307129e+003;3.8453845215e+003;3.8392307129e+003;3.8320512695e+003;
1.5468750000e+000;4.0924357910e+003;4.0526923828e+003;4.0297436523e+003;4.0271794434e+003;4.0516667480e+003;4.0058974609e+003;4.0307692871e+003;4.0329487305e+003;4.0402563477e+003;4.0965385742e+003;4.0491025391e+003;4.0628205566e+003;4.0583332520e+003;4.0488461914e+003;
1.5546875000e+000;4.1421796875e+003;4.1088461914e+003;4.0851281738e+003;4.0764101563e+003;4.1069228516e+003;4.0597436523e+003;4.0838461914e+003;4.0939743652e+003;4.0991025391e+003;4.1584614258e+003;4.1076923828e+003;4.1223076172e+003;4.1153847656e+003;4.1044873047e+003;
1.5625000000e+000;4.1593588867e+003;4.1420512695e+003;4.1182050781e+003;4.1001284180e+003;4.1378203125e+003;4.0951281738e+003;4.1206411133e+003;4.1332050781e+003;4.1397436523e+003;4.1953847656e+003;4.1392309570e+003;4.1591025391e+003;4.1491025391e+003;4.1312822266e+003;
1.5703125000e+000;4.1847436523e+003;4.1751284180e+003;4.1479487305e+003;4.1274360352e+003;4.1705126953e+003;4.1264101563e+003;4.1551284180e+003;4.1639741211e+003;4.1734614258e+003;4.2267949219e+003;4.1687177734e+003;4.1882050781e+003;4.1812822266e+003;4.1583334961e+003;
1.5781250000e+000;4.2103847656e+003;4.2176923828e+003;4.1858974609e+003;4.1648715820e+003;4.2121796875e+003;4.1680771484e+003;4.1933334961e+003;4.2078203125e+003;4.2184614258e+003;4.2771796875e+003;4.2132050781e+003;4.2296152344e+003;4.2201284180e+003;4.1997436523e+003;
1.5859375000e+000;4.1462822266e+003;4.1555126953e+003;4.1275639648e+003;4.1092309570e+003;4.1515385742e+003;4.1151284180e+003;4.1353847656e+003;4.1470512695e+003;4.1555126953e+003;4.2144873047e+003;4.1526923828e+003;4.1711538086e+003;4.1575639648e+003;4.1408974609e+003;
1.5937500000e+000;4.0979487305e+003;4.1087177734e+003;4.0825642090e+003;4.0665385742e+003;4.1073076172e+003;4.0758974609e+003;4.0929487305e+003;4.0979487305e+003;4.1056411133e+003;4.1637177734e+003;4.1055126953e+003;4.1247436523e+003;4.1107690430e+003;4.0942307129e+003;
1.6015625000e+000;4.0843588867e+003;4.0969228516e+003;4.0700000000e+003;4.0546154785e+003;4.0976923828e+003;4.0673076172e+003;4.0829487305e+003;4.0824357910e+003;4.0907692871e+003;4.1485898438e+003;4.0920512695e+003;4.1102563477e+003;4.0993588867e+003;4.0800000000e+003;
1.6093750000e+000;3.9352563477e+003;3.9425642090e+003;3.9219230957e+003;3.9105129395e+003;3.9398718262e+003;3.9246154785e+003;3.9364101563e+003;3.9267949219e+003;3.9430769043e+003;3.9900000000e+003;3.9389743652e+003;3.9567949219e+003;3.9451281738e+003;3.9308974609e+003;
1.6171875000e+000;3.8941025391e+003;3.8998718262e+003;3.8798718262e+003;3.8721794434e+003;3.8974357910e+003;3.8835898438e+003;3.8970512695e+003;3.8838461914e+003;3.8994870605e+003;3.9444870605e+003;3.8985898438e+003;3.9167949219e+003;3.9026923828e+003;3.8923076172e+003;
1.6250000000e+000;3.8846154785e+003;3.8879487305e+003;3.8692307129e+003;3.8626923828e+003;3.8852563477e+003;3.8724357910e+003;3.8861538086e+003;3.8661538086e+003;3.8739743652e+003;3.9229487305e+003;3.8814101563e+003;3.9084614258e+003;3.8887180176e+003;3.8769230957e+003;
1.6328125000e+000;4.1410258789e+003;4.1539741211e+003;4.1253847656e+003;4.1079487305e+003;4.1416665039e+003;4.1064101563e+003;4.1280771484e+003;4.1120512695e+003;4.1217949219e+003;4.1856411133e+003;4.1374360352e+003;4.1612822266e+003;4.1461538086e+003;4.1269228516e+003;
1.6406250000e+000;4.1946152344e+003;4.2117949219e+003;4.1819228516e+003;4.1628203125e+003;4.1992309570e+003;4.1567949219e+003;4.1803847656e+003;4.1712822266e+003;4.1810258789e+003;4.2505126953e+003;4.1989741211e+003;4.2210258789e+003;4.2062822266e+003;4.1867949219e+003;
1.6484375000e+000;4.3164101563e+003;4.3535898438e+003;4.3170512695e+003;4.2892309570e+003;4.3352563477e+003;4.2752563477e+003;4.3069228516e+003;4.3030771484e+003;4.3115385742e+003;4.3878203125e+003;4.3366665039e+003;4.3503847656e+003;4.3439741211e+003;4.3193588867e+003;
1.6562500000e+000;4.4126923828e+003;4.4769228516e+003;4.4319228516e+003;4.3915385742e+003;4.4498715820e+003;4.3792309570e+003;4.4160258789e+003;4.4333334961e+003;4.4425639648e+003;4.5215385742e+003;4.4591025391e+003;4.4685898438e+003;4.4678203125e+003;4.4324360352e+003;
1.6640625000e+000;4.3517949219e+003;4.4173076172e+003;4.3748715820e+003;4.3358974609e+003;4.3935898438e+003;4.3280771484e+003;4.3638461914e+003;4.3821796875e+003;4.3910258789e+003;4.4670512695e+003;4.4020512695e+003;4.4141025391e+003;4.4130771484e+003;4.3764101563e+003;
1.6718750000e+000;4.2785898438e+003;4.3447436523e+003;4.3047436523e+003;4.2710258789e+003;4.3294873047e+003;4.2794873047e+003;4.3066665039e+003;4.3151284180e+003;4.3248715820e+003;4.3961538086e+003;4.3305126953e+003;4.3396152344e+003;4.3426923828e+003;4.3067949219e+003;
1.6796875000e+000;4.2737177734e+003;4.3429487305e+003;4.3034614258e+003;4.2723076172e+003;4.3305126953e+003;4.2838461914e+003;4.3079487305e+003;4.3148715820e+003;4.3237177734e+003;4.3946152344e+003;4.3285898438e+003;4.3362822266e+003;4.3379487305e+003;4.3035898438e+003;
1.6875000000e+000;4.2305126953e+003;4.3074360352e+003;4.2671796875e+003;4.2402563477e+003;4.2992309570e+003;4.2552563477e+003;4.2780771484e+003;4.2838461914e+003;4.2891025391e+003;4.3574360352e+003;4.2900000000e+003;4.2994873047e+003;4.2980771484e+003;4.2626923828e+003;
1.6953125000e+000;4.1823076172e+003;4.2606411133e+003;4.2212822266e+003;4.1951284180e+003;4.2516665039e+003;4.2117949219e+003;4.2334614258e+003;4.2382050781e+003;4.2423076172e+003;4.3091025391e+003;4.2421796875e+003;4.2544873047e+003;4.2516665039e+003;4.2156411133e+003;
1.7031250000e+000;3.9743588867e+003;4.0421794434e+003;4.0169230957e+003;3.9932050781e+003;4.0300000000e+003;4.0121794434e+003;4.0220512695e+003;4.0121794434e+003;4.0193588867e+003;4.0773076172e+003;4.0257692871e+003;4.0460256348e+003;4.0387180176e+003;4.0058974609e+003;
1.7109375000e+000;3.9558974609e+003;4.0235898438e+003;3.9997436523e+003;3.9767949219e+003;4.0124357910e+003;3.9924357910e+003;4.0005129395e+003;3.9905129395e+003;3.9985898438e+003;4.0553845215e+003;4.0071794434e+003;4.0269230957e+003;4.0206411133e+003;3.9864101563e+003;
1.7187500000e+000;3.9470512695e+003;4.0170512695e+003;3.9935898438e+003;3.9715385742e+003;4.0073076172e+003;3.9830769043e+003;3.9906411133e+003;3.9856411133e+003;3.9937180176e+003;4.0497436523e+003;4.0019230957e+003;4.0206411133e+003;4.0139743652e+003;3.9793588867e+003;
1.7265625000e+000;3.9115385742e+003;3.9810256348e+003;3.9596154785e+003;3.9396154785e+003;3.9729487305e+003;3.9485898438e+003;3.9560256348e+003;3.9558974609e+003;3.9634614258e+003;4.0167949219e+003;3.9691025391e+003;3.9880769043e+003;3.9782050781e+003;3.9455129395e+003;
1.7343750000e+000;3.7803845215e+003;3.8114101563e+003;3.8028205566e+003;3.7932050781e+003;3.8064101563e+003;3.7978205566e+003;3.8044870605e+003;3.7907692871e+003;3.8076923828e+003;3.8462819824e+003;3.8066667480e+003;3.8269230957e+003;3.8144870605e+003;3.7830769043e+003;
1.7421875000e+000;3.7750000000e+003;3.7337180176e+003;3.7279487305e+003;3.7160256348e+003;3.7351281738e+003;3.7238461914e+003;3.7250000000e+003;3.7176923828e+003;3.7432050781e+003;3.7738461914e+003;3.7338461914e+003;3.7546154785e+003;3.7408974609e+003;3.7125642090e+003;
1.7500000000e+000;3.8644870605e+003;3.7679487305e+003;3.7597436523e+003;3.7497436523e+003;3.7687180176e+003;3.7556411133e+003;3.7584614258e+003;3.7508974609e+003;3.7785898438e+003;3.8100000000e+003;3.7692307129e+003;3.7897436523e+003;3.7758974609e+003;3.7500000000e+003;
1.7578125000e+000;3.9569230957e+003;3.7933332520e+003;3.7848718262e+003;3.7774357910e+003;3.7891025391e+003;3.7755129395e+003;3.7780769043e+003;3.7767949219e+003;3.8005129395e+003;3.8382050781e+003;3.7941025391e+003;3.8169230957e+003;3.7985898438e+003;3.7767949219e+003;
1.7656250000e+000;3.9261538086e+003;3.7705129395e+003;3.7623076172e+003;3.7543588867e+003;3.7650000000e+003;3.7503845215e+003;3.7523076172e+003;3.7514101563e+003;3.7711538086e+003;3.8091025391e+003;3.7678205566e+003;3.7907692871e+003;3.7716667480e+003;3.7508974609e+003;
1.7734375000e+000;3.8702563477e+003;3.7600000000e+003;3.7475642090e+003;3.7401281738e+003;3.7543588867e+003;3.7342307129e+003;3.7361538086e+003;3.7314101563e+003;3.7507692871e+003;3.7879487305e+003;3.7516667480e+003;3.7726923828e+003;3.7570512695e+003;3.7398718262e+003;
1.7812500000e+000;3.9338461914e+003;3.7492307129e+003;3.7401281738e+003;3.7385898438e+003;3.7460256348e+003;3.7310256348e+003;3.7335898438e+003;3.7203845215e+003;3.7391025391e+003;3.7785898438e+003;3.7369230957e+003;3.7656411133e+003;3.7428205566e+003;3.7285898438e+003;
1.7890625000e+000;3.9491025391e+003;3.7550000000e+003;3.7474357910e+003;3.7438461914e+003;3.7550000000e+003;3.7357692871e+003;3.7394870605e+003;3.7247436523e+003;3.7429487305e+003;3.7808974609e+003;3.7396154785e+003;3.7691025391e+003;3.7444870605e+003;3.7315385742e+003;
1.7968750000e+000;3.9366667480e+003;3.7470512695e+003;3.7419230957e+003;3.7356411133e+003;3.7503845215e+003;3.7291025391e+003;3.7330769043e+003;3.7158974609e+003;3.7342307129e+003;3.7700000000e+003;3.7288461914e+003;3.7592307129e+003;3.7335898438e+003;3.7226923828e+003;
1.8046875000e+000;3.9210256348e+003;3.7589743652e+003;3.7532050781e+003;3.7447436523e+003;3.7620512695e+003;3.7455129395e+003;3.7508974609e+003;3.7202563477e+003;3.7392307129e+003;3.7744870605e+003;3.7330769043e+003;3.7625642090e+003;3.7401281738e+003;3.7303845215e+003;
1.8125000000e+000;4.0816667480e+003;3.9647436523e+003;3.9453845215e+003;3.9324357910e+003;3.9596154785e+003;3.9365385742e+003;3.9426923828e+003;3.9256411133e+003;3.9441025391e+003;3.9871794434e+003;3.9389743652e+003;3.9615385742e+003;3.9444870605e+003;3.9278205566e+003;
1.8203125000e+000;4.0370512695e+003;3.9297436523e+003;3.9137180176e+003;3.9003845215e+003;3.9273076172e+003;3.9071794434e+003;3.9097436523e+003;3.9002563477e+003;3.9174357910e+003;3.9593588867e+003;3.9089743652e+003;3.9332050781e+003;3.9135898438e+003;3.8969230957e+003;
1.8281250000e+000;3.9729487305e+003;3.8970512695e+003;3.8761538086e+003;3.8698718262e+003;3.9014101563e+003;3.8773076172e+003;3.8820512695e+003;3.8600000000e+003;3.8788461914e+003;3.9183332520e+003;3.8733332520e+003;3.8943588867e+003;3.8802563477e+003;3.8615385742e+003;
1.8359375000e+000;4.0666667480e+003;4.0032050781e+003;3.9753845215e+003;3.9666667480e+003;4.0034614258e+003;3.9701281738e+003;3.9789743652e+003;3.9578205566e+003;3.9778205566e+003;4.0206411133e+003;3.9776923828e+003;3.9951281738e+003;3.9833332520e+003;3.9630769043e+003;
1.8437500000e+000;4.1575639648e+003;4.1030771484e+003;4.0726923828e+003;4.0585898438e+003;4.0997436523e+003;4.0579487305e+003;4.0705129395e+003;4.0543588867e+003;4.0743588867e+003;4.1210258789e+003;4.0788461914e+003;4.0941025391e+003;4.0823076172e+003;4.0612819824e+003;
1.8515625000e+000;4.2146152344e+003;4.1655126953e+003;4.1373076172e+003;4.1174360352e+003;4.1621796875e+003;4.1133334961e+003;4.1289741211e+003;4.1188461914e+003;4.1380771484e+003;4.1874360352e+003;4.1450000000e+003;4.1594873047e+003;4.1467949219e+003;4.1256411133e+003;
1.8593750000e+000;4.1593588867e+003;4.1371796875e+003;4.1214101563e+003;4.0901281738e+003;4.1362822266e+003;4.0775642090e+003;4.0942307129e+003;4.0992309570e+003;4.1161538086e+003;4.1670512695e+003;4.1235898438e+003;4.1483334961e+003;4.1246152344e+003;4.1084614258e+003;
1.8671875000e+000;4.3830771484e+003;4.3861538086e+003;4.3525639648e+003;4.3188461914e+003;4.3803847656e+003;4.2950000000e+003;4.3214101563e+003;4.3214101563e+003;4.3387177734e+003;4.3962822266e+003;4.3575639648e+003;4.3687177734e+003;4.3565385742e+003;4.3294873047e+003;
1.8750000000e+000;4.3871796875e+003;4.3991025391e+003;4.3666665039e+003;4.3320512695e+003;4.3958974609e+003;4.3117949219e+003;4.3370512695e+003;4.3426923828e+003;4.3598715820e+003;4.4206411133e+003;4.3785898438e+003;4.3879487305e+003;4.3746152344e+003;4.3433334961e+003;
1.8828125000e+000;4.2171796875e+003;4.2446152344e+003;4.2206411133e+003;4.1880771484e+003;4.2466665039e+003;4.1829487305e+003;4.1989741211e+003;4.2023076172e+003;4.2201284180e+003;4.2721796875e+003;4.2388461914e+003;4.2478203125e+003;4.2298715820e+003;4.1962822266e+003;
1.8906250000e+000;4.1465385742e+003;4.1770512695e+003;4.1543588867e+003;4.1241025391e+003;4.1814101563e+003;4.1257690430e+003;4.1376923828e+003;4.1361538086e+003;4.1546152344e+003;4.2003847656e+003;4.1732050781e+003;4.1805126953e+003;4.1638461914e+003;4.1310258789e+003;
1.8984375000e+000;4.0667949219e+003;4.0800000000e+003;4.0542307129e+003;4.0360256348e+003;4.0887180176e+003;4.0496154785e+003;4.0558974609e+003;4.0442307129e+003;4.0607692871e+003;4.1002563477e+003;4.0716667480e+003;4.0784614258e+003;4.0629487305e+003;4.0328205566e+003;
1.9062500000e+000;4.0744870605e+003;4.0605129395e+003;4.0333332520e+003;4.0169230957e+003;4.0682050781e+003;4.0293588867e+003;4.0371794434e+003;4.0207692871e+003;4.0425642090e+003;4.0683332520e+003;4.0551281738e+003;4.0598718262e+003;4.0462819824e+003;4.0076923828e+003;
1.9140625000e+000;4.0503845215e+003;4.0276923828e+003;4.0033332520e+003;3.9862819824e+003;4.0352563477e+003;3.9989743652e+003;4.0051281738e+003;3.9920512695e+003;4.0152563477e+003;4.0364101563e+003;4.0267949219e+003;4.0324357910e+003;4.0152563477e+003;3.9800000000e+003;
1.9218750000e+000;4.0185898438e+003;3.9658974609e+003;3.9447436523e+003;3.9335898438e+003;3.9730769043e+003;3.9456411133e+003;3.9546154785e+003;3.9364101563e+003;3.9562819824e+003;3.9784614258e+003;3.9687180176e+003;3.9780769043e+003;3.9508974609e+003;3.9293588867e+003;
1.9296875000e+000;4.0667949219e+003;4.0035898438e+003;3.9821794434e+003;3.9700000000e+003;4.0092307129e+003;3.9793588867e+003;3.9882050781e+003;3.9732050781e+003;3.9928205566e+003;4.0184614258e+003;4.0062819824e+003;4.0152563477e+003;3.9897436523e+003;3.9680769043e+003;
1.9375000000e+000;4.0951281738e+003;4.0138461914e+003;3.9961538086e+003;3.9826923828e+003;4.0171794434e+003;3.9853845215e+003;3.9903845215e+003;3.9834614258e+003;4.0061538086e+003;4.0294870605e+003;4.0166667480e+003;4.0253845215e+003;4.0042307129e+003;3.9817949219e+003;
1.9453125000e+000;4.0903845215e+003;4.0064101563e+003;3.9888461914e+003;3.9766667480e+003;4.0097436523e+003;3.9751281738e+003;3.9814101563e+003;3.9735898438e+003;3.9979487305e+003;4.0185898438e+003;4.0083332520e+003;4.0161538086e+003;3.9965385742e+003;3.9741025391e+003;
1.9531250000e+000;4.1047436523e+003;4.0256411133e+003;4.0057692871e+003;3.9939743652e+003;4.0287180176e+003;3.9882050781e+003;3.9976923828e+003;3.9891025391e+003;4.0147436523e+003;4.0355129395e+003;4.0269230957e+003;4.0325642090e+003;4.0139743652e+003;3.9915385742e+003;
1.9609375000e+000;4.1242309570e+003;4.0702563477e+003;4.0478205566e+003;4.0323076172e+003;4.0712819824e+003;4.0232050781e+003;4.0346154785e+003;4.0330769043e+003;4.0617949219e+003;4.0874357910e+003;4.0746154785e+003;4.0783332520e+003;4.0578205566e+003;4.0369230957e+003;
1.9687500000e+000;4.0908974609e+003;4.0498718262e+003;4.0284614258e+003;4.0121794434e+003;4.0491025391e+003;4.0041025391e+003;4.0129487305e+003;4.0152563477e+003;4.0446154785e+003;4.0702563477e+003;4.0542307129e+003;4.0597436523e+003;4.0385898438e+003;4.0179487305e+003;
1.9765625000e+000;4.0514101563e+003;4.0205129395e+003;3.9988461914e+003;3.9838461914e+003;4.0175642090e+003;3.9761538086e+003;3.9828205566e+003;3.9867949219e+003;4.0155129395e+003;4.0397436523e+003;4.0216667480e+003;4.0292307129e+003;4.0100000000e+003;3.9876923828e+003;
1.9843750000e+000;3.9400000000e+003;3.9214101563e+003;3.9048718262e+003;3.8979487305e+003;3.9185898438e+003;3.8830769043e+003;3.8980769043e+003;3.8901281738e+003;3.9173076172e+003;3.9321794434e+003;3.9228205566e+003;3.9329487305e+003;3.9133332520e+003;3.8924357910e+003;
1.9921875000e+000;3.9317949219e+003;3.9165385742e+003;3.8989743652e+003;3.8937180176e+003;3.9162819824e+003;3.8837180176e+003;3.8983332520e+003;3.8873076172e+003;3.9123076172e+003;3.9256411133e+003;3.9175642090e+003;3.9266667480e+003;3.9069230957e+003;3.8879487305e+003;
2.0000000000e+000;3.9162819824e+003;3.9108974609e+003;3.8891025391e+003;3.8865385742e+003;3.9128205566e+003;3.8908974609e+003;3.9001281738e+003;3.8869230957e+003;3.9046154785e+003;3.9205129395e+003;3.9092307129e+003;3.9211538086e+003;3.8962819824e+003;3.8796154785e+003;
2.0078125000e+000;3.8752563477e+003;3.8685898438e+003;3.8500000000e+003;3.8491025391e+003;3.8671794434e+003;3.8541025391e+003;3.8541025391e+003;3.8320512695e+003;3.8587180176e+003;3.8689743652e+003;3.8575642090e+003;3.8703845215e+003;3.8485898438e+003;3.8301281738e+003;
2.0156250000e+000;3.8633332520e+003;3.8555129395e+003;3.8375642090e+003;3.8374357910e+003;3.8538461914e+003;3.8430769043e+003;3.8417949219e+003;3.8233332520e+003;3.8497436523e+003;3.8574357910e+003;3.8450000000e+003;3.8564101563e+003;3.8367949219e+003;3.8179487305e+003;
2.0234375000e+000;3.8615385742e+003;3.8271794434e+003;3.8066667480e+003;3.8116667480e+003;3.8314101563e+003;3.8235898438e+003;3.8247436523e+003;3.8055129395e+003;3.8296154785e+003;3.8324357910e+003;3.8246154785e+003;3.8326923828e+003;3.8160256348e+003;3.7956411133e+003;
2.0312500000e+000;3.9525642090e+003;3.8837180176e+003;3.8620512695e+003;3.8658974609e+003;3.8807692871e+003;3.8685898438e+003;3.8647436523e+003;3.8574357910e+003;3.8876923828e+003;3.8966667480e+003;3.8794870605e+003;3.8885898438e+003;3.8738461914e+003;3.8483332520e+003;
2.0390625000e+000;3.9317949219e+003;3.8565385742e+003;3.8373076172e+003;3.8425642090e+003;3.8533332520e+003;3.8398718262e+003;3.8361538086e+003;3.8317949219e+003;3.8596154785e+003;3.8683332520e+003;3.8525642090e+003;3.8614101563e+003;3.8455129395e+003;3.8198718262e+003;
2.0468750000e+000;3.9220512695e+003;3.8492307129e+003;3.8294870605e+003;3.8362819824e+003;3.8467949219e+003;3.8288461914e+003;3.8269230957e+003;3.8235898438e+003;3.8487180176e+003;3.8575642090e+003;3.8457692871e+003;3.8524357910e+003;3.8367949219e+003;3.8103845215e+003;
2.0546875000e+000;3.9371794434e+003;3.8907692871e+003;3.8652563477e+003;3.8729487305e+003;3.8882050781e+003;3.8616667480e+003;3.8616667480e+003;3.8597436523e+003;3.8830769043e+003;3.8967949219e+003;3.8873076172e+003;3.8937180176e+003;3.8770512695e+003;3.8511538086e+003;
2.0625000000e+000;3.9624357910e+003;3.8952563477e+003;3.8676923828e+003;3.8733332520e+003;3.8917949219e+003;3.8624357910e+003;3.8684614258e+003;3.8612819824e+003;3.8792307129e+003;3.8946154785e+003;3.8853845215e+003;3.9015385742e+003;3.8788461914e+003;3.8582050781e+003;
2.0703125000e+000;4.0155129395e+003;3.9205129395e+003;3.8921794434e+003;3.8957692871e+003;3.9167949219e+003;3.8815385742e+003;3.8929487305e+003;3.8875642090e+003;3.9019230957e+003;3.9191025391e+003;3.9119230957e+003;3.9255129395e+003;3.9050000000e+003;3.8829487305e+003;
2.0781250000e+000;4.0555129395e+003;3.9364101563e+003;3.9080769043e+003;3.9098718262e+003;3.9312819824e+003;3.8926923828e+003;3.9070512695e+003;3.9055129395e+003;3.9173076172e+003;3.9382050781e+003;3.9310256348e+003;3.9414101563e+003;3.9229487305e+003;3.8987180176e+003;
2.0859375000e+000;4.0487180176e+003;3.9102563477e+003;3.8837180176e+003;3.8847436523e+003;3.9014101563e+003;3.8675642090e+003;3.8807692871e+003;3.8765385742e+003;3.8892307129e+003;3.9152563477e+003;3.9057692871e+003;3.9139743652e+003;3.8970512695e+003;3.8707692871e+003;
2.0937500000e+000;4.0576923828e+003;3.9179487305e+003;3.8905129395e+003;3.8901281738e+003;3.9070512695e+003;3.8747436523e+003;3.8874357910e+003;3.8773076172e+003;3.8925642090e+003;3.9184614258e+003;3.9087180176e+003;3.9175642090e+003;3.9015385742e+003;3.8758974609e+003;
2.1015625000e+000;4.0926923828e+003;3.9501281738e+003;3.9211538086e+003;3.9178205566e+003;3.9366667480e+003;3.9041025391e+003;3.9167949219e+003;3.9038461914e+003;3.9210256348e+003;3.9460256348e+003;3.9362819824e+003;3.9465385742e+003;3.9306411133e+003;3.9064101563e+003;
2.1093750000e+000;4.0973076172e+003;3.9503845215e+003;3.9307692871e+003;3.9255129395e+003;3.9484614258e+003;3.9237180176e+003;3.9343588867e+003;3.9125642090e+003;3.9260256348e+003;3.9506411133e+003;3.9414101563e+003;3.9567949219e+003;3.9393588867e+003;3.9115385742e+003;
2.1171875000e+000;4.1343588867e+003;4.0000000000e+003;3.9773076172e+003;3.9723076172e+003;4.0010256348e+003;3.9717949219e+003;3.9816667480e+003;3.9592307129e+003;3.9767949219e+003;4.0012819824e+003;3.9898718262e+003;4.0039743652e+003;3.9873076172e+003;3.9607692871e+003;
2.1250000000e+000;4.1508974609e+003;4.0524357910e+003;4.0239743652e+003;4.0207692871e+003;4.0475642090e+003;4.0189743652e+003;4.0250000000e+003;4.0033332520e+003;4.0271794434e+003;4.0514101563e+003;4.0376923828e+003;4.0502563477e+003;4.0342307129e+003;4.0041025391e+003;
2.1328125000e+000;4.0978203125e+003;4.0367949219e+003;4.0143588867e+003;4.0048718262e+003;4.0338461914e+003;4.0035898438e+003;4.0093588867e+003;3.9988461914e+003;4.0189743652e+003;4.0437180176e+003;4.0306411133e+003;4.0393588867e+003;4.0223076172e+003;3.9892307129e+003;
2.1406250000e+000;4.0596154785e+003;4.0074357910e+003;3.9850000000e+003;3.9778205566e+003;4.0056411133e+003;3.9771794434e+003;3.9811538086e+003;3.9711538086e+003;3.9900000000e+003;4.0132050781e+003;4.0008974609e+003;4.0111538086e+003;3.9926923828e+003;3.9619230957e+003;
2.1484375000e+000;4.1123076172e+003;4.0762819824e+003;4.0439743652e+003;4.0396154785e+003;4.0694870605e+003;4.0378205566e+003;4.0401281738e+003;4.0278205566e+003;4.0507692871e+003;4.0733332520e+003;4.0626923828e+003;4.0711538086e+003;4.0629487305e+003;4.0262819824e+003;
2.1562500000e+000;4.1224360352e+003;4.0869230957e+003;4.0565385742e+003;4.0503845215e+003;4.0783332520e+003;4.0474357910e+003;4.0491025391e+003;4.0407692871e+003;4.0647436523e+003;4.0864101563e+003;4.0764101563e+003;4.0835898438e+003;4.0746154785e+003;4.0376923828e+003;
2.1640625000e+000;4.1128203125e+003;4.0797436523e+003;4.0532050781e+003;4.0434614258e+003;4.0673076172e+003;4.0356411133e+003;4.0398718262e+003;4.0416667480e+003;4.0628205566e+003;4.0816667480e+003;4.0729487305e+003;4.0780769043e+003;4.0632050781e+003;4.0316667480e+003;
2.1718750000e+000;4.1325639648e+003;4.1062822266e+003;4.0791025391e+003;4.0661538086e+003;4.0911538086e+003;4.0546154785e+003;4.0625642090e+003;4.0714101563e+003;4.0906411133e+003;4.1108974609e+003;4.0997436523e+003;4.1035898438e+003;4.0884614258e+003;4.0576923828e+003;
2.1796875000e+000;4.0979487305e+003;4.0957692871e+003;4.0755129395e+003;4.0573076172e+003;4.0780769043e+003;4.0462819824e+003;4.0557692871e+003;4.0693588867e+003;4.0884614258e+003;4.1105126953e+003;4.0956411133e+003;4.1034614258e+003;4.0902563477e+003;4.0552563477e+003;
2.1875000000e+000;4.0734614258e+003;4.0755129395e+003;4.0564101563e+003;4.0405129395e+003;4.0594870605e+003;4.0328205566e+003;4.0398718262e+003;4.0450000000e+003;4.0656411133e+003;4.0848718262e+003;4.0748718262e+003;4.0842307129e+003;4.0703845215e+003;4.0352563477e+003;
2.1953125000e+000;4.1062822266e+003;4.1174360352e+003;4.0934614258e+003;4.0794870605e+003;4.1024360352e+003;4.0734614258e+003;4.0788461914e+003;4.0785898438e+003;4.0988461914e+003;4.1210258789e+003;4.1130771484e+003;4.1208974609e+003;4.1044873047e+003;4.0716667480e+003;
2.2031250000e+000;4.1019228516e+003;4.1185898438e+003;4.0943588867e+003;4.0791025391e+003;4.1028203125e+003;4.0734614258e+003;4.0792307129e+003;4.0833332520e+003;4.1002563477e+003;4.1264101563e+003;4.1142309570e+003;4.1220512695e+003;4.1030771484e+003;4.0724357910e+003;
2.2109375000e+000;3.9789743652e+003;4.0035898438e+003;3.9878205566e+003;3.9753845215e+003;3.9948718262e+003;3.9741025391e+003;3.9830769043e+003;3.9819230957e+003;3.9948718262e+003;4.0170512695e+003;4.0026923828e+003;4.0147436523e+003;3.9955129395e+003;3.9623076172e+003;
2.2187500000e+000;3.9742307129e+003;3.9991025391e+003;3.9837180176e+003;3.9751281738e+003;3.9935898438e+003;3.9724357910e+003;3.9806411133e+003;3.9755129395e+003;3.9903845215e+003;4.0111538086e+003;3.9989743652e+003;4.0124357910e+003;3.9926923828e+003;3.9583332520e+003;
2.2265625000e+000;3.9760256348e+003;4.0010256348e+003;3.9856411133e+003;3.9797436523e+003;3.9961538086e+003;3.9760256348e+003;3.9812819824e+003;3.9735898438e+003;3.9889743652e+003;4.0108974609e+003;4.0005129395e+003;4.0162819824e+003;3.9939743652e+003;3.9610256348e+003;
2.2343750000e+000;4.0169230957e+003;4.0543588867e+003;4.0406411133e+003;4.0220512695e+003;4.0456411133e+003;4.0238461914e+003;4.0215385742e+003;4.0210256348e+003;4.0329487305e+003;4.0621794434e+003;4.0470512695e+003;4.0660256348e+003;4.0478205566e+003;4.0114101563e+003;
2.2421875000e+000;3.9730769043e+003;4.0103845215e+003;3.9993588867e+003;3.9843588867e+003;4.0037180176e+003;3.9865385742e+003;3.9815385742e+003;3.9808974609e+003;3.9942307129e+003;4.0201281738e+003;4.0065385742e+003;4.0260256348e+003;4.0070512695e+003;3.9688461914e+003;
2.2500000000e+000;3.9857692871e+003;4.0278205566e+003;4.0117949219e+003;4.0055129395e+003;4.0176923828e+003;3.9987180176e+003;3.9956411133e+003;3.9875642090e+003;3.9992307129e+003;4.0334614258e+003;4.0192307129e+003;4.0393588867e+003;4.0173076172e+003;3.9826923828e+003;
2.2578125000e+000;3.9534614258e+003;3.9998718262e+003;3.9882050781e+003;3.9860256348e+003;3.9906411133e+003;3.9721794434e+003;3.9725642090e+003;3.9739743652e+003;3.9823076172e+003;4.0114101563e+003;3.9917949219e+003;4.0142307129e+003;3.9912819824e+003;3.9584614258e+003;
2.2656250000e+000;3.9524357910e+003;3.9988461914e+003;3.9869230957e+003;3.9880769043e+003;3.9911538086e+003;3.9719230957e+003;3.9750000000e+003;3.9742307129e+003;3.9842307129e+003;4.0091025391e+003;3.9908974609e+003;4.0114101563e+003;3.9938461914e+003;3.9566667480e+003;
2.2734375000e+000;3.9878205566e+003;4.0425642090e+003;4.0285898438e+003;4.0308974609e+003;4.0300000000e+003;4.0116667480e+003;4.0146154785e+003;4.0196154785e+003;4.0287180176e+003;4.0619230957e+003;4.0387180176e+003;4.0538461914e+003;4.0414101563e+003;4.0019230957e+003;
2.2812500000e+000;3.9714101563e+003;4.0294870605e+003;4.0166667480e+003;4.0212819824e+003;4.0167949219e+003;3.9997436523e+003;4.0025642090e+003;4.0084614258e+003;4.0144870605e+003;4.0494870605e+003;4.0265385742e+003;4.0424357910e+003;4.0266667480e+003;3.9896154785e+003;
2.2890625000e+000;3.9816667480e+003;4.0460256348e+003;4.0301281738e+003;4.0439743652e+003;4.0341025391e+003;4.0117949219e+003;4.0202563477e+003;4.0242307129e+003;4.0297436523e+003;4.0621794434e+003;4.0414101563e+003;4.0605129395e+003;4.0406411133e+003;4.0033332520e+003;
2.2968750000e+000;3.9856411133e+003;4.0496154785e+003;4.0335898438e+003;4.0510256348e+003;4.0380769043e+003;4.0152563477e+003;4.0251281738e+003;4.0282050781e+003;4.0360256348e+003;4.0653845215e+003;4.0439743652e+003;4.0664101563e+003;4.0443588867e+003;4.0069230957e+003;
2.3046875000e+000;3.9585898438e+003;4.0121794434e+003;4.0011538086e+003;4.0273076172e+003;4.0065385742e+003;3.9925642090e+003;3.9980769043e+003;3.9887180176e+003;3.9958974609e+003;4.0194870605e+003;4.0033332520e+003;4.0273076172e+003;4.0044870605e+003;3.9717949219e+003;
2.3125000000e+000;3.9766667480e+003;4.0355129395e+003;4.0223076172e+003;4.0517949219e+003;4.0307692871e+003;4.0164101563e+003;4.0200000000e+003;4.0093588867e+003;4.0144870605e+003;4.0402563477e+003;4.0262819824e+003;4.0474357910e+003;4.0250000000e+003;3.9928205566e+003;
2.3203125000e+000;3.9594870605e+003;4.0332050781e+003;4.0191025391e+003;4.0538461914e+003;4.0283332520e+003;4.0165385742e+003;4.0141025391e+003;4.0061538086e+003;4.0094870605e+003;4.0382050781e+003;4.0243588867e+003;4.0464101563e+003;4.0188461914e+003;3.9869230957e+003;
2.3281250000e+000;3.9323076172e+003;4.0046154785e+003;3.9925642090e+003;4.0283332520e+003;4.0007692871e+003;3.9911538086e+003;3.9867949219e+003;3.9778205566e+003;3.9815385742e+003;4.0094870605e+003;3.9953845215e+003;4.0191025391e+003;3.9898718262e+003;3.9585898438e+003;
2.3359375000e+000;3.9484614258e+003;3.9838461914e+003;3.9770512695e+003;4.0080769043e+003;3.9833332520e+003;3.9739743652e+003;3.9698718262e+003;3.9612819824e+003;3.9694870605e+003;4.0001281738e+003;3.9775642090e+003;3.9993588867e+003;3.9751281738e+003;3.9452563477e+003;
2.3437500000e+000;3.9275642090e+003;3.9547436523e+003;3.9489743652e+003;3.9815385742e+003;3.9541025391e+003;3.9475642090e+003;3.9429487305e+003;3.9334614258e+003;3.9439743652e+003;3.9743588867e+003;3.9505129395e+003;3.9726923828e+003;3.9482050781e+003;3.9184614258e+003;
2.3515625000e+000;3.9015385742e+003;3.9271794434e+003;3.9207692871e+003;3.9567949219e+003;3.9264101563e+003;3.9217949219e+003;3.9173076172e+003;3.9035898438e+003;3.9162819824e+003;3.9450000000e+003;3.9233332520e+003;3.9456411133e+003;3.9215385742e+003;3.8905129395e+003;
2.3593750000e+000;3.9384614258e+003;3.9828205566e+003;3.9729487305e+003;4.0075642090e+003;3.9785898438e+003;3.9652563477e+003;3.9662819824e+003;3.9637180176e+003;3.9748718262e+003;4.0037180176e+003;3.9783332520e+003;4.0020512695e+003;3.9751281738e+003;3.9411538086e+003;
2.3671875000e+000;3.9134614258e+003;3.9592307129e+003;3.9467949219e+003;3.9857692871e+003;3.9548718262e+003;3.9423076172e+003;3.9462819824e+003;3.9429487305e+003;3.9546154785e+003;3.9807692871e+003;3.9547436523e+003;3.9769230957e+003;3.9521794434e+003;3.9174357910e+003;
2.3750000000e+000;3.9148718262e+003;3.9660256348e+003;3.9503845215e+003;3.9925642090e+003;3.9614101563e+003;3.9439743652e+003;3.9547436523e+003;3.9603845215e+003;3.9702563477e+003;3.9929487305e+003;3.9679487305e+003;3.9851281738e+003;3.9641025391e+003;3.9264101563e+003;
2.3828125000e+000;3.8907692871e+003;3.9406411133e+003;3.9279487305e+003;3.9685898438e+003;3.9356411133e+003;3.9183332520e+003;3.9288461914e+003;3.9356411133e+003;3.9432050781e+003;3.9642307129e+003;3.9423076172e+003;3.9615385742e+003;3.9380769043e+003;3.9028205566e+003;
2.3906250000e+000;3.8853845215e+003;3.9260256348e+003;3.9146154785e+003;3.9547436523e+003;3.9180769043e+003;3.8983332520e+003;3.9073076172e+003;3.9112819824e+003;3.9200000000e+003;3.9360256348e+003;3.9205129395e+003;3.9428205566e+003;3.9178205566e+003;3.8867949219e+003;
2.3984375000e+000;3.8766667480e+003;3.8848718262e+003;3.8789743652e+003;3.9179487305e+003;3.8833332520e+003;3.8723076172e+003;3.8779487305e+003;3.8755129395e+003;3.8878205566e+003;3.9046154785e+003;3.8876923828e+003;3.9156411133e+003;3.8802563477e+003;3.8508974609e+003;
2.4062500000e+000;3.8914101563e+003;3.8957692871e+003;3.8885898438e+003;3.9273076172e+003;3.8994870605e+003;3.8873076172e+003;3.8920512695e+003;3.8885898438e+003;3.8992307129e+003;3.9173076172e+003;3.8989743652e+003;3.9248718262e+003;3.8914101563e+003;3.8611538086e+003;
2.4140625000e+000;3.8966667480e+003;3.8907692871e+003;3.8871794434e+003;3.9284614258e+003;3.9035898438e+003;3.8973076172e+003;3.8950000000e+003;3.8926923828e+003;3.9029487305e+003;3.9210256348e+003;3.8956411133e+003;3.9179487305e+003;3.8906411133e+003;3.8591025391e+003;
2.4218750000e+000;3.8752563477e+003;3.8617949219e+003;3.8619230957e+003;3.9050000000e+003;3.8773076172e+003;3.8771794434e+003;3.8732050781e+003;3.8664101563e+003;3.8783332520e+003;3.8955129395e+003;3.8684614258e+003;3.8885898438e+003;3.8651281738e+003;3.8319230957e+003;
2.4296875000e+000;3.9030769043e+003;3.8870512695e+003;3.8828205566e+003;3.9169230957e+003;3.9006411133e+003;3.8951281738e+003;3.8961538086e+003;3.8823076172e+003;3.8967949219e+003;3.9184614258e+003;3.8953845215e+003;3.9101281738e+003;3.8947436523e+003;3.8579487305e+003;
2.4375000000e+000;3.8925642090e+003;3.8801281738e+003;3.8755129395e+003;3.9078205566e+003;3.8932050781e+003;3.8858974609e+003;3.8848718262e+003;3.8748718262e+003;3.8873076172e+003;3.9093588867e+003;3.8880769043e+003;3.9065385742e+003;3.8867949219e+003;3.8543588867e+003;
2.4453125000e+000;3.8383332520e+003;3.8289743652e+003;3.8257692871e+003;3.8624357910e+003;3.8411538086e+003;3.8366667480e+003;3.8301281738e+003;3.8184614258e+003;3.8278205566e+003;3.8464101563e+003;3.8312819824e+003;3.8557692871e+003;3.8284614258e+003;3.8023076172e+003;
2.4531250000e+000;3.8417949219e+003;3.8344870605e+003;3.8297436523e+003;3.8671794434e+003;3.8438461914e+003;3.8382050781e+003;3.8315385742e+003;3.8178205566e+003;3.8283332520e+003;3.8469230957e+003;3.8339743652e+003;3.8566667480e+003;3.8310256348e+003;3.8020512695e+003;
2.4609375000e+000;3.7989743652e+003;3.7929487305e+003;3.7883332520e+003;3.8238461914e+003;3.7976923828e+003;3.7925642090e+003;3.7873076172e+003;3.7794870605e+003;3.7901281738e+003;3.8129487305e+003;3.7962819824e+003;3.8165385742e+003;3.7979487305e+003;3.7583332520e+003;
2.4687500000e+000;3.7838461914e+003;3.7708974609e+003;3.7650000000e+003;3.8037180176e+003;3.7770512695e+003;3.7725642090e+003;3.7680769043e+003;3.7602563477e+003;3.7682050781e+003;3.7907692871e+003;3.7738461914e+003;3.7952563477e+003;3.7773076172e+003;3.7387180176e+003;
2.4765625000e+000;3.8108974609e+003;3.7894870605e+003;3.7789743652e+003;3.8207692871e+003;3.7955129395e+003;3.7878205566e+003;3.7846154785e+003;3.7779487305e+003;3.7847436523e+003;3.8082050781e+003;3.7902563477e+003;3.8116667480e+003;3.7943588867e+003;3.7573076172e+003;
2.4843750000e+000;3.9293588867e+003;3.8860256348e+003;3.8697436523e+003;3.9017949219e+003;3.8837180176e+003;3.8619230957e+003;3.8644870605e+003;3.8655129395e+003;3.8764101563e+003;3.8992307129e+003;3.8811538086e+003;3.9002563477e+003;3.8832050781e+003;3.8407692871e+003;
2.4921875000e+000;3.9714101563e+003;3.9271794434e+003;3.9105129395e+003;3.9392307129e+003;3.9251281738e+003;3.8987180176e+003;3.9021794434e+003;3.9062819824e+003;3.9167949219e+003;3.9396154785e+003;3.9216667480e+003;3.9385898438e+003;3.9247436523e+003;3.8798718262e+003;
2.5000000000e+000;4.0006411133e+003;3.9502563477e+003;3.9356411133e+003;3.9625642090e+003;3.9452563477e+003;3.9201281738e+003;3.9279487305e+003;3.9293588867e+003;3.9451281738e+003;3.9676923828e+003;3.9441025391e+003;3.9629487305e+003;3.9452563477e+003;3.9078205566e+003;
2.5078125000e+000;4.0993588867e+003;4.0558974609e+003;4.0343588867e+003;4.0591025391e+003;4.0537180176e+003;4.0257692871e+003;4.0338461914e+003;4.0287180176e+003;4.0388461914e+003;4.0616667480e+003;4.0428205566e+003;4.0597436523e+003;4.0435898438e+003;4.0097436523e+003;
2.5156250000e+000;4.0988461914e+003;4.0584614258e+003;4.0367949219e+003;4.0597436523e+003;4.0582050781e+003;4.0357692871e+003;4.0369230957e+003;4.0308974609e+003;4.0370512695e+003;4.0615385742e+003;4.0430769043e+003;4.0606411133e+003;4.0437180176e+003;4.0098718262e+003;
2.5234375000e+000;4.0980771484e+003;4.0693588867e+003;4.0450000000e+003;4.0616667480e+003;4.0738461914e+003;4.0597436523e+003;4.0511538086e+003;4.0350000000e+003;4.0417949219e+003;4.0737180176e+003;4.0467949219e+003;4.0702563477e+003;4.0497436523e+003;4.0165385742e+003;
2.5312500000e+000;4.1094873047e+003;4.0835898438e+003;4.0589743652e+003;4.0752563477e+003;4.0874357910e+003;4.0728205566e+003;4.0637180176e+003;4.0487180176e+003;4.0575642090e+003;4.0903845215e+003;4.0617949219e+003;4.0864101563e+003;4.0642307129e+003;4.0330769043e+003;
2.5390625000e+000;4.1132050781e+003;4.0911538086e+003;4.0661538086e+003;4.0855129395e+003;4.0914101563e+003;4.0773076172e+003;4.0667949219e+003;4.0501281738e+003;4.0623076172e+003;4.0912819824e+003;4.0679487305e+003;4.0906411133e+003;4.0700000000e+003;4.0410256348e+003;
2.5468750000e+000;4.1303847656e+003;4.1126923828e+003;4.0848718262e+003;4.1046152344e+003;4.1115385742e+003;4.0951281738e+003;4.0858974609e+003;4.0665385742e+003;4.0798718262e+003;4.1084614258e+003;4.0876923828e+003;4.1073076172e+003;4.0896154785e+003;4.0602563477e+003;
2.5546875000e+000;4.1153847656e+003;4.1125639648e+003;4.0832050781e+003;4.0975639648e+003;4.1120512695e+003;4.0971796875e+003;4.0884614258e+003;4.0712819824e+003;4.0842307129e+003;4.1206411133e+003;4.0939743652e+003;4.1108974609e+003;4.0905129395e+003;4.0641025391e+003;
2.5625000000e+000;4.0939743652e+003;4.0928205566e+003;4.0634614258e+003;4.0792307129e+003;4.0926923828e+003;4.0798718262e+003;4.0702563477e+003;4.0530769043e+003;4.0666667480e+003;4.1020512695e+003;4.0746154785e+003;4.0924357910e+003;4.0725642090e+003;4.0434614258e+003;
2.5703125000e+000;4.1389741211e+003;4.1439741211e+003;4.1079487305e+003;4.1275639648e+003;4.1412822266e+003;4.1211538086e+003;4.1126923828e+003;4.1015385742e+003;4.1179487305e+003;4.1516665039e+003;4.1235898438e+003;4.1388461914e+003;4.1261538086e+003;4.0874357910e+003;
2.5781250000e+000;4.1579487305e+003;4.1667949219e+003;4.1300000000e+003;4.1478203125e+003;4.1620512695e+003;4.1379487305e+003;4.1303847656e+003;4.1250000000e+003;4.1419228516e+003;4.1773076172e+003;4.1483334961e+003;4.1624360352e+003;4.1496152344e+003;4.1108974609e+003;
2.5859375000e+000;4.1662822266e+003;4.1735898438e+003;4.1473076172e+003;4.1507690430e+003;4.1698715820e+003;4.1319228516e+003;4.1342309570e+003;4.1319228516e+003;4.1515385742e+003;4.1880771484e+003;4.1608974609e+003;4.1778203125e+003;4.1603847656e+003;4.1297436523e+003;
2.5937500000e+000;4.2250000000e+003;4.2320512695e+003;4.2042309570e+003;4.2038461914e+003;4.2278203125e+003;4.1808974609e+003;4.1874360352e+003;4.1901284180e+003;4.2106411133e+003;4.2476923828e+003;4.2184614258e+003;4.2348715820e+003;4.2212822266e+003;4.1875639648e+003;
2.6015625000e+000;4.2716665039e+003;4.2803847656e+003;4.2502563477e+003;4.2465385742e+003;4.2739741211e+003;4.2223076172e+003;4.2301284180e+003;4.2428203125e+003;4.2616665039e+003;4.2998715820e+003;4.2661538086e+003;4.2820512695e+003;4.2716665039e+003;4.2341025391e+003;
2.6093750000e+000;4.2700000000e+003;4.2810258789e+003;4.2505126953e+003;4.2438461914e+003;4.2723076172e+003;4.2226923828e+003;4.2288461914e+003;4.2516665039e+003;4.2655126953e+003;4.3037177734e+003;4.2669228516e+003;4.2830771484e+003;4.2723076172e+003;4.2330771484e+003;
2.6171875000e+000;4.1476923828e+003;4.1583334961e+003;4.1328203125e+003;4.1239741211e+003;4.1546152344e+003;4.1219228516e+003;4.1252563477e+003;4.1419228516e+003;4.1438461914e+003;4.1696152344e+003;4.1398715820e+003;4.1641025391e+003;4.1378203125e+003;4.1075639648e+003;
2.6250000000e+000;4.0591025391e+003;4.0738461914e+003;4.0511538086e+003;4.0485898438e+003;4.0817949219e+003;4.0667949219e+003;4.0647436523e+003;4.0556411133e+003;4.0558974609e+003;4.0757692871e+003;4.0475642090e+003;4.0702563477e+003;4.0489743652e+003;4.0106411133e+003;
2.6328125000e+000;4.0537180176e+003;4.0735898438e+003;4.0491025391e+003;4.0465385742e+003;4.0830769043e+003;4.0667949219e+003;4.0632050781e+003;4.0535898438e+003;4.0561538086e+003;4.0755129395e+003;4.0462819824e+003;4.0700000000e+003;4.0465385742e+003;4.0079487305e+003;
2.6406250000e+000;4.0128205566e+003;4.0328205566e+003;4.0075642090e+003;4.0084614258e+003;4.0434614258e+003;4.0298718262e+003;4.0241025391e+003;4.0103845215e+003;4.0185898438e+003;4.0350000000e+003;4.0064101563e+003;4.0342307129e+003;4.0062819824e+003;3.9703845215e+003;
2.6484375000e+000;4.0207692871e+003;4.0357692871e+003;4.0103845215e+003;4.0117949219e+003;4.0462819824e+003;4.0326923828e+003;4.0269230957e+003;4.0101281738e+003;4.0196154785e+003;4.0370512695e+003;4.0106411133e+003;4.0362819824e+003;4.0120512695e+003;3.9751281738e+003;
2.6562500000e+000;4.0719230957e+003;4.0825642090e+003;4.0610256348e+003;4.0520512695e+003;4.0901281738e+003;4.0729487305e+003;4.0655129395e+003;4.0483332520e+003;4.0591025391e+003;4.0891025391e+003;4.0657692871e+003;4.0835898438e+003;4.0658974609e+003;4.0221794434e+003;
2.6640625000e+000;4.0367949219e+003;4.0526923828e+003;4.0246154785e+003;4.0239743652e+003;4.0530769043e+003;4.0366667480e+003;4.0329487305e+003;4.0062819824e+003;4.0292307129e+003;4.0502563477e+003;4.0285898438e+003;4.0510256348e+003;4.0288461914e+003;3.9914101563e+003;
2.6718750000e+000;4.0619230957e+003;4.0765385742e+003;4.0478205566e+003;4.0480769043e+003;4.0742307129e+003;4.0538461914e+003;4.0505129395e+003;4.0305129395e+003;4.0561538086e+003;4.0779487305e+003;4.0530769043e+003;4.0747436523e+003;4.0556411133e+003;4.0185898438e+003;
2.6796875000e+000;4.0735898438e+003;4.0882050781e+003;4.0620512695e+003;4.0566667480e+003;4.0807692871e+003;4.0537180176e+003;4.0521794434e+003;4.0396154785e+003;4.0639743652e+003;4.0978203125e+003;4.0738461914e+003;4.0894870605e+003;4.0767949219e+003;4.0371794434e+003;
2.6875000000e+000;4.1115385742e+003;4.1294873047e+003;4.0979487305e+003;4.0902563477e+003;4.1187177734e+003;4.0870512695e+003;4.0893588867e+003;4.0762819824e+003;4.1002563477e+003;4.1369228516e+003;4.1152563477e+003;4.1280771484e+003;4.1178203125e+003;4.0778205566e+003;
2.6953125000e+000;4.1770512695e+003;4.1952563477e+003;4.1582050781e+003;4.1474360352e+003;4.1770512695e+003;4.1394873047e+003;4.1469228516e+003;4.1489741211e+003;4.1701284180e+003;4.2060258789e+003;4.1810258789e+003;4.1964101563e+003;4.1860258789e+003;4.1491025391e+003;
2.7031250000e+000;4.1741025391e+003;4.1866665039e+003;4.1537177734e+003;4.1403847656e+003;4.1673076172e+003;4.1301284180e+003;4.1376923828e+003;4.1494873047e+003;4.1676923828e+003;4.2001284180e+003;4.1720512695e+003;4.1911538086e+003;4.1793588867e+003;4.1444873047e+003;
2.7109375000e+000;4.2116665039e+003;4.2169228516e+003;4.1911538086e+003;4.1684614258e+003;4.2002563477e+003;4.1601284180e+003;4.1673076172e+003;4.1937177734e+003;4.2062822266e+003;4.2317949219e+003;4.2000000000e+003;4.2184614258e+003;4.2089741211e+003;4.1696152344e+003;
2.7187500000e+000;4.2058974609e+003;4.2160258789e+003;4.1871796875e+003;4.1678203125e+003;4.2002563477e+003;4.1635898438e+003;4.1691025391e+003;4.1958974609e+003;4.2074360352e+003;4.2307690430e+003;4.1988461914e+003;4.2167949219e+003;4.2062822266e+003;4.1661538086e+003;
2.7265625000e+000;4.1753847656e+003;4.1906411133e+003;4.1578203125e+003;4.1447436523e+003;4.1762822266e+003;4.1464101563e+003;4.1506411133e+003;4.1725639648e+003;4.1825639648e+003;4.2024360352e+003;4.1719228516e+003;4.1907690430e+003;4.1788461914e+003;4.1393588867e+003;
2.7343750000e+000;4.1496152344e+003;4.1684614258e+003;4.1324360352e+003;4.1243588867e+003;4.1569228516e+003;4.1332050781e+003;4.1378203125e+003;4.1506411133e+003;4.1585898438e+003;4.1752563477e+003;4.1474360352e+003;4.1669228516e+003;4.1551284180e+003;4.1160258789e+003;
2.7421875000e+000;4.2078203125e+003;4.2279487305e+003;4.2007690430e+003;4.1853847656e+003;4.2314101563e+003;4.2160258789e+003;4.2202563477e+003;4.2044873047e+003;4.2119228516e+003;4.2324360352e+003;4.2079487305e+003;4.2265385742e+003;4.2161538086e+003;4.1773076172e+003;
2.7500000000e+000;4.2346152344e+003;4.2543588867e+003;4.2269228516e+003;4.2105126953e+003;4.2575639648e+003;4.2421796875e+003;4.2455126953e+003;4.2242309570e+003;4.2328203125e+003;4.2558974609e+003;4.2328203125e+003;4.2524360352e+003;4.2401284180e+003;4.2019228516e+003;
2.7578125000e+000;4.3405126953e+003;4.3648715820e+003;4.3315385742e+003;4.3088461914e+003;4.3628203125e+003;4.3384614258e+003;4.3429487305e+003;4.3191025391e+003;4.3308974609e+003;4.3706411133e+003;4.3421796875e+003;4.3638461914e+003;4.3512822266e+003;4.3117949219e+003;
2.7656250000e+000;4.3032050781e+003;4.3298715820e+003;4.3003847656e+003;4.2787177734e+003;4.3274360352e+003;4.3053847656e+003;4.3056411133e+003;4.2796152344e+003;4.2991025391e+003;4.3326923828e+003;4.3108974609e+003;4.3282050781e+003;4.3211538086e+003;4.2775639648e+003;
2.7734375000e+000;4.3187177734e+003;4.3493588867e+003;4.3164101563e+003;4.2934614258e+003;4.3421796875e+003;4.3183334961e+003;4.3164101563e+003;4.2944873047e+003;4.3193588867e+003;4.3498715820e+003;4.3285898438e+003;4.3442309570e+003;4.3382050781e+003;4.2953847656e+003;
2.7812500000e+000;4.2500000000e+003;4.2900000000e+003;4.2562822266e+003;4.2275639648e+003;4.2743588867e+003;4.2489741211e+003;4.2485898438e+003;4.2376923828e+003;4.2642309570e+003;4.2994873047e+003;4.2684614258e+003;4.2844873047e+003;4.2760258789e+003;4.2408974609e+003;
2.7890625000e+000;4.2623076172e+003;4.3038461914e+003;4.2700000000e+003;4.2469228516e+003;4.2916665039e+003;4.2621796875e+003;4.2623076172e+003;4.2725639648e+003;4.2915385742e+003;4.3257690430e+003;4.2942309570e+003;4.3029487305e+003;4.2984614258e+003;4.2526923828e+003;
2.7968750000e+000;4.2438461914e+003;4.2843588867e+003;4.2521796875e+003;4.2300000000e+003;4.2703847656e+003;4.2435898438e+003;4.2428203125e+003;4.2597436523e+003;4.2766665039e+003;4.3061538086e+003;4.2762822266e+003;4.2874360352e+003;4.2791025391e+003;4.2351284180e+003;
2.8046875000e+000;4.2366665039e+003;4.2819228516e+003;4.2528203125e+003;4.2250000000e+003;4.2647436523e+003;4.2282050781e+003;4.2405126953e+003;4.2574360352e+003;4.2669228516e+003;4.2910258789e+003;4.2676923828e+003;4.2855126953e+003;4.2720512695e+003;4.2380771484e+003;
2.8125000000e+000;4.2391025391e+003;4.2858974609e+003;4.2588461914e+003;4.2302563477e+003;4.2706411133e+003;4.2338461914e+003;4.2471796875e+003;4.2655126953e+003;4.2724360352e+003;4.2973076172e+003;4.2730771484e+003;4.2914101563e+003;4.2770512695e+003;4.2450000000e+003;
2.8203125000e+000;4.2014101563e+003;4.2421796875e+003;4.2174360352e+003;4.1947436523e+003;4.2330771484e+003;4.2089741211e+003;4.2182050781e+003;4.2283334961e+003;4.2337177734e+003;4.2546152344e+003;4.2310258789e+003;4.2489741211e+003;4.2356411133e+003;4.2053847656e+003;
2.8281250000e+000;4.2138461914e+003;4.2503847656e+003;4.2237177734e+003;4.2029487305e+003;4.2430771484e+003;4.2224360352e+003;4.2314101563e+003;4.2329487305e+003;4.2391025391e+003;4.2592309570e+003;4.2360258789e+003;4.2520512695e+003;4.2425639648e+003;4.2117949219e+003;
2.8359375000e+000;4.2505126953e+003;4.2847436523e+003;4.2566665039e+003;4.2343588867e+003;4.2776923828e+003;4.2573076172e+003;4.2671796875e+003;4.2623076172e+003;4.2687177734e+003;4.2908974609e+003;4.2671796875e+003;4.2807690430e+003;4.2747436523e+003;4.2434614258e+003;
2.8437500000e+000;4.2725639648e+003;4.3071796875e+003;4.2841025391e+003;4.2553847656e+003;4.3011538086e+003;4.2838461914e+003;4.2915385742e+003;4.2825639648e+003;4.2871796875e+003;4.3125639648e+003;4.2878203125e+003;4.3007690430e+003;4.2937177734e+003;4.2625639648e+003;
2.8515625000e+000;4.2562822266e+003;4.2912822266e+003;4.2705126953e+003;4.2414101563e+003;4.2883334961e+003;4.2721796875e+003;4.2778203125e+003;4.2670512695e+003;4.2717949219e+003;4.2951284180e+003;4.2715385742e+003;4.2857690430e+003;4.2767949219e+003;4.2448715820e+003;
2.8593750000e+000;4.2584614258e+003;4.2934614258e+003;4.2720512695e+003;4.2441025391e+003;4.2942309570e+003;4.2756411133e+003;4.2805126953e+003;4.2684614258e+003;4.2746152344e+003;4.2967949219e+003;4.2733334961e+003;4.2879487305e+003;4.2788461914e+003;4.2446152344e+003;
2.8671875000e+000;4.2350000000e+003;4.2717949219e+003;4.2462822266e+003;4.2178203125e+003;4.2702563477e+003;4.2605126953e+003;4.2616665039e+003;4.2341025391e+003;4.2474360352e+003;4.2739741211e+003;4.2493588867e+003;4.2662822266e+003;4.2532050781e+003;4.2221796875e+003;
2.8750000000e+000;4.2610258789e+003;4.3015385742e+003;4.2703847656e+003;4.2415385742e+003;4.2991025391e+003;4.2848715820e+003;4.2865385742e+003;4.2600000000e+003;4.2756411133e+003;4.2983334961e+003;4.2744873047e+003;4.2916665039e+003;4.2789741211e+003;4.2483334961e+003;
2.8828125000e+000;4.3073076172e+003;4.3456411133e+003;4.3173076172e+003;4.2811538086e+003;4.3380771484e+003;4.3198715820e+003;4.3210258789e+003;4.3173076172e+003;4.3350000000e+003;4.3561538086e+003;4.3239741211e+003;4.3398715820e+003;4.3270512695e+003;4.2932050781e+003;
2.8906250000e+000;4.3493588867e+003;4.3788461914e+003;4.3516665039e+003;4.3151284180e+003;4.3647436523e+003;4.3424360352e+003;4.3503847656e+003;4.3610258789e+003;4.3726923828e+003;4.3950000000e+003;4.3653847656e+003;4.3752563477e+003;4.3651284180e+003;4.3324360352e+003;
2.8984375000e+000;4.3378203125e+003;4.3688461914e+003;4.3426923828e+003;4.3055126953e+003;4.3543588867e+003;4.3283334961e+003;4.3391025391e+003;4.3556411133e+003;4.3644873047e+003;4.3852563477e+003;4.3570512695e+003;4.3683334961e+003;4.3556411133e+003;4.3251284180e+003;
2.9062500000e+000;4.3541025391e+003;4.3996152344e+003;4.3783334961e+003;4.3355126953e+003;4.3830771484e+003;4.3467949219e+003;4.3619228516e+003;4.3871796875e+003;4.3893588867e+003;4.4160258789e+003;4.3852563477e+003;4.4008974609e+003;4.3873076172e+003;4.3561538086e+003;
2.9140625000e+000;4.3739741211e+003;4.4374360352e+003;4.4088461914e+003;4.3700000000e+003;4.4210258789e+003;4.3866665039e+003;4.3985898438e+003;4.4197436523e+003;4.4262822266e+003;4.4502563477e+003;4.4224360352e+003;4.4334614258e+003;4.4167949219e+003;4.3884614258e+003;
2.9218750000e+000;4.3626923828e+003;4.4298715820e+003;4.3997436523e+003;4.3615385742e+003;4.4158974609e+003;4.3826923828e+003;4.3951284180e+003;4.4092309570e+003;4.4147436523e+003;4.4370512695e+003;4.4117949219e+003;4.4220512695e+003;4.4056411133e+003;4.3788461914e+003;
2.9296875000e+000;4.3982050781e+003;4.4783334961e+003;4.4541025391e+003;4.4041025391e+003;4.4669228516e+003;4.4397436523e+003;4.4494873047e+003;4.4564101563e+003;4.4596152344e+003;4.4912822266e+003;4.4589741211e+003;4.4753847656e+003;4.4602563477e+003;4.4352563477e+003;
2.9375000000e+000;4.3614101563e+003;4.4451284180e+003;4.4250000000e+003;4.3735898438e+003;4.4338461914e+003;4.4129487305e+003;4.4211538086e+003;4.4241025391e+003;4.4305126953e+003;4.4603847656e+003;4.4284614258e+003;4.4470512695e+003;4.4301284180e+003;4.4056411133e+003;
2.9453125000e+000;4.2633334961e+003;4.3511538086e+003;4.3328203125e+003;4.2857690430e+003;4.3423076172e+003;4.3278203125e+003;4.3356411133e+003;4.3280771484e+003;4.3397436523e+003;4.3620512695e+003;4.3380771484e+003;4.3528203125e+003;4.3357690430e+003;4.3135898438e+003;
2.9531250000e+000;4.2169228516e+003;4.3038461914e+003;4.2858974609e+003;4.2419228516e+003;4.2978203125e+003;4.2855126953e+003;4.2921796875e+003;4.2838461914e+003;4.2928203125e+003;4.3148715820e+003;4.2929487305e+003;4.3056411133e+003;4.2880771484e+003;4.2687177734e+003;
2.9609375000e+000;4.1641025391e+003;4.2479487305e+003;4.2326923828e+003;4.1911538086e+003;4.2458974609e+003;4.2382050781e+003;4.2426923828e+003;4.2347436523e+003;4.2379487305e+003;4.2615385742e+003;4.2394873047e+003;4.2528203125e+003;4.2335898438e+003;4.2167949219e+003;
2.9687500000e+000;4.1189741211e+003;4.1993588867e+003;4.1871796875e+003;4.1476923828e+003;4.2016665039e+003;4.1998715820e+003;4.2020512695e+003;4.1924360352e+003;4.1901284180e+003;4.2148715820e+003;4.1917949219e+003;4.2073076172e+003;4.1874360352e+003;4.1706411133e+003;
2.9765625000e+000;4.1684614258e+003;4.2597436523e+003;4.2438461914e+003;4.2078203125e+003;4.2692309570e+003;4.2658974609e+003;4.2629487305e+003;4.2514101563e+003;4.2593588867e+003;4.2771796875e+003;4.2462822266e+003;4.2644873047e+003;4.2455126953e+003;4.2196152344e+003;
2.9843750000e+000;4.1429487305e+003;4.2350000000e+003;4.2193588867e+003;4.1856411133e+003;4.2439741211e+003;4.2419228516e+003;4.2382050781e+003;4.2274360352e+003;4.2369228516e+003;4.2526923828e+003;4.2206411133e+003;4.2387177734e+003;4.2188461914e+003;4.1952563477e+003;
2.9921875000e+000;4.1612822266e+003;4.2444873047e+003;4.2311538086e+003;4.1943588867e+003;4.2560258789e+003;4.2453847656e+003;4.2485898438e+003;4.2450000000e+003;4.2462822266e+003;4.2608974609e+003;4.2337177734e+003;4.2464101563e+003;4.2316665039e+003;4.2120512695e+003;
3.0000000000e+000;4.1762822266e+003;4.2557690430e+003;4.2461538086e+003;4.2055126953e+003;4.2671796875e+003;4.2544873047e+003;4.2584614258e+003;4.2616665039e+003;4.2583334961e+003;4.2755126953e+003;4.2487177734e+003;4.2633334961e+003;4.2469228516e+003;4.2282050781e+003;
3.0078125000e+000;4.1700000000e+003;4.2400000000e+003;4.2347436523e+003;4.1921796875e+003;4.2424360352e+003;4.2262822266e+003;4.2328203125e+003;4.2411538086e+003;4.2287177734e+003;4.2574360352e+003;4.2341025391e+003;4.2552563477e+003;4.2321796875e+003;4.2165385742e+003;
3.0156250000e+000;4.1437177734e+003;4.2070512695e+003;4.1998715820e+003;4.1557690430e+003;4.1996152344e+003;4.1846152344e+003;4.1946152344e+003;4.2075639648e+003;4.1985898438e+003;4.2217949219e+003;4.2053847656e+003;4.2221796875e+003;4.1965385742e+003;4.1869228516e+003;
3.0234375000e+000;4.1380771484e+003;4.1958974609e+003;4.1892309570e+003;4.1457690430e+003;4.1883334961e+003;4.1748715820e+003;4.1843588867e+003;4.1928203125e+003;4.1874360352e+003;4.2087177734e+003;4.1944873047e+003;4.2098715820e+003;4.1853847656e+003;4.1747436523e+003;
3.0312500000e+000;4.2183334961e+003;4.2625639648e+003;4.2583334961e+003;4.2130771484e+003;4.2551284180e+003;4.2350000000e+003;4.2432050781e+003;4.2466665039e+003;4.2553847656e+003;4.2832050781e+003;4.2623076172e+003;4.2794873047e+003;4.2557690430e+003;4.2358974609e+003;
3.0390625000e+000;4.1034614258e+003;4.1391025391e+003;4.1397436523e+003;4.1043588867e+003;4.1441025391e+003;4.1420512695e+003;4.1450000000e+003;4.1393588867e+003;4.1473076172e+003;4.1583334961e+003;4.1410258789e+003;4.1594873047e+003;4.1343588867e+003;4.1170512695e+003;
3.0468750000e+000;4.1043588867e+003;4.1367949219e+003;4.1356411133e+003;4.1033334961e+003;4.1458974609e+003;4.1461538086e+003;4.1485898438e+003;4.1407690430e+003;4.1453847656e+003;4.1551284180e+003;4.1396152344e+003;4.1556411133e+003;4.1326923828e+003;4.1151284180e+003;
3.0546875000e+000;4.1034614258e+003;4.1312822266e+003;4.1291025391e+003;4.0989741211e+003;4.1425639648e+003;4.1453847656e+003;4.1465385742e+003;4.1388461914e+003;4.1410258789e+003;4.1524360352e+003;4.1358974609e+003;4.1516665039e+003;4.1284614258e+003;4.1110258789e+003;
3.0625000000e+000;4.0555129395e+003;4.0701281738e+003;4.0684614258e+003;4.0432050781e+003;4.0829487305e+003;4.0921794434e+003;4.0917949219e+003;4.0806411133e+003;4.0862819824e+003;4.0953845215e+003;4.0761538086e+003;4.0953845215e+003;4.0692307129e+003;4.0533332520e+003;
3.0703125000e+000;4.0428205566e+003;4.0508974609e+003;4.0485898438e+003;4.0253845215e+003;4.0644870605e+003;4.0735898438e+003;4.0738461914e+003;4.0606411133e+003;4.0698718262e+003;4.0747436523e+003;4.0557692871e+003;4.0755129395e+003;4.0502563477e+003;4.0346154785e+003;
3.0781250000e+000;4.0289743652e+003;4.0252563477e+003;4.0242307129e+003;4.0034614258e+003;4.0405129395e+003;4.0493588867e+003;4.0471794434e+003;4.0388461914e+003;4.0476923828e+003;4.0476923828e+003;4.0316667480e+003;4.0487180176e+003;4.0258974609e+003;4.0105129395e+003;
3.0859375000e+000;4.0016667480e+003;3.9919230957e+003;3.9926923828e+003;3.9738461914e+003;4.0069230957e+003;4.0189743652e+003;4.0151281738e+003;4.0084614258e+003;4.0132050781e+003;4.0126923828e+003;3.9992307129e+003;4.0155129395e+003;3.9917949219e+003;3.9775642090e+003;
3.0937500000e+000;4.0407692871e+003;4.0246154785e+003;4.0156411133e+003;4.0000000000e+003;4.0301281738e+003;4.0380769043e+003;4.0410256348e+003;4.0303845215e+003;4.0305129395e+003;4.0314101563e+003;4.0205129395e+003;4.0352563477e+003;4.0142307129e+003;4.0010256348e+003;
3.1015625000e+000;4.0746154785e+003;4.0580769043e+003;4.0482050781e+003;4.0317949219e+003;4.0611538086e+003;4.0653845215e+003;4.0697436523e+003;4.0625642090e+003;4.0625642090e+003;4.0664101563e+003;4.0526923828e+003;4.0680769043e+003;4.0479487305e+003;4.0347436523e+003;
3.1093750000e+000;4.0848718262e+003;4.0665385742e+003;4.0598718262e+003;4.0426923828e+003;4.0701281738e+003;4.0730769043e+003;4.0775642090e+003;4.0730769043e+003;4.0706411133e+003;4.0784614258e+003;4.0626923828e+003;4.0792307129e+003;4.0589743652e+003;4.0458974609e+003;
3.1171875000e+000;4.1956411133e+003;4.1805126953e+003;4.1783334961e+003;4.1442309570e+003;4.1855126953e+003;4.1769228516e+003;4.1912822266e+003;4.1897436523e+003;4.1796152344e+003;4.2046152344e+003;4.1825639648e+003;4.2014101563e+003;4.1747436523e+003;4.1620512695e+003;
3.1250000000e+000;4.1716665039e+003;4.1539741211e+003;4.1537177734e+003;4.1216665039e+003;4.1564101563e+003;4.1466665039e+003;4.1616665039e+003;4.1601284180e+003;4.1539741211e+003;4.1774360352e+003;4.1556411133e+003;4.1750000000e+003;4.1493588867e+003;4.1357690430e+003;
3.1328125000e+000;4.1952563477e+003;4.1761538086e+003;4.1678203125e+003;4.1452563477e+003;4.1723076172e+003;4.1514101563e+003;4.1646152344e+003;4.1675639648e+003;4.1780771484e+003;4.1994873047e+003;4.1753847656e+003;4.1865385742e+003;4.1714101563e+003;4.1557690430e+003;
3.1406250000e+000;4.1824360352e+003;4.1635898438e+003;4.1553847656e+003;4.1321796875e+003;4.1617949219e+003;4.1435898438e+003;4.1526923828e+003;4.1582050781e+003;4.1698715820e+003;4.1898715820e+003;4.1648715820e+003;4.1758974609e+003;4.1597436523e+003;4.1462822266e+003;
3.1484375000e+000;4.1344873047e+003;4.1169228516e+003;4.1098715820e+003;4.0847436523e+003;4.1211538086e+003;4.1115385742e+003;4.1138461914e+003;4.1141025391e+003;4.1223076172e+003;4.1375639648e+003;4.1174360352e+003;4.1287177734e+003;4.1125639648e+003;4.1011538086e+003;
3.1562500000e+000;4.1015385742e+003;4.0941025391e+003;4.0766667480e+003;4.0596154785e+003;4.0976923828e+003;4.0988461914e+003;4.0978203125e+003;4.0820512695e+003;4.0991025391e+003;4.1065385742e+003;4.0757692871e+003;4.0919230957e+003;4.0748718262e+003;4.0667949219e+003;
3.1640625000e+000;4.0919230957e+003;4.0842307129e+003;4.0670512695e+003;4.0502563477e+003;4.0901281738e+003;4.0942307129e+003;4.0916667480e+003;4.0746154785e+003;4.0911538086e+003;4.0966665039e+003;4.0629487305e+003;4.0800000000e+003;4.0637180176e+003;4.0542307129e+003;
3.1718750000e+000;4.1314101563e+003;4.1239741211e+003;4.1084614258e+003;4.0875642090e+003;4.1307690430e+003;4.1334614258e+003;4.1291025391e+003;4.1210258789e+003;4.1335898438e+003;4.1401284180e+003;4.1048715820e+003;4.1197436523e+003;4.1064101563e+003;4.0905129395e+003;
3.1796875000e+000;4.1324360352e+003;4.1237177734e+003;4.1103847656e+003;4.0883332520e+003;4.1287177734e+003;4.1332050781e+003;4.1287177734e+003;4.1244873047e+003;4.1367949219e+003;4.1432050781e+003;4.1088461914e+003;4.1239741211e+003;4.1088461914e+003;4.0925642090e+003;
3.1875000000e+000;4.1307690430e+003;4.1139741211e+003;4.1019228516e+003;4.0832050781e+003;4.1183334961e+003;4.1242309570e+003;4.1289741211e+003;4.1207690430e+003;4.1330771484e+003;4.1403847656e+003;4.1103847656e+003;4.1252563477e+003;4.1092309570e+003;4.0950000000e+003;
3.1953125000e+000;4.1457690430e+003;4.1287177734e+003;4.1165385742e+003;4.0974360352e+003;4.1332050781e+003;4.1366665039e+003;4.1434614258e+003;4.1392309570e+003;4.1476923828e+003;4.1592309570e+003;4.1283334961e+003;4.1419228516e+003;4.1280771484e+003;4.1133334961e+003;
3.2031250000e+000;4.1128203125e+003;4.0907692871e+003;4.0825642090e+003;4.0625642090e+003;4.0915385742e+003;4.0976923828e+003;4.1026923828e+003;4.1035898438e+003;4.1032050781e+003;4.1202563477e+003;4.0923076172e+003;4.1083334961e+003;4.0924357910e+003;4.0794870605e+003;
3.2109375000e+000;4.1062822266e+003;4.0789743652e+003;4.0711538086e+003;4.0515385742e+003;4.0766667480e+003;4.0820512695e+003;4.0878205566e+003;4.0851281738e+003;4.0824357910e+003;4.1011538086e+003;4.0779487305e+003;4.0957692871e+003;4.0776923828e+003;4.0658974609e+003;
3.2187500000e+000;4.1862822266e+003;4.1561538086e+003;4.1417949219e+003;4.1260258789e+003;4.1471796875e+003;4.1353847656e+003;4.1491025391e+003;4.1423076172e+003;4.1351284180e+003;4.1671796875e+003;4.1475639648e+003;4.1716665039e+003;4.1480771484e+003;4.1361538086e+003;
3.2265625000e+000;4.1823076172e+003;4.1553847656e+003;4.1415385742e+003;4.1262822266e+003;4.1458974609e+003;4.1312822266e+003;4.1460258789e+003;4.1400000000e+003;4.1321796875e+003;4.1666665039e+003;4.1469228516e+003;4.1723076172e+003;4.1476923828e+003;4.1361538086e+003;
3.2343750000e+000;4.1751284180e+003;4.1503847656e+003;4.1378203125e+003;4.1210258789e+003;4.1408974609e+003;4.1243588867e+003;4.1401284180e+003;4.1344873047e+003;4.1284614258e+003;4.1621796875e+003;4.1432050781e+003;4.1670512695e+003;4.1441025391e+003;4.1326923828e+003;
3.2421875000e+000;4.1411538086e+003;4.1132050781e+003;4.0942307129e+003;4.0856411133e+003;4.1091025391e+003;4.1044873047e+003;4.1115385742e+003;4.1048715820e+003;4.1152563477e+003;4.1250000000e+003;4.1023076172e+003;4.1151284180e+003;4.1026923828e+003;4.0916667480e+003;
3.2500000000e+000;4.2187177734e+003;4.1934614258e+003;4.1662822266e+003;4.1597436523e+003;4.1900000000e+003;4.1800000000e+003;4.1883334961e+003;4.1782050781e+003;4.1912822266e+003;4.1997436523e+003;4.1756411133e+003;4.1874360352e+003;4.1784614258e+003;4.1637177734e+003;
3.2578125000e+000;4.3214101563e+003;4.3060258789e+003;4.2782050781e+003;4.2624360352e+003;4.3084614258e+003;4.2924360352e+003;4.2951284180e+003;4.2961538086e+003;4.3102563477e+003;4.3270512695e+003;4.2914101563e+003;4.3024360352e+003;4.2910258789e+003;4.2782050781e+003;
3.2656250000e+000;4.2737177734e+003;4.2669228516e+003;4.2411538086e+003;4.2250000000e+003;4.2744873047e+003;4.2620512695e+003;4.2617949219e+003;4.2565385742e+003;4.2700000000e+003;4.2851284180e+003;4.2516665039e+003;4.2574360352e+003;4.2480771484e+003;4.2328203125e+003;
3.2734375000e+000;4.2976923828e+003;4.2902563477e+003;4.2655126953e+003;4.2475639648e+003;4.2979487305e+003;4.2843588867e+003;4.2850000000e+003;4.2774360352e+003;4.2928203125e+003;4.3079487305e+003;4.2743588867e+003;4.2785898438e+003;4.2694873047e+003;4.2537177734e+003;
3.2812500000e+000;4.4130771484e+003;4.4082050781e+003;4.3850000000e+003;4.3593588867e+003;4.4133334961e+003;4.3897436523e+003;4.3985898438e+003;4.3866665039e+003;4.3965385742e+003;4.4166665039e+003;4.3878203125e+003;4.3915385742e+003;4.3869228516e+003;4.3691025391e+003;
3.2890625000e+000;4.4676923828e+003;4.4697436523e+003;4.4448715820e+003;4.4160258789e+003;4.4730771484e+003;4.4425639648e+003;4.4541025391e+003;4.4475639648e+003;4.4543588867e+003;4.4780771484e+003;4.4496152344e+003;4.4543588867e+003;4.4512822266e+003;4.4320512695e+003;
3.2968750000e+000;4.4934614258e+003;4.5065385742e+003;4.4841025391e+003;4.4492309570e+003;4.5078203125e+003;4.4710258789e+003;4.4843588867e+003;4.4814101563e+003;4.4858974609e+003;4.5162822266e+003;4.4905126953e+003;4.4993588867e+003;4.4919228516e+003;4.4729487305e+003;
3.3046875000e+000;4.4980771484e+003;4.5143588867e+003;4.4924360352e+003;4.4555126953e+003;4.5147436523e+003;4.4752563477e+003;4.4896152344e+003;4.4806411133e+003;4.4847436523e+003;4.5191025391e+003;4.4975639648e+003;4.5060258789e+003;4.4974360352e+003;4.4787177734e+003;
3.3125000000e+000;4.6514101563e+003;4.6844873047e+003;4.6565385742e+003;4.6094873047e+003;4.6753847656e+003;4.6156411133e+003;4.6369228516e+003;4.6321796875e+003;4.6284614258e+003;4.6802563477e+003;4.6629487305e+003;4.6650000000e+003;4.6621796875e+003;4.6375639648e+003;
3.3203125000e+000;4.6773076172e+003;4.7153847656e+003;4.6882050781e+003;4.6369228516e+003;4.7019228516e+003;4.6400000000e+003;4.6638461914e+003;4.6656411133e+003;4.6610258789e+003;4.7139741211e+003;4.6944873047e+003;4.6978203125e+003;4.6947436523e+003;4.6669228516e+003;
3.3281250000e+000;4.7334614258e+003;4.7766665039e+003;4.7483334961e+003;4.6903847656e+003;4.7601284180e+003;4.6905126953e+003;4.7201284180e+003;4.7270512695e+003;4.7287177734e+003;4.7798715820e+003;4.7551284180e+003;4.7589741211e+003;4.7567949219e+003;4.7243588867e+003;
3.3359375000e+000;4.7807690430e+003;4.8271796875e+003;4.7964101563e+003;4.7364101563e+003;4.8119228516e+003;4.7352563477e+003;4.7656411133e+003;4.7774360352e+003;4.7830771484e+003;4.8346152344e+003;4.8064101563e+003;4.8070512695e+003;4.8070512695e+003;4.7737177734e+003;
3.3437500000e+000;4.8200000000e+003;4.8948715820e+003;4.8621796875e+003;4.8021796875e+003;4.8832050781e+003;4.8088461914e+003;4.8308974609e+003;4.8539741211e+003;4.8633334961e+003;4.9084614258e+003;4.8784614258e+003;4.8703847656e+003;4.8766665039e+003;4.8385898438e+003;
3.3515625000e+000;4.8653847656e+003;4.9537177734e+003;4.9188461914e+003;4.8558974609e+003;4.9415385742e+003;4.8685898438e+003;4.8912822266e+003;4.9098715820e+003;4.9205126953e+003;4.9629487305e+003;4.9338461914e+003;4.9250000000e+003;4.9351284180e+003;4.8932050781e+003;
3.3593750000e+000;4.9448715820e+003;5.0438461914e+003;5.0061538086e+003;4.9374360352e+003;5.0314101563e+003;4.9561538086e+003;4.9806411133e+003;4.9953847656e+003;5.0069228516e+003;5.0510258789e+003;5.0197436523e+003;5.0110258789e+003;5.0242309570e+003;4.9793588867e+003;
3.3671875000e+000;5.0223076172e+003;5.1276923828e+003;5.0878203125e+003;5.0134614258e+003;5.1160258789e+003;5.0373076172e+003;5.0628203125e+003;5.0755126953e+003;5.0867949219e+003;5.1357690430e+003;5.1001284180e+003;5.0926923828e+003;5.1064101563e+003;5.0611538086e+003;
3.3750000000e+000;5.1970512695e+003;5.3374360352e+003;5.2853847656e+003;5.2067949219e+003;5.3270512695e+003;5.2415385742e+003;5.2680771484e+003;5.2750000000e+003;5.2885898438e+003;5.3455126953e+003;5.3032050781e+003;5.2902563477e+003;5.3060258789e+003;5.2652563477e+003;
3.3828125000e+000;5.2352563477e+003;5.4160258789e+003;5.3597436523e+003;5.2697436523e+003;5.4035898438e+003;5.3174360352e+003;5.3448715820e+003;5.3510258789e+003;5.3662822266e+003;5.4241025391e+003;5.3796152344e+003;5.3692309570e+003;5.3828203125e+003;5.3384614258e+003;
3.3906250000e+000;5.2762822266e+003;5.4674360352e+003;5.4092309570e+003;5.3155126953e+003;5.4546152344e+003;5.3610258789e+003;5.3903847656e+003;5.3973076172e+003;5.4085898438e+003;5.4714101563e+003;5.4289741211e+003;5.4174360352e+003;5.4317949219e+003;5.3871796875e+003;
3.3984375000e+000;5.2958974609e+003;5.5058974609e+003;5.4491025391e+003;5.3502563477e+003;5.4884614258e+003;5.3907690430e+003;5.4200000000e+003;5.4311538086e+003;5.4360258789e+003;5.5064101563e+003;5.4667949219e+003;5.4539741211e+003;5.4696152344e+003;5.4252563477e+003;
3.4062500000e+000;5.3415385742e+003;5.5598715820e+003;5.5074360352e+003;5.3974360352e+003;5.5341025391e+003;5.4287177734e+003;5.4641025391e+003;5.4743588867e+003;5.4689741211e+003;5.5491025391e+003;5.5138461914e+003;5.5034614258e+003;5.5182050781e+003;5.4771796875e+003;
3.4140625000e+000;5.3255126953e+003;5.5467949219e+003;5.4976923828e+003;5.3866665039e+003;5.5205126953e+003;5.4132050781e+003;5.4479487305e+003;5.4605126953e+003;5.4550000000e+003;5.5360258789e+003;5.5005126953e+003;5.4924360352e+003;5.5035898438e+003;5.4650000000e+003;
3.4218750000e+000;5.2500000000e+003;5.4716665039e+003;5.4256411133e+003;5.3184614258e+003;5.4433334961e+003;5.3346152344e+003;5.3678203125e+003;5.3797436523e+003;5.3761538086e+003;5.4512822266e+003;5.4238461914e+003;5.4158974609e+003;5.4280771484e+003;5.3905126953e+003;
3.4296875000e+000;5.2450000000e+003;5.4611538086e+003;5.4126923828e+003;5.3075639648e+003;5.4302563477e+003;5.3198715820e+003;5.3512822266e+003;5.3670512695e+003;5.3646152344e+003;5.4369228516e+003;5.4146152344e+003;5.4030771484e+003;5.4198715820e+003;5.3805126953e+003;
