Time (s);AF3;F7;F3;FC5;T7;P7;O1;O2;P8;T8;FC6;F4;F8;AF4;Sampling Rate
0.0000000000e+000;4.1082050781e+003;4.1221796875e+003;4.1160258789e+003;4.1093588867e+003;4.1220512695e+003;4.1098715820e+003;4.1198715820e+003;4.1121796875e+003;4.1150000000e+003;4.1324360352e+003;4.1121796875e+003;4.1252563477e+003;4.1274360352e+003;4.1196152344e+003;128
7.8125000000e-003;4.1248715820e+003;4.1384614258e+003;4.1334614258e+003;4.1282050781e+003;4.1385898438e+003;4.1279487305e+003;4.1360258789e+003;4.1302563477e+003;4.1334614258e+003;4.1511538086e+003;4.1311538086e+003;4.1426923828e+003;4.1453847656e+003;4.1378203125e+003;
1.5625000000e-002;4.1355126953e+003;4.1482050781e+003;4.1438461914e+003;4.1417949219e+003;4.1469228516e+003;4.1373076172e+003;4.1497436523e+003;4.1466665039e+003;4.1411538086e+003;4.1535898438e+003;4.1452563477e+003;4.1560258789e+003;4.1500000000e+003;4.1483334961e+003;
2.3437500000e-002;4.2132050781e+003;4.2378203125e+003;4.2251284180e+003;4.2151284180e+003;4.2301284180e+003;4.2137177734e+003;4.2212822266e+003;4.2200000000e+003;4.2271796875e+003;4.2410258789e+003;4.2269228516e+003;4.2332050781e+003;4.2453847656e+003;4.2247436523e+003;
3.1250000000e-002;4.1930771484e+003;4.2175639648e+003;4.2083334961e+003;4.1993588867e+003;4.2107690430e+003;4.1988461914e+003;4.2007690430e+003;4.2003847656e+003;4.2083334961e+003;4.2216665039e+003;4.2057690430e+003;4.2153847656e+003;4.2258974609e+003;4.2064101563e+003;
3.9062500000e-002;4.2498715820e+003;4.2756411133e+003;4.2671796875e+003;4.2585898438e+003;4.2723076172e+003;4.2498715820e+003;4.2569228516e+003;4.2575639648e+003;4.2533334961e+003;4.2723076172e+003;4.2589741211e+003;4.2734614258e+003;4.2719228516e+003;4.2615385742e+003;
4.6875000000e-002;4.2588461914e+003;4.2878203125e+003;4.2778203125e+003;4.2666665039e+003;4.2835898438e+003;4.2569228516e+003;4.2671796875e+003;4.2706411133e+003;4.2641025391e+003;4.2850000000e+003;4.2733334961e+003;4.2871796875e+003;4.2807690430e+003;4.2715385742e+003;
5.4687500000e-002;4.2041025391e+003;4.2315385742e+003;4.2200000000e+003;4.2098715820e+003;4.2276923828e+003;4.2044873047e+003;4.2173076172e+003;4.2146152344e+003;4.2101284180e+003;4.2269228516e+003;4.2207690430e+003;4.2334614258e+003;4.2233334961e+003;4.2137177734e+003;
6.2500000000e-002;4.2043588867e+003;4.2280771484e+003;4.2158974609e+003;4.2070512695e+003;4.2248715820e+003;4.2039741211e+003;4.2166665039e+003;4.2103847656e+003;4.2078203125e+003;4.2232050781e+003;4.2167949219e+003;4.2288461914e+003;4.2221796875e+003;4.2107690430e+003;
7.0312500000e-002;4.1947436523e+003;4.2147436523e+003;4.2108974609e+003;4.2007690430e+003;4.2147436523e+003;4.2001284180e+003;4.2075639648e+003;4.2039741211e+003;4.1988461914e+003;4.2130771484e+003;4.2016665039e+003;4.2211538086e+003;4.2124360352e+003;4.2008974609e+003;
7.8125000000e-002;4.1779487305e+003;4.2002563477e+003;4.1975639648e+003;4.1887177734e+003;4.2038461914e+003;4.1880771484e+003;4.1967949219e+003;4.1878203125e+003;4.1826923828e+003;4.1924360352e+003;4.1844873047e+003;4.2057690430e+003;4.1953847656e+003;4.1823076172e+003;
8.5937500000e-002;4.1973076172e+003;4.2232050781e+003;4.2174360352e+003;4.2103847656e+003;4.2298715820e+003;4.2088461914e+003;4.2215385742e+003;4.2070512695e+003;4.2039741211e+003;4.2098715820e+003;4.2042309570e+003;4.2244873047e+003;4.2160258789e+003;4.1988461914e+003;
9.3750000000e-002;4.2387177734e+003;4.2682050781e+003;4.2579487305e+003;4.2523076172e+003;4.2756411133e+003;4.2497436523e+003;4.2670512695e+003;4.2508974609e+003;4.2503847656e+003;4.2556411133e+003;4.2480771484e+003;4.2657690430e+003;4.2607690430e+003;4.2393588867e+003;
1.0156250000e-001;4.2078203125e+003;4.2389741211e+003;4.2276923828e+003;4.2297436523e+003;4.2512822266e+003;4.2342309570e+003;4.2443588867e+003;4.2378203125e+003;4.2369228516e+003;4.2441025391e+003;4.2321796875e+003;4.2403847656e+003;4.2353847656e+003;4.2157690430e+003;
1.0937500000e-001;4.2023076172e+003;4.2361538086e+003;4.2233334961e+003;4.2250000000e+003;4.2488461914e+003;4.2311538086e+003;4.2380771484e+003;4.2361538086e+003;4.2346152344e+003;4.2406411133e+003;4.2288461914e+003;4.2367949219e+003;4.2315385742e+003;4.2137177734e+003;
1.1718750000e-001;4.1165385742e+003;4.1506411133e+003;4.1373076172e+003;4.1428203125e+003;4.1464101563e+003;4.1484614258e+003;4.1562822266e+003;4.1525639648e+003;4.1464101563e+003;4.1524360352e+003;4.1374360352e+003;4.1525639648e+003;4.1526923828e+003;4.1360258789e+003;
1.2500000000e-001;4.1705126953e+003;4.1989741211e+003;4.1882050781e+003;4.1893588867e+003;4.2048715820e+003;4.1875639648e+003;4.1939741211e+003;4.1961538086e+003;4.1933334961e+003;4.1997436523e+003;4.1961538086e+003;4.2064101563e+003;4.2056411133e+003;4.1855126953e+003;
1.3281250000e-001;4.1488461914e+003;4.1773076172e+003;4.1688461914e+003;4.1678203125e+003;4.1905126953e+003;4.1669228516e+003;4.1707690430e+003;4.1756411133e+003;4.1735898438e+003;4.1802563477e+003;4.1756411133e+003;4.1875639648e+003;4.1823076172e+003;4.1638461914e+003;
1.4062500000e-001;4.1815385742e+003;4.2102563477e+003;4.1969228516e+003;4.1948715820e+003;4.2198715820e+003;4.1950000000e+003;4.2002563477e+003;4.1979487305e+003;4.1952563477e+003;4.2033334961e+003;4.1943588867e+003;4.2074360352e+003;4.2097436523e+003;4.1947436523e+003;
1.4843750000e-001;4.2232050781e+003;4.2566665039e+003;4.2464101563e+003;4.2384614258e+003;4.2535898438e+003;4.2370512695e+003;4.2416665039e+003;4.2379487305e+003;4.2411538086e+003;4.2470512695e+003;4.2402563477e+003;4.2546152344e+003;4.2544873047e+003;4.2403847656e+003;
1.5625000000e-001;4.2394873047e+003;4.2761538086e+003;4.2632050781e+003;4.2530771484e+003;4.2737177734e+003;4.2535898438e+003;4.2597436523e+003;4.2532050781e+003;4.2566665039e+003;4.2647436523e+003;4.2589741211e+003;4.2723076172e+003;4.2705126953e+003;4.2561538086e+003;
1.6406250000e-001;4.2824360352e+003;4.3225639648e+003;4.3047436523e+003;4.2933334961e+003;4.3217949219e+003;4.2957690430e+003;4.3034614258e+003;4.2975639648e+003;4.2996152344e+003;4.3126923828e+003;4.3057690430e+003;4.3164101563e+003;4.3143588867e+003;4.2996152344e+003;
1.7187500000e-001;4.3179487305e+003;4.3571796875e+003;4.3410258789e+003;4.3305126953e+003;4.3612822266e+003;4.3358974609e+003;4.3415385742e+003;4.3417949219e+003;4.3398715820e+003;4.3589741211e+003;4.3467949219e+003;4.3569228516e+003;4.3534614258e+003;4.3378203125e+003;
1.7968750000e-001;4.2503847656e+003;4.2884614258e+003;4.2820512695e+003;4.2680771484e+003;4.2916665039e+003;4.2741025391e+003;4.2782050781e+003;4.2770512695e+003;4.2744873047e+003;4.2907690430e+003;4.2778203125e+003;4.2920512695e+003;4.2935898438e+003;4.2701284180e+003;
1.8750000000e-001;4.2344873047e+003;4.2756411133e+003;4.2678203125e+003;4.2530771484e+003;4.2767949219e+003;4.2579487305e+003;4.2614101563e+003;4.2635898438e+003;4.2601284180e+003;4.2791025391e+003;4.2653847656e+003;4.2770512695e+003;4.2810258789e+003;4.2560258789e+003;
1.9531250000e-001;4.2002563477e+003;4.2421796875e+003;4.2344873047e+003;4.2215385742e+003;4.2432050781e+003;4.2250000000e+003;4.2274360352e+003;4.2310258789e+003;4.2262822266e+003;4.2470512695e+003;4.2339741211e+003;4.2432050781e+003;4.2469228516e+003;4.2232050781e+003;
2.0312500000e-001;4.1661538086e+003;4.2057690430e+003;4.1991025391e+003;4.1898715820e+003;4.2080771484e+003;4.1914101563e+003;4.1942309570e+003;4.1951284180e+003;4.1897436523e+003;4.2097436523e+003;4.1992309570e+003;4.2069228516e+003;4.2092309570e+003;4.1880771484e+003;
2.1093750000e-001;4.2123076172e+003;4.2460258789e+003;4.2360258789e+003;4.2260258789e+003;4.2406411133e+003;4.2291025391e+003;4.2347436523e+003;4.2376923828e+003;4.2401284180e+003;4.2538461914e+003;4.2407690430e+003;4.2470512695e+003;4.2520512695e+003;4.2339741211e+003;
2.1875000000e-001;4.1824360352e+003;4.2143588867e+003;4.2056411133e+003;4.1951284180e+003;4.2074360352e+003;4.1989741211e+003;4.2034614258e+003;4.2064101563e+003;4.2103847656e+003;4.2214101563e+003;4.2110258789e+003;4.2176923828e+003;4.2198715820e+003;4.2042309570e+003;
2.2656250000e-001;4.1916665039e+003;4.2232050781e+003;4.2124360352e+003;4.2066665039e+003;4.2176923828e+003;4.2007690430e+003;4.2071796875e+003;4.2082050781e+003;4.2144873047e+003;4.2208974609e+003;4.2189741211e+003;4.2279487305e+003;4.2265385742e+003;4.2173076172e+003;
2.3437500000e-001;4.1792309570e+003;4.2042309570e+003;4.1974360352e+003;4.1926923828e+003;4.2032050781e+003;4.1911538086e+003;4.1943588867e+003;4.1882050781e+003;4.1937177734e+003;4.2011538086e+003;4.2003847656e+003;4.2096152344e+003;4.2035898438e+003;4.1964101563e+003;
2.4218750000e-001;4.2042309570e+003;4.2330771484e+003;4.2198715820e+003;4.2128203125e+003;4.2285898438e+003;4.2139741211e+003;4.2179487305e+003;4.2123076172e+003;4.2215385742e+003;4.2294873047e+003;4.2292309570e+003;4.2335898438e+003;4.2301284180e+003;4.2200000000e+003;
2.5000000000e-001;4.1793588867e+003;4.2156411133e+003;4.2000000000e+003;4.1911538086e+003;4.2069228516e+003;4.1944873047e+003;4.1947436523e+003;4.1891025391e+003;4.1985898438e+003;4.2098715820e+003;4.2053847656e+003;4.2107690430e+003;4.2087177734e+003;4.1993588867e+003;
2.5781250000e-001;4.1737177734e+003;4.2108974609e+003;4.1964101563e+003;4.1894873047e+003;4.2032050781e+003;4.1903847656e+003;4.1892309570e+003;4.1806411133e+003;4.1873076172e+003;4.2005126953e+003;4.1950000000e+003;4.2030771484e+003;4.2011538086e+003;4.1935898438e+003;
2.6562500000e-001;4.1978203125e+003;4.2350000000e+003;4.2183334961e+003;4.2164101563e+003;4.2301284180e+003;4.2152563477e+003;4.2115385742e+003;4.2057690430e+003;4.2103847656e+003;4.2235898438e+003;4.2217949219e+003;4.2306411133e+003;4.2246152344e+003;4.2175639648e+003;
2.7343750000e-001;4.1469228516e+003;4.1823076172e+003;4.1687177734e+003;4.1669228516e+003;4.1782050781e+003;4.1710258789e+003;4.1653847656e+003;4.1582050781e+003;4.1620512695e+003;4.1725639648e+003;4.1726923828e+003;4.1837177734e+003;4.1741025391e+003;4.1675639648e+003;
2.8125000000e-001;4.1046152344e+003;4.1367949219e+003;4.1288461914e+003;4.1276923828e+003;4.1367949219e+003;4.1353847656e+003;4.1282050781e+003;4.1173076172e+003;4.1202563477e+003;4.1274360352e+003;4.1258974609e+003;4.1411538086e+003;4.1276923828e+003;4.1225639648e+003;
2.8906250000e-001;4.1234614258e+003;4.1564101563e+003;4.1473076172e+003;4.1475639648e+003;4.1567949219e+003;4.1532050781e+003;4.1455126953e+003;4.1389741211e+003;4.1424360352e+003;4.1501284180e+003;4.1443588867e+003;4.1596152344e+003;4.1441025391e+003;4.1402563477e+003;
2.9687500000e-001;4.0920512695e+003;4.1274360352e+003;4.1101284180e+003;4.1155126953e+003;4.1233334961e+003;4.1258974609e+003;4.1162822266e+003;4.1174360352e+003;4.1191025391e+003;4.1220512695e+003;4.1123076172e+003;4.1207690430e+003;4.1116665039e+003;4.1026923828e+003;
3.0468750000e-001;4.1383334961e+003;4.1710258789e+003;4.1606411133e+003;4.1648715820e+003;4.1787177734e+003;4.1760258789e+003;4.1625639648e+003;4.1700000000e+003;4.1705126953e+003;4.1757690430e+003;4.1617949219e+003;4.1703847656e+003;4.1646152344e+003;4.1506411133e+003;
3.1250000000e-001;4.1215385742e+003;4.1529487305e+003;4.1462822266e+003;4.1488461914e+003;4.1591025391e+003;4.1612822266e+003;4.1474360352e+003;4.1551284180e+003;4.1556411133e+003;4.1606411133e+003;4.1475639648e+003;4.1580771484e+003;4.1460258789e+003;4.1371796875e+003;
3.2031250000e-001;4.1078203125e+003;4.1385898438e+003;4.1323076172e+003;4.1328203125e+003;4.1382050781e+003;4.1466665039e+003;4.1350000000e+003;4.1398715820e+003;4.1405126953e+003;4.1448715820e+003;4.1352563477e+003;4.1439741211e+003;4.1306411133e+003;4.1252563477e+003;
3.2812500000e-001;4.1374360352e+003;4.1661538086e+003;4.1582050781e+003;4.1566665039e+003;4.1547436523e+003;4.1670512695e+003;4.1589741211e+003;4.1637177734e+003;4.1662822266e+003;4.1743588867e+003;4.1657690430e+003;4.1664101563e+003;4.1635898438e+003;4.1555126953e+003;
3.3593750000e-001;4.1344873047e+003;4.1594873047e+003;4.1548715820e+003;4.1560258789e+003;4.1516665039e+003;4.1621796875e+003;4.1526923828e+003;4.1594873047e+003;4.1628203125e+003;4.1739741211e+003;4.1616665039e+003;4.1634614258e+003;4.1629487305e+003;4.1523076172e+003;
3.4375000000e-001;4.1057690430e+003;4.1261538086e+003;4.1258974609e+003;4.1315385742e+003;4.1270512695e+003;4.1346152344e+003;4.1228203125e+003;4.1282050781e+003;4.1320512695e+003;4.1447436523e+003;4.1293588867e+003;4.1360258789e+003;4.1338461914e+003;4.1223076172e+003;
3.5156250000e-001;4.0933332520e+003;4.1189741211e+003;4.1123076172e+003;4.1161538086e+003;4.1206411133e+003;4.1221796875e+003;4.1092309570e+003;4.1058974609e+003;4.1082050781e+003;4.1251284180e+003;4.1198715820e+003;4.1253847656e+003;4.1160258789e+003;4.1096152344e+003;
3.5937500000e-001;4.0648718262e+003;4.0869230957e+003;4.0861538086e+003;4.0906411133e+003;4.0875642090e+003;4.0934614258e+003;4.0798718262e+003;4.0715385742e+003;4.0746154785e+003;4.0889743652e+003;4.0897436523e+003;4.0956411133e+003;4.0838461914e+003;4.0793588867e+003;
3.6718750000e-001;4.1137177734e+003;4.1266665039e+003;4.1269228516e+003;4.1321796875e+003;4.1276923828e+003;4.1292309570e+003;4.1165385742e+003;4.1057690430e+003;4.1115385742e+003;4.1258974609e+003;4.1194873047e+003;4.1303847656e+003;4.1255126953e+003;4.1223076172e+003;
3.7500000000e-001;4.1020512695e+003;4.1164101563e+003;4.1165385742e+003;4.1191025391e+003;4.1153847656e+003;4.1198715820e+003;4.1066665039e+003;4.0966665039e+003;4.1005126953e+003;4.1138461914e+003;4.1043588867e+003;4.1180771484e+003;4.1144873047e+003;4.1114101563e+003;
3.8281250000e-001;4.0825642090e+003;4.1057690430e+003;4.1029487305e+003;4.1046152344e+003;4.1041025391e+003;4.1088461914e+003;4.0944870605e+003;4.0808974609e+003;4.0842307129e+003;4.0941025391e+003;4.0888461914e+003;4.1025639648e+003;4.0948718262e+003;4.0923076172e+003;
3.9062500000e-001;4.0452563477e+003;4.0639743652e+003;4.0623076172e+003;4.0776923828e+003;4.0689743652e+003;4.0737180176e+003;4.0556411133e+003;4.0506411133e+003;4.0653845215e+003;4.0697436523e+003;4.0653845215e+003;4.0729487305e+003;4.0565385742e+003;4.0597436523e+003;
3.9843750000e-001;4.0530769043e+003;4.0703845215e+003;4.0657692871e+003;4.0787180176e+003;4.0734614258e+003;4.0779487305e+003;4.0624357910e+003;4.0558974609e+003;4.0702563477e+003;4.0743588867e+003;4.0705129395e+003;4.0756411133e+003;4.0676923828e+003;4.0647436523e+003;
4.0625000000e-001;4.1203847656e+003;4.1432050781e+003;4.1279487305e+003;4.1324360352e+003;4.1380771484e+003;4.1369228516e+003;4.1250000000e+003;4.1279487305e+003;4.1384614258e+003;4.1491025391e+003;4.1364101563e+003;4.1416665039e+003;4.1444873047e+003;4.1312822266e+003;
4.1406250000e-001;4.1162822266e+003;4.1398715820e+003;4.1238461914e+003;4.1284614258e+003;4.1338461914e+003;4.1339741211e+003;4.1208974609e+003;4.1282050781e+003;4.1373076172e+003;4.1501284180e+003;4.1324360352e+003;4.1403847656e+003;4.1406411133e+003;4.1298715820e+003;
4.2187500000e-001;4.1062822266e+003;4.1247436523e+003;4.1123076172e+003;4.1298715820e+003;4.1265385742e+003;4.1283334961e+003;4.1117949219e+003;4.1158974609e+003;4.1253847656e+003;4.1356411133e+003;4.1214101563e+003;4.1274360352e+003;4.1208974609e+003;4.1230771484e+003;
4.2968750000e-001;4.1143588867e+003;4.1344873047e+003;4.1221796875e+003;4.1397436523e+003;4.1360258789e+003;4.1373076172e+003;4.1193588867e+003;4.1252563477e+003;4.1343588867e+003;4.1450000000e+003;4.1307690430e+003;4.1361538086e+003;4.1297436523e+003;4.1314101563e+003;
4.3750000000e-001;4.0543588867e+003;4.0805129395e+003;4.0648718262e+003;4.0778205566e+003;4.0765385742e+003;4.0821794434e+003;4.0634614258e+003;4.0662819824e+003;4.0748718262e+003;4.0838461914e+003;4.0700000000e+003;4.0792307129e+003;4.0726923828e+003;4.0705129395e+003;
4.4531250000e-001;4.0315385742e+003;4.0596154785e+003;4.0401281738e+003;4.0505129395e+003;4.0506411133e+003;4.0578205566e+003;4.0415385742e+003;4.0394870605e+003;4.0493588867e+003;4.0571794434e+003;4.0460256348e+003;4.0552563477e+003;4.0511538086e+003;4.0474357910e+003;
4.5312500000e-001;3.9861538086e+003;4.0014101563e+003;3.9937180176e+003;4.0046154785e+003;3.9861538086e+003;4.0052563477e+003;3.9911538086e+003;3.9880769043e+003;3.9997436523e+003;4.0089743652e+003;3.9997436523e+003;4.0071794434e+003;4.0035898438e+003;4.0025642090e+003;
4.6093750000e-001;3.9475642090e+003;3.9575642090e+003;3.9537180176e+003;3.9708974609e+003;3.9474357910e+003;3.9683332520e+003;3.9521794434e+003;3.9458974609e+003;3.9579487305e+003;3.9653845215e+003;3.9564101563e+003;3.9661538086e+003;3.9582050781e+003;3.9594870605e+003;
4.6875000000e-001;3.9385898438e+003;3.9492307129e+003;3.9401281738e+003;3.9646154785e+003;3.9456411133e+003;3.9601281738e+003;3.9423076172e+003;3.9310256348e+003;3.9455129395e+003;3.9503845215e+003;3.9435898438e+003;3.9541025391e+003;3.9439743652e+003;3.9462819824e+003;
4.7656250000e-001;3.9452563477e+003;3.9570512695e+003;3.9408974609e+003;3.9637180176e+003;3.9541025391e+003;3.9678205566e+003;3.9494870605e+003;3.9415385742e+003;3.9515385742e+003;3.9501281738e+003;3.9535898438e+003;3.9632050781e+003;3.9552563477e+003;3.9585898438e+003;
4.8437500000e-001;3.9617949219e+003;3.9660256348e+003;3.9569230957e+003;3.9761538086e+003;3.9667949219e+003;3.9788461914e+003;3.9633332520e+003;3.9578205566e+003;3.9647436523e+003;3.9634614258e+003;3.9652563477e+003;3.9755129395e+003;3.9673076172e+003;3.9694870605e+003;
4.9218750000e-001;3.9243588867e+003;3.9258974609e+003;3.9208974609e+003;3.9380769043e+003;3.9246154785e+003;3.9383332520e+003;3.9200000000e+003;3.9230769043e+003;3.9275642090e+003;3.9238461914e+003;3.9202563477e+003;3.9355129395e+003;3.9215385742e+003;3.9244870605e+003;
5.0000000000e-001;3.8916667480e+003;3.8946154785e+003;3.8844870605e+003;3.9038461914e+003;3.8864101563e+003;3.9051281738e+003;3.8858974609e+003;3.8843588867e+003;3.8905129395e+003;3.8828205566e+003;3.8825642090e+003;3.8985898438e+003;3.8856411133e+003;3.8884614258e+003;
5.0781250000e-001;3.9000000000e+003;3.9034614258e+003;3.8870512695e+003;3.9038461914e+003;3.8891025391e+003;3.9076923828e+003;3.8924357910e+003;3.8864101563e+003;3.8969230957e+003;3.8873076172e+003;3.8888461914e+003;3.9005129395e+003;3.8962819824e+003;3.8933332520e+003;
5.1562500000e-001;3.8933332520e+003;3.8935898438e+003;3.8829487305e+003;3.8980769043e+003;3.8821794434e+003;3.9005129395e+003;3.8869230957e+003;3.8829487305e+003;3.8942307129e+003;3.8850000000e+003;3.8843588867e+003;3.8957692871e+003;3.8915385742e+003;3.8869230957e+003;
5.2343750000e-001;3.8262819824e+003;3.8144870605e+003;3.8191025391e+003;3.8428205566e+003;3.8107692871e+003;3.8314101563e+003;3.8165385742e+003;3.8157692871e+003;3.8251281738e+003;3.8142307129e+003;3.8132050781e+003;3.8307692871e+003;3.8106411133e+003;3.8148718262e+003;
5.3125000000e-001;3.7874357910e+003;3.7733332520e+003;3.7680769043e+003;3.7878205566e+003;3.7638461914e+003;3.7929487305e+003;3.7747436523e+003;3.7743588867e+003;3.7855129395e+003;3.7710256348e+003;3.7693588867e+003;3.7856411133e+003;3.7724357910e+003;3.7691025391e+003;
5.3906250000e-001;3.8028205566e+003;3.7846154785e+003;3.7815385742e+003;3.7997436523e+003;3.7757692871e+003;3.8060256348e+003;3.7898718262e+003;3.7847436523e+003;3.7970512695e+003;3.7830769043e+003;3.7798718262e+003;3.7973076172e+003;3.7884614258e+003;3.7812819824e+003;
5.4687500000e-001;3.8448718262e+003;3.8247436523e+003;3.8238461914e+003;3.8416667480e+003;3.8162819824e+003;3.8435898438e+003;3.8287180176e+003;3.8217949219e+003;3.8351281738e+003;3.8251281738e+003;3.8192307129e+003;3.8382050781e+003;3.8292307129e+003;3.8226923828e+003;
5.5468750000e-001;3.8679487305e+003;3.8514101563e+003;3.8511538086e+003;3.8684614258e+003;3.8405129395e+003;3.8632050781e+003;3.8439743652e+003;3.8411538086e+003;3.8558974609e+003;3.8511538086e+003;3.8451281738e+003;3.8669230957e+003;3.8429487305e+003;3.8494870605e+003;
5.6250000000e-001;3.9097436523e+003;3.8843588867e+003;3.8843588867e+003;3.8926923828e+003;3.8755129395e+003;3.8947436523e+003;3.8837180176e+003;3.8671794434e+003;3.8815385742e+003;3.8701281738e+003;3.8805129395e+003;3.8941025391e+003;3.8747436523e+003;3.8774357910e+003;
5.7031250000e-001;3.9874357910e+003;3.9608974609e+003;3.9588461914e+003;3.9646154785e+003;3.9503845215e+003;3.9660256348e+003;3.9570512695e+003;3.9453845215e+003;3.9597436523e+003;3.9533332520e+003;3.9593588867e+003;3.9705129395e+003;3.9589743652e+003;3.9556411133e+003;
5.7812500000e-001;4.0142307129e+003;3.9907692871e+003;3.9870512695e+003;3.9923076172e+003;3.9773076172e+003;3.9935898438e+003;3.9817949219e+003;3.9789743652e+003;3.9935898438e+003;3.9925642090e+003;3.9905129395e+003;4.0024357910e+003;3.9947436523e+003;3.9889743652e+003;
5.8593750000e-001;3.9089743652e+003;3.8941025391e+003;3.8891025391e+003;3.8989743652e+003;3.8801281738e+003;3.9052563477e+003;3.8866667480e+003;3.8874357910e+003;3.9024357910e+003;3.9007692871e+003;3.8885898438e+003;3.9051281738e+003;3.9002563477e+003;3.8943588867e+003;
5.9375000000e-001;3.8792307129e+003;3.8633332520e+003;3.8589743652e+003;3.8706411133e+003;3.8529487305e+003;3.8794870605e+003;3.8620512695e+003;3.8594870605e+003;3.8735898438e+003;3.8683332520e+003;3.8552563477e+003;3.8725642090e+003;3.8673076172e+003;3.8625642090e+003;
6.0156250000e-001;3.8910256348e+003;3.8693588867e+003;3.8679487305e+003;3.8800000000e+003;3.8633332520e+003;3.8901281738e+003;3.8750000000e+003;3.8720512695e+003;3.8839743652e+003;3.8757692871e+003;3.8630769043e+003;3.8820512695e+003;3.8698718262e+003;3.8703845215e+003;
6.0937500000e-001;4.0383332520e+003;4.0123076172e+003;4.0164101563e+003;4.0238461914e+003;4.0171794434e+003;4.0369230957e+003;4.0257692871e+003;4.0292307129e+003;4.0383332520e+003;4.0238461914e+003;4.0197436523e+003;4.0297436523e+003;4.0103845215e+003;4.0148718262e+003;
6.1718750000e-001;4.0720512695e+003;4.0478205566e+003;4.0557692871e+003;4.0582050781e+003;4.0511538086e+003;4.0688461914e+003;4.0580769043e+003;4.0670512695e+003;4.0760256348e+003;4.0634614258e+003;4.0606411133e+003;4.0698718262e+003;4.0479487305e+003;4.0544870605e+003;
6.2500000000e-001;4.0858974609e+003;4.0593588867e+003;4.0702563477e+003;4.0646154785e+003;4.0571794434e+003;4.0670512695e+003;4.0621794434e+003;4.0603845215e+003;4.0691025391e+003;4.0650000000e+003;4.0606411133e+003;4.0816667480e+003;4.0533332520e+003;4.0628205566e+003;
6.3281250000e-001;4.1029487305e+003;4.0900000000e+003;4.0897436523e+003;4.0856411133e+003;4.0675642090e+003;4.0826923828e+003;4.0766667480e+003;4.0824357910e+003;4.0991025391e+003;4.1069228516e+003;4.0856411133e+003;4.1041025391e+003;4.0926923828e+003;4.0878205566e+003;
6.4062500000e-001;4.0378205566e+003;4.0226923828e+003;4.0274357910e+003;4.0270512695e+003;3.9973076172e+003;4.0221794434e+003;4.0128205566e+003;4.0196154785e+003;4.0341025391e+003;4.0402563477e+003;4.0276923828e+003;4.0461538086e+003;4.0243588867e+003;4.0282050781e+003;
6.4843750000e-001;3.8957692871e+003;3.8721794434e+003;3.8829487305e+003;3.8921794434e+003;3.8711538086e+003;3.8871794434e+003;3.8708974609e+003;3.8670512695e+003;3.8794870605e+003;3.8716667480e+003;3.8788461914e+003;3.8985898438e+003;3.8714101563e+003;3.8773076172e+003;
6.5625000000e-001;3.8085898438e+003;3.7794870605e+003;3.7932050781e+003;3.8084614258e+003;3.7860256348e+003;3.8082050781e+003;3.7891025391e+003;3.7733332520e+003;3.7896154785e+003;3.7776923828e+003;3.7743588867e+003;3.8032050781e+003;3.7835898438e+003;3.7805129395e+003;
6.6406250000e-001;3.8121794434e+003;3.7798718262e+003;3.7935898438e+003;3.8126923828e+003;3.7828205566e+003;3.8089743652e+003;3.7883332520e+003;3.7734614258e+003;3.7889743652e+003;3.7789743652e+003;3.7816667480e+003;3.8053845215e+003;3.7808974609e+003;3.7842307129e+003;
6.7187500000e-001;3.7094870605e+003;3.6642307129e+003;3.6823076172e+003;3.7026923828e+003;3.6737180176e+003;3.7082050781e+003;3.6855129395e+003;3.6657692871e+003;3.6807692871e+003;3.6632050781e+003;3.6701281738e+003;3.6911538086e+003;3.6698718262e+003;3.6733332520e+003;
6.7968750000e-001;3.6964101563e+003;3.6498718262e+003;3.6650000000e+003;3.6829487305e+003;3.6597436523e+003;3.6935898438e+003;3.6732050781e+003;3.6514101563e+003;3.6675642090e+003;3.6452563477e+003;3.6511538086e+003;3.6750000000e+003;3.6565385742e+003;3.6566667480e+003;
6.8750000000e-001;3.7217949219e+003;3.6762819824e+003;3.6826923828e+003;3.7044870605e+003;3.6761538086e+003;3.7083332520e+003;3.6883332520e+003;3.6765385742e+003;3.6917949219e+003;3.6670512695e+003;3.6752563477e+003;3.7006411133e+003;3.6771794434e+003;3.6797436523e+003;
6.9531250000e-001;3.7075642090e+003;3.6606411133e+003;3.6653845215e+003;3.6934614258e+003;3.6560256348e+003;3.6907692871e+003;3.6679487305e+003;3.6601281738e+003;3.6730769043e+003;3.6482050781e+003;3.6593588867e+003;3.6812819824e+003;3.6597436523e+003;3.6626923828e+003;
7.0312500000e-001;3.6892307129e+003;3.6398718262e+003;3.6435898438e+003;3.6762819824e+003;3.6334614258e+003;3.6706411133e+003;3.6457692871e+003;3.6370512695e+003;3.6474357910e+003;3.6221794434e+003;3.6370512695e+003;3.6529487305e+003;3.6401281738e+003;3.6405129395e+003;
7.1093750000e-001;3.7342307129e+003;3.6810256348e+003;3.6864101563e+003;3.7107692871e+003;3.6751281738e+003;3.7096154785e+003;3.6867949219e+003;3.6779487305e+003;3.6860256348e+003;3.6607692871e+003;3.6747436523e+003;3.6938461914e+003;3.6833332520e+003;3.6875642090e+003;
7.1875000000e-001;3.7593588867e+003;3.7038461914e+003;3.7155129395e+003;3.7310256348e+003;3.6988461914e+003;3.7326923828e+003;3.7115385742e+003;3.7070512695e+003;3.7150000000e+003;3.6882050781e+003;3.6966667480e+003;3.7320512695e+003;3.7010256348e+003;3.7183332520e+003;
7.2656250000e-001;3.7479487305e+003;3.6891025391e+003;3.7087180176e+003;3.7200000000e+003;3.6858974609e+003;3.7215385742e+003;3.7007692871e+003;3.6987180176e+003;3.7066667480e+003;3.6751281738e+003;3.6816667480e+003;3.7329487305e+003;3.6767949219e+003;3.7088461914e+003;
7.3437500000e-001;3.7526923828e+003;3.6948718262e+003;3.6865385742e+003;3.7214101563e+003;3.6889743652e+003;3.7191025391e+003;3.6947436523e+003;3.6873076172e+003;3.7002563477e+003;3.6679487305e+003;3.7025642090e+003;3.6816667480e+003;3.7053845215e+003;3.6820512695e+003;
7.4218750000e-001;3.7198718262e+003;3.6501281738e+003;3.6543588867e+003;3.6787180176e+003;3.6610256348e+003;3.6907692871e+003;3.6638461914e+003;3.6460256348e+003;3.6639743652e+003;3.6120512695e+003;3.6371794434e+003;3.6525642090e+003;3.6321794434e+003;3.6455129395e+003;
7.5000000000e-001;3.7248718262e+003;3.6553845215e+003;3.6564101563e+003;3.6873076172e+003;3.6669230957e+003;3.6962819824e+003;3.6670512695e+003;3.6488461914e+003;3.6678205566e+003;3.6196154785e+003;3.6578205566e+003;3.6497436523e+003;3.6487180176e+003;3.6497436523e+003;
7.5781250000e-001;3.7029487305e+003;3.6376923828e+003;3.6278205566e+003;3.6737180176e+003;3.6429487305e+003;3.6741025391e+003;3.6434614258e+003;3.6216667480e+003;3.6343588867e+003;3.6016667480e+003;3.6526923828e+003;3.6271794434e+003;3.6506411133e+003;3.6307692871e+003;
7.6562500000e-001;3.6887180176e+003;3.6119230957e+003;3.6116667480e+003;3.6455129395e+003;3.6180769043e+003;3.6598718262e+003;3.6326923828e+003;3.6142307129e+003;3.6343588867e+003;3.5724357910e+003;3.5747436523e+003;3.6211538086e+003;3.6035898438e+003;3.6038461914e+003;
7.7343750000e-001;3.6812819824e+003;3.5998718262e+003;3.6020512695e+003;3.6407692871e+003;3.6094870605e+003;3.6517949219e+003;3.6257692871e+003;3.6035898438e+003;3.6248718262e+003;3.5641025391e+003;3.5805129395e+003;3.6075642090e+003;3.5982050781e+003;3.5958974609e+003;
7.8125000000e-001;3.7270512695e+003;3.6497436523e+003;3.6452563477e+003;3.6902563477e+003;3.6637180176e+003;3.6937180176e+003;3.6703845215e+003;3.6537180176e+003;3.6691025391e+003;3.6101281738e+003;3.6657692871e+003;3.6630769043e+003;3.6457692871e+003;3.6526923828e+003;
7.8906250000e-001;3.7228205566e+003;3.6474357910e+003;3.6426923828e+003;3.6828205566e+003;3.6587180176e+003;3.6906411133e+003;3.6666667480e+003;3.6567949219e+003;3.6669230957e+003;3.6003845215e+003;3.6684614258e+003;3.6652563477e+003;3.6387180176e+003;3.6497436523e+003;
7.9687500000e-001;3.7007692871e+003;3.6061538086e+003;3.6228205566e+003;3.6443588867e+003;3.6069230957e+003;3.6600000000e+003;3.6388461914e+003;3.6312819824e+003;3.6379487305e+003;3.5511538086e+003;3.6358974609e+003;3.6087180176e+003;3.6371794434e+003;3.6042307129e+003;
8.0468750000e-001;3.7291025391e+003;3.6301281738e+003;3.6500000000e+003;3.6741025391e+003;3.6371794434e+003;3.6828205566e+003;3.6642307129e+003;3.6598718262e+003;3.6702563477e+003;3.5787180176e+003;3.6614101563e+003;3.6312819824e+003;3.6664101563e+003;3.6314101563e+003;
8.1250000000e-001;3.7065385742e+003;3.6129487305e+003;3.6226923828e+003;3.6616667480e+003;3.6375642090e+003;3.6630769043e+003;3.6462819824e+003;3.6448718262e+003;3.6582050781e+003;3.5494870605e+003;3.6037180176e+003;3.6300000000e+003;3.6069230957e+003;3.6130769043e+003;
8.2031250000e-001;3.6879487305e+003;3.6007692871e+003;3.5993588867e+003;3.6437180176e+003;3.6251281738e+003;3.6466667480e+003;3.6292307129e+003;3.6234614258e+003;3.6346154785e+003;3.5243588867e+003;3.5617949219e+003;3.6216667480e+003;3.5725642090e+003;3.5914101563e+003;
8.2812500000e-001;3.7306411133e+003;3.6424357910e+003;3.6435898438e+003;3.6771794434e+003;3.6437180176e+003;3.6814101563e+003;3.6558974609e+003;3.6506411133e+003;3.6521794434e+003;3.5815385742e+003;3.6501281738e+003;3.6496154785e+003;3.6475642090e+003;3.6264101563e+003;
8.3593750000e-001;3.7116667480e+003;3.6189743652e+003;3.6283332520e+003;3.6592307129e+003;3.6226923828e+003;3.6638461914e+003;3.6376923828e+003;3.6311538086e+003;3.6330769043e+003;3.5671794434e+003;3.6553845215e+003;3.6248718262e+003;3.6380769043e+003;3.6112819824e+003;
8.4375000000e-001;3.6974357910e+003;3.6057692871e+003;3.6129487305e+003;3.6471794434e+003;3.6166667480e+003;3.6521794434e+003;3.6291025391e+003;3.6174357910e+003;3.6223076172e+003;3.5515385742e+003;3.6414101563e+003;3.6119230957e+003;3.6234614258e+003;3.6011538086e+003;
8.5156250000e-001;3.7100000000e+003;3.6252563477e+003;3.6197436523e+003;3.6626923828e+003;3.6430769043e+003;3.6661538086e+003;3.6473076172e+003;3.6320512695e+003;3.6414101563e+003;3.5594870605e+003;3.6317949219e+003;3.6315385742e+003;3.6298718262e+003;3.6161538086e+003;
8.5937500000e-001;3.7134614258e+003;3.6075642090e+003;3.6347436523e+003;3.6496154785e+003;3.6269230957e+003;3.6639743652e+003;3.6400000000e+003;3.6287180176e+003;3.6441025391e+003;3.5292307129e+003;3.5979487305e+003;3.6156411133e+003;3.6323076172e+003;3.6014101563e+003;
8.6718750000e-001;3.7466667480e+003;3.6350000000e+003;3.6700000000e+003;3.6691025391e+003;3.6511538086e+003;3.6911538086e+003;3.6697436523e+003;3.6542307129e+003;3.6688461914e+003;3.5652563477e+003;3.6370512695e+003;3.6407692871e+003;3.6724357910e+003;3.6355129395e+003;
8.7500000000e-001;3.8130769043e+003;3.7471794434e+003;3.7214101563e+003;3.7842307129e+003;3.7470512695e+003;3.7624357910e+003;3.7470512695e+003;3.7405129395e+003;3.7512819824e+003;3.6717949219e+003;3.6892307129e+003;3.7764101563e+003;3.7311538086e+003;3.7397436523e+003;
8.8281250000e-001;3.8538461914e+003;3.7347436523e+003;3.7908974609e+003;3.8044870605e+003;3.7584614258e+003;3.7843588867e+003;3.7675642090e+003;3.7619230957e+003;3.7661538086e+003;3.6788461914e+003;3.7411538086e+003;3.7862819824e+003;3.7385898438e+003;3.7466667480e+003;
8.9062500000e-001;3.8797436523e+003;3.7770512695e+003;3.8233332520e+003;3.8006411133e+003;3.7779487305e+003;3.8069230957e+003;3.7903845215e+003;3.7874357910e+003;3.7879487305e+003;3.7074357910e+003;3.7584614258e+003;3.7951281738e+003;3.7747436523e+003;3.7644870605e+003;
8.9843750000e-001;3.8476923828e+003;3.9015385742e+003;3.7656411133e+003;3.7950000000e+003;3.7848718262e+003;3.8057692871e+003;3.7925642090e+003;3.7956411133e+003;3.7970512695e+003;3.6911538086e+003;3.7033332520e+003;3.7928205566e+003;3.7965385742e+003;3.7638461914e+003;
9.0625000000e-001;3.8410256348e+003;3.8525642090e+003;3.7752563477e+003;3.8106411133e+003;3.7501281738e+003;3.7948718262e+003;3.7765385742e+003;3.7719230957e+003;3.7712819824e+003;3.6791025391e+003;3.7174357910e+003;3.7860256348e+003;3.7775642090e+003;3.7488461914e+003;
9.1406250000e-001;3.8276923828e+003;3.8115385742e+003;3.7757692871e+003;3.7487180176e+003;3.7229487305e+003;3.7680769043e+003;3.7508974609e+003;3.7391025391e+003;3.7347436523e+003;3.6570512695e+003;3.6897436523e+003;3.7491025391e+003;3.7551281738e+003;3.7193588867e+003;
9.2187500000e-001;3.9233332520e+003;3.9398718262e+003;3.8471794434e+003;3.8234614258e+003;3.8694870605e+003;3.8347436523e+003;3.8270512695e+003;3.8298718262e+003;3.8282050781e+003;3.7402563477e+003;3.7657692871e+003;3.8407692871e+003;3.8466667480e+003;3.8202563477e+003;
9.2968750000e-001;3.9042307129e+003;3.9334614258e+003;3.8114101563e+003;3.8576923828e+003;3.8508974609e+003;3.8267949219e+003;3.8158974609e+003;3.8196154785e+003;3.8203845215e+003;3.7253845215e+003;3.7639743652e+003;3.8311538086e+003;3.8338461914e+003;3.8056411133e+003;
9.3750000000e-001;3.8579487305e+003;3.8869230957e+003;3.7600000000e+003;3.8380769043e+003;3.7330769043e+003;3.7967949219e+003;3.7805129395e+003;3.7661538086e+003;3.7725642090e+003;3.6714101563e+003;3.7003845215e+003;3.7734614258e+003;3.8030769043e+003;3.7458974609e+003;
9.4531250000e-001;3.8742307129e+003;3.8956411133e+003;3.7926923828e+003;3.8085898438e+003;3.6958974609e+003;3.8079487305e+003;3.7910256348e+003;3.7726923828e+003;3.7807692871e+003;3.6796154785e+003;3.6732050781e+003;3.7875642090e+003;3.8198718262e+003;3.7592307129e+003;
9.5312500000e-001;3.8329487305e+003;3.8416667480e+003;3.7833332520e+003;3.7324357910e+003;3.5873076172e+003;3.7680769043e+003;3.7469230957e+003;3.7276923828e+003;3.7251281738e+003;3.6438461914e+003;3.6258974609e+003;3.7830769043e+003;3.7402563477e+003;3.7425642090e+003;
9.6093750000e-001;3.8448718262e+003;3.8920512695e+003;3.7707692871e+003;3.8064101563e+003;3.6420512695e+003;3.7828205566e+003;3.7617949219e+003;3.7425642090e+003;3.7397436523e+003;3.6705129395e+003;3.6919230957e+003;3.7860256348e+003;3.7579487305e+003;3.7551281738e+003;
9.6875000000e-001;3.8937180176e+003;3.9967949219e+003;3.7919230957e+003;3.9119230957e+003;3.7478205566e+003;3.8273076172e+003;3.8075642090e+003;3.7944870605e+003;3.7962819824e+003;3.7378205566e+003;3.7737180176e+003;3.8126923828e+003;3.8265385742e+003;3.7970512695e+003;
9.7656250000e-001;3.9270512695e+003;4.0771794434e+003;3.8130769043e+003;3.9675642090e+003;3.8183332520e+003;3.8547436523e+003;3.8356411133e+003;3.8315385742e+003;3.8400000000e+003;3.7846154785e+003;3.7985898438e+003;3.8276923828e+003;3.8741025391e+003;3.8228205566e+003;
9.8437500000e-001;3.8267949219e+003;3.9438461914e+003;3.7993588867e+003;3.6982050781e+003;3.5719230957e+003;3.7758974609e+003;3.7588461914e+003;3.7274357910e+003;3.7220512695e+003;3.6242307129e+003;3.6797436523e+003;3.7820512695e+003;3.6750000000e+003;3.7623076172e+003;
9.9218750000e-001;3.8958974609e+003;4.0383332520e+003;3.8757692871e+003;3.7635898438e+003;3.6597436523e+003;3.8365385742e+003;3.8226923828e+003;3.7994870605e+003;3.7883332520e+003;3.7042307129e+003;3.7507692871e+003;3.8578205566e+003;3.7653845215e+003;3.8375642090e+003;
1.0000000000e+000;3.9556411133e+003;4.2541025391e+003;3.9132050781e+003;3.9562819824e+003;3.9116667480e+003;3.8838461914e+003;3.8779487305e+003;3.8901281738e+003;3.8914101563e+003;3.8256411133e+003;3.6558974609e+003;3.9288461914e+003;3.9153845215e+003;3.8776923828e+003;
1.0078125000e+000;3.8814101563e+003;4.1875639648e+003;3.8487180176e+003;3.8334614258e+003;3.8719230957e+003;3.8306411133e+003;3.8303845215e+003;3.8287180176e+003;3.8258974609e+003;3.7556411133e+003;3.7601281738e+003;3.8178205566e+003;3.8761538086e+003;3.8234614258e+003;
1.0156250000e+000;3.8121794434e+003;4.1205126953e+003;3.7889743652e+003;3.7255129395e+003;3.8161538086e+003;3.7755129395e+003;3.7775642090e+003;3.7691025391e+003;3.7583332520e+003;3.6988461914e+003;3.7229487305e+003;3.7784614258e+003;3.7969230957e+003;3.7803845215e+003;
1.0234375000e+000;3.8258974609e+003;4.1751284180e+003;3.8197436523e+003;3.7882050781e+003;3.9461538086e+003;3.8214101563e+003;3.8102563477e+003;3.7916667480e+003;3.7841025391e+003;3.7320512695e+003;3.6035898438e+003;3.8671794434e+003;3.7201281738e+003;3.7941025391e+003;
1.0312500000e+000;4.0152563477e+003;4.5253847656e+003;3.9650000000e+003;4.1417949219e+003;4.3089741211e+003;3.9869230957e+003;3.9711538086e+003;3.9785898438e+003;3.9816667480e+003;3.9357692871e+003;3.8878205566e+003;3.9510256348e+003;4.0643588867e+003;3.9761538086e+003;
1.0390625000e+000;4.0275642090e+003;4.5508974609e+003;3.9793588867e+003;4.1306411133e+003;4.3411538086e+003;4.0006411133e+003;3.9920512695e+003;4.0020512695e+003;4.0005129395e+003;3.9757692871e+003;3.9133332520e+003;3.9814101563e+003;4.0714101563e+003;4.0025642090e+003;
1.0468750000e+000;3.9210256348e+003;4.3941025391e+003;3.9416667480e+003;3.9805129395e+003;4.2929487305e+003;3.9415385742e+003;3.9387180176e+003;3.9396154785e+003;3.9264101563e+003;3.9233332520e+003;3.7850000000e+003;3.9837180176e+003;3.8733332520e+003;3.8911538086e+003;
1.0546875000e+000;3.9139743652e+003;4.4015385742e+003;3.9337180176e+003;4.0156411133e+003;4.3232050781e+003;3.9397436523e+003;3.9379487305e+003;3.9301281738e+003;3.9185898438e+003;3.9194870605e+003;3.8038461914e+003;3.9538461914e+003;3.9152563477e+003;3.8775642090e+003;
1.0625000000e+000;3.9641025391e+003;4.4957690430e+003;3.9597436523e+003;4.0988461914e+003;4.3993588867e+003;3.9948718262e+003;3.9957692871e+003;3.9769230957e+003;3.9680769043e+003;3.9858974609e+003;3.8556411133e+003;3.9619230957e+003;4.0552563477e+003;3.9476923828e+003;
1.0703125000e+000;3.9694870605e+003;4.4965385742e+003;3.9705129395e+003;4.0635898438e+003;4.3988461914e+003;4.0047436523e+003;4.0023076172e+003;3.9875642090e+003;3.9771794434e+003;3.9920512695e+003;3.8229487305e+003;3.9855129395e+003;4.0307692871e+003;3.9680769043e+003;
1.0781250000e+000;3.9700000000e+003;4.4739741211e+003;3.9894870605e+003;4.0091025391e+003;4.4088461914e+003;4.0023076172e+003;3.9953845215e+003;3.9896154785e+003;3.9775642090e+003;3.9847436523e+003;3.7903845215e+003;4.0115385742e+003;3.9683332520e+003;3.9717949219e+003;
1.0859375000e+000;4.0525642090e+003;4.5326923828e+003;4.0878205566e+003;4.0884614258e+003;4.6006411133e+003;4.0544870605e+003;4.0484614258e+003;4.0584614258e+003;4.0520512695e+003;4.0760256348e+003;3.8942307129e+003;4.1029487305e+003;4.0048718262e+003;4.0412819824e+003;
1.0937500000e+000;4.0934614258e+003;4.5966665039e+003;4.1143588867e+003;4.1993588867e+003;4.7173076172e+003;4.0893588867e+003;4.0880769043e+003;4.0978203125e+003;4.0991025391e+003;4.1520512695e+003;3.9810256348e+003;4.1373076172e+003;4.0938461914e+003;4.0884614258e+003;
1.1015625000e+000;4.0766667480e+003;4.6106411133e+003;4.0852563477e+003;4.2517949219e+003;4.7584614258e+003;4.0826923828e+003;4.0850000000e+003;4.0852563477e+003;4.0946154785e+003;4.1785898438e+003;4.0110256348e+003;4.1175639648e+003;4.1356411133e+003;4.0826923828e+003;
1.1093750000e+000;3.9485898438e+003;4.5207690430e+003;3.9933332520e+003;4.0646154785e+003;4.7451284180e+003;4.0246154785e+003;4.0096154785e+003;3.9798718262e+003;4.0032050781e+003;4.1078203125e+003;3.9521794434e+003;3.9775642090e+003;4.0367949219e+003;3.9246154785e+003;
1.1171875000e+000;3.9293588867e+003;4.5375639648e+003;3.9570512695e+003;4.1060258789e+003;4.7543588867e+003;4.0247436523e+003;4.0020512695e+003;3.9750000000e+003;3.9993588867e+003;4.1203847656e+003;3.9956411133e+003;3.9510256348e+003;4.0701281738e+003;3.9288461914e+003;
1.1250000000e+000;3.9815385742e+003;4.5946152344e+003;4.0273076172e+003;4.2208974609e+003;4.8585898438e+003;4.0537180176e+003;4.0339743652e+003;4.0011538086e+003;4.0293588867e+003;4.2194873047e+003;4.0147436523e+003;4.0483332520e+003;4.0807692871e+003;4.0078205566e+003;
1.1328125000e+000;3.9671794434e+003;4.4897436523e+003;4.0150000000e+003;4.1794873047e+003;4.8470512695e+003;4.0105129395e+003;4.0076923828e+003;3.9778205566e+003;3.9973076172e+003;4.2057690430e+003;3.8941025391e+003;4.0429487305e+003;4.0114101563e+003;3.9614101563e+003;
1.1406250000e+000;3.9860256348e+003;4.5306411133e+003;4.0265385742e+003;4.2241025391e+003;4.8706411133e+003;4.0512819824e+003;4.0471794434e+003;4.0148718262e+003;4.0360256348e+003;4.2347436523e+003;3.9567949219e+003;4.0429487305e+003;4.0941025391e+003;3.9782050781e+003;
1.1484375000e+000;4.0902563477e+003;4.6864101563e+003;4.1797436523e+003;4.2506411133e+003;5.0003847656e+003;4.1732050781e+003;4.1639741211e+003;4.1441025391e+003;4.1692309570e+003;4.3971796875e+003;4.2085898438e+003;4.1646152344e+003;4.2621796875e+003;4.0955129395e+003;
1.1562500000e+000;4.0306411133e+003;4.5930771484e+003;4.0992309570e+003;4.2298715820e+003;4.8870512695e+003;4.1202563477e+003;4.1101284180e+003;4.0676923828e+003;4.0782050781e+003;4.3928203125e+003;4.1393588867e+003;4.0941025391e+003;4.1739741211e+003;4.0623076172e+003;
1.1640625000e+000;4.0220512695e+003;4.5883334961e+003;4.0800000000e+003;4.2501284180e+003;4.8633334961e+003;4.1246152344e+003;4.1098715820e+003;4.0612819824e+003;4.0665385742e+003;4.4039741211e+003;4.1457690430e+003;4.0862819824e+003;4.1723076172e+003;4.0791025391e+003;
1.1718750000e+000;4.0112819824e+003;4.5943588867e+003;4.0703845215e+003;4.2500000000e+003;4.8601284180e+003;4.1250000000e+003;4.1067949219e+003;4.0564101563e+003;4.0582050781e+003;4.4102563477e+003;4.1437177734e+003;4.0974360352e+003;4.1560258789e+003;4.0958974609e+003;
1.1796875000e+000;4.0551281738e+003;4.6720512695e+003;4.1394873047e+003;4.2960258789e+003;4.9606411133e+003;4.1628203125e+003;4.1501284180e+003;4.1155126953e+003;4.1200000000e+003;4.4639741211e+003;4.1785898438e+003;4.1848715820e+003;4.1796152344e+003;4.1521796875e+003;
1.1875000000e+000;4.0083332520e+003;4.5574360352e+003;4.1285898438e+003;4.2519228516e+003;4.8496152344e+003;4.1239741211e+003;4.1130771484e+003;4.0850000000e+003;4.0928205566e+003;4.4178203125e+003;4.1912822266e+003;4.0557692871e+003;4.2214101563e+003;4.0443588867e+003;
1.1953125000e+000;3.9647436523e+003;4.4991025391e+003;4.0828205566e+003;4.1860258789e+003;4.7829487305e+003;4.0874357910e+003;4.0747436523e+003;4.0352563477e+003;4.0389743652e+003;4.3753847656e+003;4.1121796875e+003;4.0193588867e+003;4.1758974609e+003;4.0079487305e+003;
1.2031250000e+000;3.9824357910e+003;4.5302563477e+003;4.0923076172e+003;4.1782050781e+003;4.8076923828e+003;4.1014101563e+003;4.0897436523e+003;4.0467949219e+003;4.0474357910e+003;4.4042309570e+003;4.0797436523e+003;4.0758974609e+003;4.1610258789e+003;4.0561538086e+003;
1.2109375000e+000;4.0664101563e+003;4.6748715820e+003;4.1715385742e+003;4.2592309570e+003;4.9326923828e+003;4.1708974609e+003;4.1652563477e+003;4.1421796875e+003;4.1443588867e+003;4.5480771484e+003;4.1948715820e+003;4.2291025391e+003;4.1857690430e+003;4.2211538086e+003;
1.2187500000e+000;4.0276923828e+003;4.6374360352e+003;4.1425639648e+003;4.2406411133e+003;4.8860258789e+003;4.1376923828e+003;4.1328203125e+003;4.1124360352e+003;4.1157690430e+003;4.5348715820e+003;4.2291025391e+003;4.1842309570e+003;4.1596152344e+003;4.2011538086e+003;
1.2265625000e+000;3.9646154785e+003;4.5529487305e+003;4.0883332520e+003;4.1948715820e+003;4.8003847656e+003;4.0834614258e+003;4.0787180176e+003;4.0487180176e+003;4.0514101563e+003;4.4794873047e+003;4.2123076172e+003;4.0988461914e+003;4.1301284180e+003;4.1366665039e+003;
1.2343750000e+000;4.1603847656e+003;4.7707690430e+003;4.2730771484e+003;4.4593588867e+003;5.0312822266e+003;4.2683334961e+003;4.2669228516e+003;4.2588461914e+003;4.2675639648e+003;4.6757690430e+003;4.3376923828e+003;4.3266665039e+003;4.2833334961e+003;4.3293588867e+003;
1.2421875000e+000;4.1414101563e+003;4.7241025391e+003;4.2729487305e+003;4.4150000000e+003;4.9594873047e+003;4.2612822266e+003;4.2575639648e+003;4.2410258789e+003;4.2485898438e+003;4.6620512695e+003;4.3388461914e+003;4.2989741211e+003;4.2712822266e+003;4.3212822266e+003;
1.2500000000e+000;4.1478203125e+003;4.7089741211e+003;4.2910258789e+003;4.3575639648e+003;4.9029487305e+003;4.2753847656e+003;4.2715385742e+003;4.2271796875e+003;4.2235898438e+003;4.7450000000e+003;4.4020512695e+003;4.2757690430e+003;4.4117949219e+003;4.3762822266e+003;
1.2578125000e+000;4.2451284180e+003;4.8466665039e+003;4.3819228516e+003;4.4870512695e+003;5.0770512695e+003;4.3570512695e+003;4.3630771484e+003;4.3384614258e+003;4.3351284180e+003;4.8444873047e+003;4.4943588867e+003;4.3883334961e+003;4.4266665039e+003;4.4771796875e+003;
1.2656250000e+000;4.2455126953e+003;4.8567949219e+003;4.3921796875e+003;4.4948715820e+003;5.0741025391e+003;4.3720512695e+003;4.3748715820e+003;4.3594873047e+003;4.3579487305e+003;4.8317949219e+003;4.4874360352e+003;4.4170512695e+003;4.4112822266e+003;4.4996152344e+003;
1.2734375000e+000;4.1506411133e+003;4.7248715820e+003;4.3176923828e+003;4.3860258789e+003;4.8933334961e+003;4.2810258789e+003;4.2770512695e+003;4.2512822266e+003;4.2514101563e+003;4.7426923828e+003;4.4693588867e+003;4.3341025391e+003;4.3417949219e+003;4.4737177734e+003;
1.2812500000e+000;4.1753847656e+003;4.7414101563e+003;4.3420512695e+003;4.4050000000e+003;4.9020512695e+003;4.3043588867e+003;4.3017949219e+003;4.2680771484e+003;4.2685898438e+003;4.7933334961e+003;4.5292309570e+003;4.3287177734e+003;4.3943588867e+003;4.5075639648e+003;
1.2890625000e+000;4.2123076172e+003;4.8134614258e+003;4.3733334961e+003;4.4814101563e+003;4.9812822266e+003;4.3551284180e+003;4.3573076172e+003;4.3287177734e+003;4.3308974609e+003;4.8826923828e+003;4.5670512695e+003;4.3532050781e+003;4.4850000000e+003;4.5821796875e+003;
1.2968750000e+000;4.1966665039e+003;4.8193588867e+003;4.3541025391e+003;4.4960258789e+003;4.9901284180e+003;4.3397436523e+003;4.3464101563e+003;4.3235898438e+003;4.3248715820e+003;4.8719228516e+003;4.5234614258e+003;4.3660258789e+003;4.4600000000e+003;4.5966665039e+003;
1.3046875000e+000;4.2214101563e+003;4.7980771484e+003;4.3844873047e+003;4.4826923828e+003;4.9398715820e+003;4.3548715820e+003;4.3553847656e+003;4.3307690430e+003;4.3250000000e+003;4.8616665039e+003;4.4965385742e+003;4.4247436523e+003;4.4055126953e+003;4.6526923828e+003;
1.3125000000e+000;4.2100000000e+003;4.7698715820e+003;4.3734614258e+003;4.4583334961e+003;4.9153847656e+003;4.3580771484e+003;4.3494873047e+003;4.3247436523e+003;4.3202563477e+003;4.8550000000e+003;4.4785898438e+003;4.3938461914e+003;4.4173076172e+003;4.6420512695e+003;
1.3203125000e+000;4.1223076172e+003;4.7239741211e+003;4.2723076172e+003;4.4189741211e+003;4.8876923828e+003;4.2976923828e+003;4.2900000000e+003;4.2691025391e+003;4.2723076172e+003;4.8058974609e+003;4.4416665039e+003;4.2853847656e+003;4.4093588867e+003;4.6051284180e+003;
1.3281250000e+000;4.0961538086e+003;4.7247436523e+003;4.2450000000e+003;4.4096152344e+003;4.8838461914e+003;4.2698715820e+003;4.2715385742e+003;4.2538461914e+003;4.2587177734e+003;4.7969228516e+003;4.4769228516e+003;4.2716665039e+003;4.3887177734e+003;4.6220512695e+003;
1.3359375000e+000;4.0494870605e+003;4.6079487305e+003;4.2346152344e+003;4.2824360352e+003;4.7579487305e+003;4.1925639648e+003;4.1944873047e+003;4.1816665039e+003;4.1774360352e+003;4.7000000000e+003;4.4615385742e+003;4.2621796875e+003;4.2246152344e+003;4.6106411133e+003;
1.3437500000e+000;4.0465385742e+003;4.5814101563e+003;4.2264101563e+003;4.2847436523e+003;4.7503847656e+003;4.1821796875e+003;4.1801284180e+003;4.1651284180e+003;4.1625639648e+003;4.6769228516e+003;4.4243588867e+003;4.2355126953e+003;4.2215385742e+003;4.5870512695e+003;
1.3515625000e+000;4.0615385742e+003;4.5982050781e+003;4.2230771484e+003;4.3396152344e+003;4.7815385742e+003;4.1932050781e+003;4.1924360352e+003;4.1760258789e+003;4.1778203125e+003;4.7003847656e+003;4.4167949219e+003;4.2225639648e+003;4.2643588867e+003;4.5942309570e+003;
1.3593750000e+000;3.9614101563e+003;4.4750000000e+003;4.1391025391e+003;4.2093588867e+003;4.6494873047e+003;4.1162822266e+003;4.1217949219e+003;4.0973076172e+003;4.0955129395e+003;4.5921796875e+003;4.2358974609e+003;4.1592309570e+003;4.1680771484e+003;4.6339741211e+003;
1.3671875000e+000;4.0376923828e+003;4.5648715820e+003;4.2038461914e+003;4.2832050781e+003;4.7398715820e+003;4.1700000000e+003;4.1717949219e+003;4.1605126953e+003;4.1664101563e+003;4.6569228516e+003;4.3655126953e+003;4.2196152344e+003;4.2493588867e+003;4.7058974609e+003;
1.3750000000e+000;4.0188461914e+003;4.5450000000e+003;4.1697436523e+003;4.2851284180e+003;4.6491025391e+003;4.1557690430e+003;4.1457690430e+003;4.1223076172e+003;4.1276923828e+003;4.6902563477e+003;4.4615385742e+003;4.1605126953e+003;4.2365385742e+003;4.7000000000e+003;
1.3828125000e+000;3.9956411133e+003;4.4906411133e+003;4.1603847656e+003;4.2419228516e+003;4.6011538086e+003;4.1444873047e+003;4.1373076172e+003;4.0985898438e+003;4.0979487305e+003;4.6606411133e+003;4.4083334961e+003;4.1374360352e+003;4.2094873047e+003;4.6933334961e+003;
1.3906250000e+000;4.0389743652e+003;4.5197436523e+003;4.2120512695e+003;4.2889741211e+003;4.6714101563e+003;4.1782050781e+003;4.1775639648e+003;4.1475639648e+003;4.1467949219e+003;4.6671796875e+003;4.3844873047e+003;4.1864101563e+003;4.2623076172e+003;4.7600000000e+003;
1.3984375000e+000;4.0280769043e+003;4.5633334961e+003;4.1533334961e+003;4.3453847656e+003;4.6478203125e+003;4.1657690430e+003;4.1630771484e+003;4.1419228516e+003;4.1473076172e+003;4.6928203125e+003;4.4442309570e+003;4.1660258789e+003;4.2757690430e+003;4.7943588867e+003;
1.4062500000e+000;4.0246154785e+003;4.5298715820e+003;4.1639741211e+003;4.3178203125e+003;4.6248715820e+003;4.1687177734e+003;4.1716665039e+003;4.1484614258e+003;4.1543588867e+003;4.6812822266e+003;4.4180771484e+003;4.1806411133e+003;4.2511538086e+003;4.8119228516e+003;
1.4140625000e+000;4.0071794434e+003;4.4614101563e+003;4.1710258789e+003;4.2474360352e+003;4.5858974609e+003;4.1476923828e+003;4.1635898438e+003;4.1417949219e+003;4.1512822266e+003;4.5843588867e+003;4.3117949219e+003;4.1862822266e+003;4.1603847656e+003;4.8135898438e+003;
1.4218750000e+000;4.0415385742e+003;4.4975639648e+003;4.1967949219e+003;4.2783334961e+003;4.6133334961e+003;4.1729487305e+003;4.1885898438e+003;4.1692309570e+003;4.1806411133e+003;4.5929487305e+003;4.3344873047e+003;4.2098715820e+003;4.1766665039e+003;4.8461538086e+003;
1.4296875000e+000;4.0925642090e+003;4.5703847656e+003;4.2165385742e+003;4.3674360352e+003;4.6447436523e+003;4.2178203125e+003;4.2129487305e+003;4.2010258789e+003;4.2087177734e+003;4.7244873047e+003;4.5271796875e+003;4.2006411133e+003;4.3332050781e+003;4.9105126953e+003;
1.4375000000e+000;4.0516667480e+003;4.5223076172e+003;4.1791025391e+003;4.3283334961e+003;4.6043588867e+003;4.1779487305e+003;4.1741025391e+003;4.1606411133e+003;4.1678203125e+003;4.6966665039e+003;4.5030771484e+003;4.1524360352e+003;4.3206411133e+003;4.8793588867e+003;
1.4453125000e+000;4.0367949219e+003;4.4816665039e+003;4.1714101563e+003;4.2926923828e+003;4.5610258789e+003;4.1538461914e+003;4.1579487305e+003;4.1455126953e+003;4.1560258789e+003;4.6301284180e+003;4.4248715820e+003;4.1541025391e+003;4.2584614258e+003;4.8807690430e+003;
1.4531250000e+000;4.0367949219e+003;4.4669228516e+003;4.1733334961e+003;4.2746152344e+003;4.5269228516e+003;4.1506411133e+003;4.1528203125e+003;4.1402563477e+003;4.1516665039e+003;4.5958974609e+003;4.3930771484e+003;4.1680771484e+003;4.2137177734e+003;4.8875639648e+003;
1.4609375000e+000;4.0319230957e+003;4.4478203125e+003;4.1612822266e+003;4.2385898438e+003;4.4732050781e+003;4.1388461914e+003;4.1326923828e+003;4.1005126953e+003;4.1133334961e+003;4.5630771484e+003;4.4010258789e+003;4.1428203125e+003;4.2148715820e+003;4.8873076172e+003;
1.4687500000e+000;4.0808974609e+003;4.5028203125e+003;4.2070512695e+003;4.2928203125e+003;4.5293588867e+003;4.1841025391e+003;4.1793588867e+003;4.1488461914e+003;4.1632050781e+003;4.6133334961e+003;4.4533334961e+003;4.1824360352e+003;4.2869228516e+003;4.9392309570e+003;
1.4765625000e+000;4.1094873047e+003;4.5366665039e+003;4.2348715820e+003;4.3329487305e+003;4.5593588867e+003;4.2130771484e+003;4.2093588867e+003;4.1853847656e+003;4.1998715820e+003;4.6379487305e+003;4.4782050781e+003;4.2134614258e+003;4.3230771484e+003;4.9746152344e+003;
1.4843750000e+000;4.0794870605e+003;4.4588461914e+003;4.2137177734e+003;4.2850000000e+003;4.4280771484e+003;4.1952563477e+003;4.1939741211e+003;4.1689741211e+003;4.1760258789e+003;4.5232050781e+003;4.4292309570e+003;4.2034614258e+003;4.2480771484e+003;4.9510258789e+003;
1.4921875000e+000;4.0939743652e+003;4.4632050781e+003;4.2285898438e+003;4.2982050781e+003;4.4294873047e+003;4.2062822266e+003;4.2067949219e+003;4.1892309570e+003;4.1947436523e+003;4.5242309570e+003;4.4487177734e+003;4.2137177734e+003;4.2639741211e+003;4.9647436523e+003;
1.5000000000e+000;4.0847436523e+003;4.4385898438e+003;4.2087177734e+003;4.3042309570e+003;4.3682050781e+003;4.1910258789e+003;4.1964101563e+003;4.1908974609e+003;4.1961538086e+003;4.4757690430e+003;4.4582050781e+003;4.1960258789e+003;4.2576923828e+003;4.9470512695e+003;
1.5078125000e+000;4.0587180176e+003;4.3756411133e+003;4.1903847656e+003;4.2426923828e+003;4.2900000000e+003;4.1644873047e+003;4.1671796875e+003;4.1537177734e+003;4.1614101563e+003;4.3843588867e+003;4.3924360352e+003;4.1716665039e+003;4.2012822266e+003;4.9051284180e+003;
1.5156250000e+000;4.0851281738e+003;4.3947436523e+003;4.2121796875e+003;4.2720512695e+003;4.3019228516e+003;4.1883334961e+003;4.1891025391e+003;4.1705126953e+003;4.1787177734e+003;4.3879487305e+003;4.4092309570e+003;4.1916665039e+003;4.2260258789e+003;4.9242309570e+003;
1.5234375000e+000;4.2182050781e+003;4.5091025391e+003;4.3271796875e+003;4.4170512695e+003;4.4014101563e+003;4.3083334961e+003;4.3044873047e+003;4.2992309570e+003;4.3016665039e+003;4.4857690430e+003;4.5521796875e+003;4.3215385742e+003;4.3901284180e+003;5.0497436523e+003;
1.5312500000e+000;4.1993588867e+003;4.4785898438e+003;4.3080771484e+003;4.3894873047e+003;4.3753847656e+003;4.2888461914e+003;4.2866665039e+003;4.2811538086e+003;4.2820512695e+003;4.4520512695e+003;4.5287177734e+003;4.3079487305e+003;4.3760258789e+003;5.0296152344e+003;
1.5390625000e+000;4.1991025391e+003;4.4447436523e+003;4.3091025391e+003;4.3547436523e+003;4.3508974609e+003;4.2817949219e+003;4.2882050781e+003;4.2721796875e+003;4.2767949219e+003;4.4123076172e+003;4.5088461914e+003;4.3130771484e+003;4.3603847656e+003;5.0220512695e+003;
1.5468750000e+000;4.2192309570e+003;4.4485898438e+003;4.3296152344e+003;4.3635898438e+003;4.3539741211e+003;4.2974360352e+003;4.3050000000e+003;4.2889741211e+003;4.2955126953e+003;4.4170512695e+003;4.5260258789e+003;4.3339741211e+003;4.3725639648e+003;5.0396152344e+003;
1.5546875000e+000;4.1762822266e+003;4.3816665039e+003;4.2873076172e+003;4.3242309570e+003;4.2748715820e+003;4.2602563477e+003;4.2621796875e+003;4.2546152344e+003;4.2520512695e+003;4.3323076172e+003;4.4893588867e+003;4.2932050781e+003;4.3405126953e+003;4.9928203125e+003;
1.5625000000e+000;4.1871796875e+003;4.3867949219e+003;4.2989741211e+003;4.3283334961e+003;4.2796152344e+003;4.2725639648e+003;4.2773076172e+003;4.2698715820e+003;4.2661538086e+003;4.3288461914e+003;4.5014101563e+003;4.3064101563e+003;4.3542309570e+003;5.0016665039e+003;
1.5703125000e+000;4.1962822266e+003;4.3737177734e+003;4.3116665039e+003;4.3200000000e+003;4.2648715820e+003;4.2820512695e+003;4.2924360352e+003;4.2862822266e+003;4.2857690430e+003;4.3155126953e+003;4.5061538086e+003;4.3225639648e+003;4.3512822266e+003;5.0069228516e+003;
1.5781250000e+000;4.1724360352e+003;4.3344873047e+003;4.2860258789e+003;4.2925639648e+003;4.2243588867e+003;4.2574360352e+003;4.2687177734e+003;4.2611538086e+003;4.2614101563e+003;4.2766665039e+003;4.4732050781e+003;4.2956411133e+003;4.3150000000e+003;4.9782050781e+003;
1.5859375000e+000;4.2400000000e+003;4.3829487305e+003;4.3370512695e+003;4.3570512695e+003;4.2741025391e+003;4.3119228516e+003;4.3205126953e+003;4.3242309570e+003;4.3230771484e+003;4.3055126953e+003;4.5216665039e+003;4.3378203125e+003;4.3737177734e+003;5.0266665039e+003;
1.5937500000e+000;4.2492309570e+003;4.3974360352e+003;4.3450000000e+003;4.3673076172e+003;4.2851284180e+003;4.3223076172e+003;4.3289741211e+003;4.3402563477e+003;4.3401284180e+003;4.3123076172e+003;4.5334614258e+003;4.3512822266e+003;4.3914101563e+003;5.0373076172e+003;
1.6015625000e+000;4.2202563477e+003;4.3712822266e+003;4.3153847656e+003;4.3366665039e+003;4.2553847656e+003;4.2978203125e+003;4.3043588867e+003;4.3169228516e+003;4.3178203125e+003;4.2803847656e+003;4.5067949219e+003;4.3294873047e+003;4.3707690430e+003;5.0112822266e+003;
1.6093750000e+000;4.1876923828e+003;4.3346152344e+003;4.2806411133e+003;4.2965385742e+003;4.2187177734e+003;4.2682050781e+003;4.2771796875e+003;4.2850000000e+003;4.2870512695e+003;4.2423076172e+003;4.4757690430e+003;4.2993588867e+003;4.3452563477e+003;4.9796152344e+003;
1.6171875000e+000;4.2225639648e+003;4.3083334961e+003;4.3187177734e+003;4.3000000000e+003;4.2078203125e+003;4.2882050781e+003;4.2952563477e+003;4.3033334961e+003;4.3071796875e+003;4.2434614258e+003;4.5196152344e+003;4.3232050781e+003;4.3689741211e+003;5.0012822266e+003;
1.6250000000e+000;4.2351284180e+003;4.3115385742e+003;4.3332050781e+003;4.3051284180e+003;4.2092309570e+003;4.2974360352e+003;4.3028203125e+003;4.3108974609e+003;4.3126923828e+003;4.2439741211e+003;4.5323076172e+003;4.3394873047e+003;4.3723076172e+003;5.0108974609e+003;
1.6328125000e+000;4.2814101563e+003;4.3494873047e+003;4.3684614258e+003;4.3308974609e+003;4.2517949219e+003;4.3374360352e+003;4.3493588867e+003;4.3587177734e+003;4.3716665039e+003;4.2947436523e+003;4.5788461914e+003;4.3926923828e+003;4.4401284180e+003;5.0616665039e+003;
1.6406250000e+000;4.2379487305e+003;4.2801284180e+003;4.3187177734e+003;4.3193588867e+003;4.1952563477e+003;4.2988461914e+003;4.3055126953e+003;4.3052563477e+003;4.3289741211e+003;4.2257690430e+003;4.5334614258e+003;4.3379487305e+003;4.3870512695e+003;5.0028203125e+003;
1.6484375000e+000;4.2805126953e+003;4.3208974609e+003;4.3637177734e+003;4.3585898438e+003;4.2334614258e+003;4.3420512695e+003;4.3491025391e+003;4.3506411133e+003;4.3712822266e+003;4.2617949219e+003;4.5728203125e+003;4.3826923828e+003;4.4314101563e+003;5.0415385742e+003;
1.6562500000e+000;4.2662822266e+003;4.2858974609e+003;4.3612822266e+003;4.3058974609e+003;4.2062822266e+003;4.3315385742e+003;4.3460258789e+003;4.3496152344e+003;4.3684614258e+003;4.2433334961e+003;4.5320512695e+003;4.3880771484e+003;4.4164101563e+003;5.0265385742e+003;
1.6640625000e+000;4.3188461914e+003;4.3288461914e+003;4.4030771484e+003;4.3907690430e+003;4.2616665039e+003;4.3814101563e+003;4.3852563477e+003;4.3943588867e+003;4.4167949219e+003;4.3061538086e+003;4.6371796875e+003;4.4171796875e+003;4.4825639648e+003;5.0656411133e+003;
1.6718750000e+000;4.2966665039e+003;4.3110258789e+003;4.3826923828e+003;4.3757690430e+003;4.2388461914e+003;4.3674360352e+003;4.3706411133e+003;4.3794873047e+003;4.3993588867e+003;4.2885898438e+003;4.6269228516e+003;4.3950000000e+003;4.4687177734e+003;5.0407690430e+003;
1.6796875000e+000;4.2725639648e+003;4.2898715820e+003;4.3693588867e+003;4.3370512695e+003;4.2057690430e+003;4.3473076172e+003;4.3632050781e+003;4.3642309570e+003;4.3896152344e+003;4.2624360352e+003;4.5787177734e+003;4.3874360352e+003;4.4521796875e+003;5.0137177734e+003;
1.6875000000e+000;4.2857690430e+003;4.2966665039e+003;4.3846152344e+003;4.3469228516e+003;4.2197436523e+003;4.3535898438e+003;4.3689741211e+003;4.3771796875e+003;4.4044873047e+003;4.2787177734e+003;4.5875639648e+003;4.4030771484e+003;4.4714101563e+003;5.0269228516e+003;
1.6953125000e+000;4.2447436523e+003;4.2358974609e+003;4.3461538086e+003;4.3044873047e+003;4.1757690430e+003;4.3078203125e+003;4.3206411133e+003;4.3348715820e+003;4.3588461914e+003;4.2367949219e+003;4.5502563477e+003;4.3532050781e+003;4.4397436523e+003;4.9803847656e+003;
1.7031250000e+000;4.2321796875e+003;4.2147436523e+003;4.3317949219e+003;4.2902563477e+003;4.1546152344e+003;4.2953847656e+003;4.3098715820e+003;4.3194873047e+003;4.3428203125e+003;4.2166665039e+003;4.5378203125e+003;4.3353847656e+003;4.4210258789e+003;4.9632050781e+003;
1.7109375000e+000;4.2000000000e+003;4.1728203125e+003;4.2874360352e+003;4.2650000000e+003;4.0991025391e+003;4.2607690430e+003;4.2748715820e+003;4.2755126953e+003;4.3041025391e+003;4.1632050781e+003;4.4819228516e+003;4.3129487305e+003;4.3503847656e+003;4.9193588867e+003;
1.7187500000e+000;4.1720512695e+003;4.1414101563e+003;4.2580771484e+003;4.2365385742e+003;4.0717949219e+003;4.2307690430e+003;4.2447436523e+003;4.2455126953e+003;4.2729487305e+003;4.1297436523e+003;4.4441025391e+003;4.2862822266e+003;4.3152563477e+003;4.8871796875e+003;
1.7265625000e+000;4.1735898438e+003;4.1373076172e+003;4.2608974609e+003;4.2279487305e+003;4.0738461914e+003;4.2288461914e+003;4.2452563477e+003;4.2482050781e+003;4.2741025391e+003;4.1282050781e+003;4.4423076172e+003;4.2860258789e+003;4.3107690430e+003;4.8856411133e+003;
1.7343750000e+000;4.2001284180e+003;4.1574360352e+003;4.2908974609e+003;4.2394873047e+003;4.0980771484e+003;4.2533334961e+003;4.2719228516e+003;4.2792309570e+003;4.3046152344e+003;4.1564101563e+003;4.4766665039e+003;4.3108974609e+003;4.3316665039e+003;4.9106411133e+003;
1.7421875000e+000;4.1755126953e+003;4.1296152344e+003;4.2597436523e+003;4.2308974609e+003;4.0625642090e+003;4.2419228516e+003;4.2519228516e+003;4.2533334961e+003;4.2801284180e+003;4.1421796875e+003;4.4782050781e+003;4.2708974609e+003;4.3361538086e+003;4.8657690430e+003;
1.7500000000e+000;4.2047436523e+003;4.1597436523e+003;4.2846152344e+003;4.2641025391e+003;4.0898718262e+003;4.2641025391e+003;4.2771796875e+003;4.2787177734e+003;4.3046152344e+003;4.1711538086e+003;4.4921796875e+003;4.2974360352e+003;4.3698715820e+003;4.8879487305e+003;
1.7578125000e+000;4.1880771484e+003;4.1347436523e+003;4.2757690430e+003;4.2296152344e+003;4.0523076172e+003;4.2429487305e+003;4.2543588867e+003;4.2621796875e+003;4.2875639648e+003;4.1420512695e+003;4.4639741211e+003;4.2916665039e+003;4.3319228516e+003;4.8565385742e+003;
1.7656250000e+000;4.2144873047e+003;4.1702563477e+003;4.2941025391e+003;4.2519228516e+003;4.0902563477e+003;4.2675639648e+003;4.2750000000e+003;4.2785898438e+003;4.3047436523e+003;4.1600000000e+003;4.4803847656e+003;4.3130771484e+003;4.4165385742e+003;4.8611538086e+003;
1.7734375000e+000;4.1911538086e+003;4.1423076172e+003;4.2734614258e+003;4.2271796875e+003;4.0592307129e+003;4.2456411133e+003;4.2537177734e+003;4.2569228516e+003;4.2810258789e+003;4.1396152344e+003;4.4548715820e+003;4.2924360352e+003;4.4023076172e+003;4.8332050781e+003;
1.7812500000e+000;4.1275639648e+003;4.0582050781e+003;4.2037177734e+003;4.1539741211e+003;3.9623076172e+003;4.1812822266e+003;4.1889741211e+003;4.1858974609e+003;4.2103847656e+003;4.0603845215e+003;4.3914101563e+003;4.2103847656e+003;4.3126923828e+003;4.7447436523e+003;
1.7890625000e+000;4.1592309570e+003;4.0942307129e+003;4.2366665039e+003;4.1934614258e+003;4.0193588867e+003;4.2042309570e+003;4.2110258789e+003;4.2184614258e+003;4.2462822266e+003;4.1021796875e+003;4.4092309570e+003;4.2365385742e+003;4.3632050781e+003;4.7657690430e+003;
1.7968750000e+000;4.1426923828e+003;4.0688461914e+003;4.2269228516e+003;4.1738461914e+003;3.9996154785e+003;4.1860258789e+003;4.1971796875e+003;4.1988461914e+003;4.2269228516e+003;4.0791025391e+003;4.3857690430e+003;4.2234614258e+003;4.3406411133e+003;4.7467949219e+003;
1.8046875000e+000;4.1397436523e+003;4.0593588867e+003;4.2269228516e+003;4.1671796875e+003;3.9871794434e+003;4.1817949219e+003;4.1964101563e+003;4.1939741211e+003;4.2220512695e+003;4.0698718262e+003;4.3801284180e+003;4.2243588867e+003;4.3275639648e+003;4.7415385742e+003;
1.8125000000e+000;4.1239741211e+003;4.0491025391e+003;4.2032050781e+003;4.1560258789e+003;3.9517949219e+003;4.1679487305e+003;4.1793588867e+003;4.1832050781e+003;4.2087177734e+003;4.0552563477e+003;4.3701284180e+003;4.2094873047e+003;4.3075639648e+003;4.7175639648e+003;
1.8203125000e+000;4.1023076172e+003;4.0344870605e+003;4.1741025391e+003;4.1412822266e+003;3.9271794434e+003;4.1474360352e+003;4.1556411133e+003;4.1621796875e+003;4.1870512695e+003;4.0358974609e+003;4.3493588867e+003;4.1825639648e+003;4.2926923828e+003;4.6882050781e+003;
1.8281250000e+000;4.1208974609e+003;4.0582050781e+003;4.1843588867e+003;4.1591025391e+003;3.9482050781e+003;4.1596152344e+003;4.1689741211e+003;4.1739741211e+003;4.2020512695e+003;4.0556411133e+003;4.3614101563e+003;4.1964101563e+003;4.3134614258e+003;4.6948715820e+003;
1.8359375000e+000;4.1366665039e+003;4.0676923828e+003;4.2039741211e+003;4.1648715820e+003;3.9608974609e+003;4.1720512695e+003;4.1830771484e+003;4.1885898438e+003;4.2178203125e+003;4.0719230957e+003;4.3762822266e+003;4.2187177734e+003;4.3179487305e+003;4.7106411133e+003;
1.8437500000e+000;4.0557692871e+003;3.9606411133e+003;4.1379487305e+003;4.0694870605e+003;3.8556411133e+003;4.0951281738e+003;4.1038461914e+003;4.0974360352e+003;4.1279487305e+003;3.9752563477e+003;4.3029487305e+003;4.1391025391e+003;4.2039741211e+003;4.6153847656e+003;
1.8515625000e+000;4.0746154785e+003;3.9826923828e+003;4.1506411133e+003;4.0974360352e+003;3.8762819824e+003;4.1115385742e+003;4.1187177734e+003;4.1092309570e+003;4.1421796875e+003;3.9906411133e+003;4.3220512695e+003;4.1455126953e+003;4.2271796875e+003;4.6224360352e+003;
1.8593750000e+000;4.1080771484e+003;4.0251281738e+003;4.1753847656e+003;4.1433334961e+003;3.9170512695e+003;4.1416665039e+003;4.1470512695e+003;4.1403847656e+003;4.1746152344e+003;4.0265385742e+003;4.3520512695e+003;4.1703847656e+003;4.2667949219e+003;4.6478203125e+003;
1.8671875000e+000;4.0948718262e+003;4.0188461914e+003;4.1643588867e+003;4.1056411133e+003;3.9061538086e+003;4.1241025391e+003;4.1315385742e+003;4.1325639648e+003;4.1584614258e+003;4.0119230957e+003;4.3216665039e+003;4.1635898438e+003;4.1894873047e+003;4.6161538086e+003;
1.8750000000e+000;4.1061538086e+003;4.0223076172e+003;4.1803847656e+003;4.1144873047e+003;3.9142307129e+003;4.1346152344e+003;4.1401284180e+003;4.1443588867e+003;4.1716665039e+003;4.0251281738e+003;4.3383334961e+003;4.1693588867e+003;4.2025639648e+003;4.6221796875e+003;
1.8828125000e+000;4.1012822266e+003;4.0189743652e+003;4.1598715820e+003;4.1229487305e+003;3.9161538086e+003;4.1310258789e+003;4.1343588867e+003;4.1366665039e+003;4.1650000000e+003;4.0212819824e+003;4.3226923828e+003;4.1628203125e+003;4.1998715820e+003;4.6058974609e+003;
1.8906250000e+000;4.0898718262e+003;4.0012819824e+003;4.1575639648e+003;4.0782050781e+003;3.8867949219e+003;4.1217949219e+003;4.1271796875e+003;4.1267949219e+003;4.1565385742e+003;4.0066667480e+003;4.3130771484e+003;4.1617949219e+003;4.1637177734e+003;4.5800000000e+003;
1.8984375000e+000;4.1003847656e+003;4.0065385742e+003;4.1723076172e+003;4.0865385742e+003;3.8976923828e+003;4.1296152344e+003;4.1366665039e+003;4.1308974609e+003;4.1608974609e+003;4.0129487305e+003;4.3197436523e+003;4.1642309570e+003;4.1751284180e+003;4.5796152344e+003;
1.9062500000e+000;4.2735898438e+003;4.1948715820e+003;4.3332050781e+003;4.3008974609e+003;4.0941025391e+003;4.2887177734e+003;4.2947436523e+003;4.2971796875e+003;4.3275639648e+003;4.1992309570e+003;4.4835898438e+003;4.3230771484e+003;4.3692309570e+003;4.7323076172e+003;
1.9140625000e+000;4.2591025391e+003;4.1912822266e+003;4.3178203125e+003;4.2939741211e+003;4.0821794434e+003;4.2776923828e+003;4.2821796875e+003;4.2887177734e+003;4.3187177734e+003;4.1917949219e+003;4.4728203125e+003;4.3184614258e+003;4.3571796875e+003;4.7187177734e+003;
1.9218750000e+000;4.2151284180e+003;4.1602563477e+003;4.2823076172e+003;4.2282050781e+003;4.0351281738e+003;4.2350000000e+003;4.2451284180e+003;4.2483334961e+003;4.2771796875e+003;4.1517949219e+003;4.4342309570e+003;4.2874360352e+003;4.3183334961e+003;4.6742309570e+003;
1.9296875000e+000;4.2348715820e+003;4.1796152344e+003;4.3073076172e+003;4.2330771484e+003;4.0528205566e+003;4.2500000000e+003;4.2634614258e+003;4.2666665039e+003;4.2953847656e+003;4.1732050781e+003;4.4539741211e+003;4.3066665039e+003;4.3435898438e+003;4.6916665039e+003;
1.9375000000e+000;4.2544873047e+003;4.1833334961e+003;4.3256411133e+003;4.2621796875e+003;4.0610256348e+003;4.2634614258e+003;4.2747436523e+003;4.2810258789e+003;4.3094873047e+003;4.1806411133e+003;4.4785898438e+003;4.3184614258e+003;4.3473076172e+003;4.6901284180e+003;
1.9453125000e+000;4.2733334961e+003;4.2032050781e+003;4.3417949219e+003;4.2844873047e+003;4.0771794434e+003;4.2823076172e+003;4.2935898438e+003;4.2983334961e+003;4.3257690430e+003;4.1943588867e+003;4.5034614258e+003;4.3343588867e+003;4.3573076172e+003;4.7000000000e+003;
1.9531250000e+000;4.3214101563e+003;4.2598715820e+003;4.3929487305e+003;4.3169228516e+003;4.1262822266e+003;4.3292309570e+003;4.3419228516e+003;4.3502563477e+003;4.3730771484e+003;4.2537177734e+003;4.5538461914e+003;4.3806411133e+003;4.4132050781e+003;4.7383334961e+003;
1.9609375000e+000;4.3024360352e+003;4.2408974609e+003;4.3765385742e+003;4.2897436523e+003;4.1080771484e+003;4.3115385742e+003;4.3235898438e+003;4.3321796875e+003;4.3528203125e+003;4.2406411133e+003;4.5252563477e+003;4.3617949219e+003;4.4028203125e+003;4.7160258789e+003;
1.9687500000e+000;4.2602563477e+003;4.1962822266e+003;4.3275639648e+003;4.2614101563e+003;4.0675642090e+003;4.2733334961e+003;4.2865385742e+003;4.2833334961e+003;4.3069228516e+003;4.1910258789e+003;4.4584614258e+003;4.3175639648e+003;4.3565385742e+003;4.6639741211e+003;
1.9765625000e+000;4.2514101563e+003;4.1926923828e+003;4.3174360352e+003;4.2648715820e+003;4.0619230957e+003;4.2689741211e+003;4.2826923828e+003;4.2817949219e+003;4.3053847656e+003;4.1865385742e+003;4.4547436523e+003;4.3116665039e+003;4.3465385742e+003;4.6551284180e+003;
1.9843750000e+000;4.2197436523e+003;4.1652563477e+003;4.2860258789e+003;4.2414101563e+003;4.0324357910e+003;4.2438461914e+003;4.2578203125e+003;4.2588461914e+003;4.2810258789e+003;4.1598715820e+003;4.4269228516e+003;4.2823076172e+003;4.3162822266e+003;4.6215385742e+003;
1.9921875000e+000;4.1935898438e+003;4.1388461914e+003;4.2598715820e+003;4.2138461914e+003;4.0066667480e+003;4.2221796875e+003;4.2371796875e+003;4.2366665039e+003;4.2578203125e+003;4.1347436523e+003;4.3987177734e+003;4.2548715820e+003;4.2914101563e+003;4.5893588867e+003;
2.0000000000e+000;4.2706411133e+003;4.2047436523e+003;4.3430771484e+003;4.2644873047e+003;4.0855129395e+003;4.2994873047e+003;4.3119228516e+003;4.3182050781e+003;4.3442309570e+003;4.2176923828e+003;4.4801284180e+003;4.3416665039e+003;4.3573076172e+003;4.6542309570e+003;
2.0078125000e+000;4.2633334961e+003;4.2071796875e+003;4.3274360352e+003;4.2716665039e+003;4.0814101563e+003;4.2930771484e+003;4.3076923828e+003;4.3162822266e+003;4.3407690430e+003;4.2192309570e+003;4.4696152344e+003;4.3274360352e+003;4.3730771484e+003;4.6376923828e+003;
2.0156250000e+000;4.2650000000e+003;4.2056411133e+003;4.3283334961e+003;4.2742309570e+003;4.0770512695e+003;4.2901284180e+003;4.3035898438e+003;4.3162822266e+003;4.3426923828e+003;4.2205126953e+003;4.4630771484e+003;4.3342309570e+003;4.3739741211e+003;4.6367949219e+003;
2.0234375000e+000;4.2544873047e+003;4.1948715820e+003;4.3176923828e+003;4.2607690430e+003;4.0587180176e+003;4.2719228516e+003;4.2853847656e+003;4.2957690430e+003;4.3193588867e+003;4.1960258789e+003;4.4362822266e+003;4.3308974609e+003;4.3501284180e+003;4.6160258789e+003;
2.0312500000e+000;4.2701284180e+003;4.2205126953e+003;4.3321796875e+003;4.2689741211e+003;4.0788461914e+003;4.2810258789e+003;4.2957690430e+003;4.3037177734e+003;4.3257690430e+003;4.2133334961e+003;4.4653847656e+003;4.3260258789e+003;4.3680771484e+003;4.6124360352e+003;
2.0390625000e+000;4.2421796875e+003;4.1879487305e+003;4.3028203125e+003;4.2457690430e+003;4.0483332520e+003;4.2535898438e+003;4.2658974609e+003;4.2721796875e+003;4.2941025391e+003;4.1769228516e+003;4.4284614258e+003;4.2974360352e+003;4.3391025391e+003;4.5802563477e+003;
2.0468750000e+000;4.2483334961e+003;4.1847436523e+003;4.3038461914e+003;4.2501284180e+003;4.0461538086e+003;4.2562822266e+003;4.2656411133e+003;4.2742309570e+003;4.2911538086e+003;4.1730771484e+003;4.4143588867e+003;4.3101284180e+003;4.3419228516e+003;4.5762822266e+003;
2.0546875000e+000;4.2403847656e+003;4.1747436523e+003;4.2947436523e+003;4.2385898438e+003;4.0337180176e+003;4.2493588867e+003;4.2592309570e+003;4.2670512695e+003;4.2811538086e+003;4.1670512695e+003;4.4060258789e+003;4.3039741211e+003;4.3319228516e+003;4.5639741211e+003;
2.0625000000e+000;4.2317949219e+003;4.1667949219e+003;4.2834614258e+003;4.2258974609e+003;4.0202563477e+003;4.2438461914e+003;4.2585898438e+003;4.2587177734e+003;4.2739741211e+003;4.1648715820e+003;4.4196152344e+003;4.2843588867e+003;4.3152563477e+003;4.5450000000e+003;
2.0703125000e+000;4.2475639648e+003;4.1838461914e+003;4.2987177734e+003;4.2438461914e+003;4.0365385742e+003;4.2580771484e+003;4.2724360352e+003;4.2776923828e+003;4.2924360352e+003;4.1843588867e+003;4.4346152344e+003;4.3001284180e+003;4.3344873047e+003;4.5574360352e+003;
2.0781250000e+000;4.2271796875e+003;4.1674360352e+003;4.2788461914e+003;4.2347436523e+003;4.0194870605e+003;4.2396152344e+003;4.2530771484e+003;4.2598715820e+003;4.2689741211e+003;4.1634614258e+003;4.3926923828e+003;4.2782050781e+003;4.3273076172e+003;4.5260258789e+003;
2.0859375000e+000;4.2342309570e+003;4.1802563477e+003;4.2838461914e+003;4.2492309570e+003;4.0307692871e+003;4.2474360352e+003;4.2619228516e+003;4.2635898438e+003;4.2711538086e+003;4.1669228516e+003;4.3893588867e+003;4.2797436523e+003;4.3389741211e+003;4.5275639648e+003;
2.0937500000e+000;4.2964101563e+003;4.2565385742e+003;4.3496152344e+003;4.3084614258e+003;4.0987177734e+003;4.3085898438e+003;4.3176923828e+003;4.3248715820e+003;4.3371796875e+003;4.2338461914e+003;4.4519228516e+003;4.3438461914e+003;4.3947436523e+003;4.5865385742e+003;
2.1015625000e+000;4.2712822266e+003;4.2243588867e+003;4.3320512695e+003;4.2703847656e+003;4.0671794434e+003;4.2823076172e+003;4.2892309570e+003;4.2965385742e+003;4.3096152344e+003;4.2047436523e+003;4.4229487305e+003;4.3220512695e+003;4.3610258789e+003;4.5551284180e+003;
2.1093750000e+000;4.2661538086e+003;4.2108974609e+003;4.3317949219e+003;4.2538461914e+003;4.0547436523e+003;4.2728203125e+003;4.2810258789e+003;4.2841025391e+003;4.2975639648e+003;4.1924360352e+003;4.4101284180e+003;4.3156411133e+003;4.3497436523e+003;4.5403847656e+003;
2.1171875000e+000;4.3005126953e+003;4.2423076172e+003;4.3658974609e+003;4.2858974609e+003;4.0848718262e+003;4.3008974609e+003;4.3128203125e+003;4.3125639648e+003;4.3264101563e+003;4.2238461914e+003;4.4397436523e+003;4.3467949219e+003;4.3843588867e+003;4.5676923828e+003;
2.1250000000e+000;4.3406411133e+003;4.3070512695e+003;4.3967949219e+003;4.3660258789e+003;4.1366665039e+003;4.3462822266e+003;4.3548715820e+003;4.3614101563e+003;4.3723076172e+003;4.2820512695e+003;4.5016665039e+003;4.3970512695e+003;4.4433334961e+003;4.6126923828e+003;
2.1328125000e+000;4.4155126953e+003;4.3816665039e+003;4.4750000000e+003;4.4093588867e+003;4.2008974609e+003;4.4093588867e+003;4.4242309570e+003;4.4339741211e+003;4.4478203125e+003;4.3607690430e+003;4.5592309570e+003;4.4719228516e+003;4.5160258789e+003;4.6693588867e+003;
2.1406250000e+000;4.4091025391e+003;4.3802563477e+003;4.4653847656e+003;4.4121796875e+003;4.2329487305e+003;4.4062822266e+003;4.4239741211e+003;4.4308974609e+003;4.4447436523e+003;4.3555126953e+003;4.5558974609e+003;4.4688461914e+003;4.5141025391e+003;4.6620512695e+003;
2.1484375000e+000;4.4833334961e+003;4.4623076172e+003;4.5384614258e+003;4.4917949219e+003;4.3992309570e+003;4.4832050781e+003;4.5019228516e+003;4.5060258789e+003;4.5221796875e+003;4.4362822266e+003;4.6376923828e+003;4.5452563477e+003;4.5996152344e+003;4.7334614258e+003;
2.1562500000e+000;4.5092309570e+003;4.4875639648e+003;4.5783334961e+003;4.5065385742e+003;4.4306411133e+003;4.5206411133e+003;4.5362822266e+003;4.5408974609e+003;4.5497436523e+003;4.4706411133e+003;4.6721796875e+003;4.5701284180e+003;4.6275639648e+003;4.7484614258e+003;
2.1640625000e+000;4.5539741211e+003;4.5414101563e+003;4.6203847656e+003;4.5546152344e+003;4.4791025391e+003;4.5641025391e+003;4.5816665039e+003;4.5888461914e+003;4.5970512695e+003;4.5215385742e+003;4.7264101563e+003;4.6189741211e+003;4.6805126953e+003;4.7947436523e+003;
2.1718750000e+000;4.5935898438e+003;4.5943588867e+003;4.6678203125e+003;4.6025639648e+003;4.5353847656e+003;4.6084614258e+003;4.6242309570e+003;4.6373076172e+003;4.6456411133e+003;4.5758974609e+003;4.7758974609e+003;4.6733334961e+003;4.7346152344e+003;4.8412822266e+003;
2.1796875000e+000;4.5965385742e+003;4.5988461914e+003;4.6780771484e+003;4.6076923828e+003;4.5392309570e+003;4.6142309570e+003;4.6297436523e+003;4.6412822266e+003;4.6501284180e+003;4.5794873047e+003;4.7746152344e+003;4.6782050781e+003;4.7387177734e+003;4.8424360352e+003;
2.1875000000e+000;4.6989741211e+003;4.7082050781e+003;4.7926923828e+003;4.7096152344e+003;4.6330771484e+003;4.7111538086e+003;4.7328203125e+003;4.7455126953e+003;4.7617949219e+003;4.6888461914e+003;4.8857690430e+003;4.7811538086e+003;4.8380771484e+003;4.9292309570e+003;
2.1953125000e+000;4.6916665039e+003;4.7041025391e+003;4.7871796875e+003;4.7053847656e+003;4.6275639648e+003;4.7067949219e+003;4.7280771484e+003;4.7419228516e+003;4.7597436523e+003;4.6862822266e+003;4.8893588867e+003;4.7800000000e+003;4.8301284180e+003;4.9207690430e+003;
2.2031250000e+000;4.6587177734e+003;4.6810258789e+003;4.7542309570e+003;4.6773076172e+003;4.6000000000e+003;4.6862822266e+003;4.7030771484e+003;4.7174360352e+003;4.7344873047e+003;4.6593588867e+003;4.8658974609e+003;4.7539741211e+003;4.8062822266e+003;4.8905126953e+003;
2.2109375000e+000;4.6643588867e+003;4.6937177734e+003;4.7616665039e+003;4.6830771484e+003;4.6087177734e+003;4.6960258789e+003;4.7107690430e+003;4.7301284180e+003;4.7457690430e+003;4.6703847656e+003;4.8706411133e+003;4.7603847656e+003;4.8225639648e+003;4.8984614258e+003;
2.2187500000e+000;4.6469228516e+003;4.6758974609e+003;4.7538461914e+003;4.6678203125e+003;4.5908974609e+003;4.6789741211e+003;4.6965385742e+003;4.7165385742e+003;4.7302563477e+003;4.6541025391e+003;4.8380771484e+003;4.7451284180e+003;4.8112822266e+003;4.8717949219e+003;
2.2265625000e+000;4.6724360352e+003;4.7000000000e+003;4.7769228516e+003;4.6935898438e+003;4.6133334961e+003;4.7021796875e+003;4.7229487305e+003;4.7378203125e+003;4.7519228516e+003;4.6774360352e+003;4.8611538086e+003;4.7714101563e+003;4.8297436523e+003;4.8916665039e+003;
2.2343750000e+000;4.7108974609e+003;4.7419228516e+003;4.8138461914e+003;4.7328203125e+003;4.6505126953e+003;4.7410258789e+003;4.7632050781e+003;4.7789741211e+003;4.7926923828e+003;4.7210258789e+003;4.9033334961e+003;4.8132050781e+003;4.8665385742e+003;4.9285898438e+003;
2.2421875000e+000;4.7233334961e+003;4.7612822266e+003;4.8291025391e+003;4.7485898438e+003;4.6642309570e+003;4.7588461914e+003;4.7798715820e+003;4.8015385742e+003;4.8137177734e+003;4.7443588867e+003;4.9230771484e+003;4.8314101563e+003;4.8853847656e+003;4.9434614258e+003;
2.2500000000e+000;4.6938461914e+003;4.7417949219e+003;4.8160258789e+003;4.7264101563e+003;4.6469228516e+003;4.7416665039e+003;4.7662822266e+003;4.7812822266e+003;4.7902563477e+003;4.7130771484e+003;4.8994873047e+003;4.8071796875e+003;4.8675639648e+003;4.9070512695e+003;
2.2578125000e+000;4.5979487305e+003;4.6429487305e+003;4.7237177734e+003;4.6300000000e+003;4.5371796875e+003;4.6567949219e+003;4.6732050781e+003;4.6878203125e+003;4.6907690430e+003;4.6125639648e+003;4.7888461914e+003;4.7116665039e+003;4.7653847656e+003;4.7994873047e+003;
2.2656250000e+000;4.5844873047e+003;4.6312822266e+003;4.7100000000e+003;4.6161538086e+003;4.5264101563e+003;4.6438461914e+003;4.6592309570e+003;4.6743588867e+003;4.6784614258e+003;4.6015385742e+003;4.7753847656e+003;4.6952563477e+003;4.7551284180e+003;4.7817949219e+003;
2.2734375000e+000;4.5817949219e+003;4.6339741211e+003;4.7017949219e+003;4.6279487305e+003;4.5316665039e+003;4.6435898438e+003;4.6578203125e+003;4.6732050781e+003;4.6797436523e+003;4.6056411133e+003;4.7821796875e+003;4.6938461914e+003;4.7502563477e+003;4.7728203125e+003;
2.2812500000e+000;4.6378203125e+003;4.6929487305e+003;4.7655126953e+003;4.6805126953e+003;4.5938461914e+003;4.7046152344e+003;4.7192309570e+003;4.7276923828e+003;4.7392309570e+003;4.6632050781e+003;4.8392309570e+003;4.7580771484e+003;4.8158974609e+003;4.8301284180e+003;
2.2890625000e+000;4.5983334961e+003;4.6470512695e+003;4.7355126953e+003;4.6385898438e+003;4.5515385742e+003;4.6683334961e+003;4.6794873047e+003;4.6919228516e+003;4.7050000000e+003;4.6287177734e+003;4.8048715820e+003;4.7219228516e+003;4.7783334961e+003;4.7926923828e+003;
2.2968750000e+000;4.4812822266e+003;4.4988461914e+003;4.6232050781e+003;4.5308974609e+003;4.4265385742e+003;4.5537177734e+003;4.5633334961e+003;4.5717949219e+003;4.5851284180e+003;4.5050000000e+003;4.6701284180e+003;4.6000000000e+003;4.6529487305e+003;4.6635898438e+003;
2.3046875000e+000;4.4692309570e+003;4.4670512695e+003;4.6052563477e+003;4.5244873047e+003;4.4139741211e+003;4.5392309570e+003;4.5507690430e+003;4.5561538086e+003;4.5694873047e+003;4.4880771484e+003;4.6415385742e+003;4.5846152344e+003;4.6375639648e+003;4.6429487305e+003;
2.3125000000e+000;4.4548715820e+003;4.4179487305e+003;4.5685898438e+003;4.5185898438e+003;4.4016665039e+003;4.5262822266e+003;4.5362822266e+003;4.5426923828e+003;4.5569228516e+003;4.4702563477e+003;4.6320512695e+003;4.5657690430e+003;4.6242309570e+003;4.6201284180e+003;
2.3203125000e+000;4.4603847656e+003;4.4244873047e+003;4.5696152344e+003;4.5215385742e+003;4.4056411133e+003;4.5315385742e+003;4.5403847656e+003;4.5469228516e+003;4.5598715820e+003;4.4719228516e+003;4.6491025391e+003;4.5638461914e+003;4.6292309570e+003;4.6230771484e+003;
2.3281250000e+000;4.5323076172e+003;4.5016665039e+003;4.6453847656e+003;4.5798715820e+003;4.4766665039e+003;4.5978203125e+003;4.6071796875e+003;4.6187177734e+003;4.6267949219e+003;4.5470512695e+003;4.7230771484e+003;4.6310258789e+003;4.7034614258e+003;4.6925639648e+003;
2.3359375000e+000;4.5416665039e+003;4.5065385742e+003;4.6614101563e+003;4.5828203125e+003;4.4850000000e+003;4.6061538086e+003;4.6169228516e+003;4.6303847656e+003;4.6366665039e+003;4.5610258789e+003;4.7250000000e+003;4.6479487305e+003;4.7132050781e+003;4.7025639648e+003;
2.3437500000e+000;4.5229487305e+003;4.4803847656e+003;4.6471796875e+003;4.5620512695e+003;4.4642309570e+003;4.5885898438e+003;4.6010258789e+003;4.6139741211e+003;4.6205126953e+003;4.5442309570e+003;4.7014101563e+003;4.6378203125e+003;4.6938461914e+003;4.6839741211e+003;
2.3515625000e+000;4.5043588867e+003;4.4576923828e+003;4.6270512695e+003;4.5473076172e+003;4.4439741211e+003;4.5716665039e+003;4.5851284180e+003;4.5978203125e+003;4.6064101563e+003;4.5260258789e+003;4.6846152344e+003;4.6229487305e+003;4.6764101563e+003;4.6639741211e+003;
2.3593750000e+000;4.4588461914e+003;4.4316665039e+003;4.5706411133e+003;4.5160258789e+003;4.4007690430e+003;4.5376923828e+003;4.5456411133e+003;4.5658974609e+003;4.5728203125e+003;4.4943588867e+003;4.6407690430e+003;4.5658974609e+003;4.6450000000e+003;4.6126923828e+003;
2.3671875000e+000;4.4826923828e+003;4.4437177734e+003;4.5978203125e+003;4.5307690430e+003;4.4188461914e+003;4.5501284180e+003;4.5684614258e+003;4.5808974609e+003;4.5920512695e+003;4.5119228516e+003;4.6502563477e+003;4.5953847656e+003;4.6647436523e+003;4.6319228516e+003;
2.3750000000e+000;4.4396152344e+003;4.4014101563e+003;4.5500000000e+003;4.5003847656e+003;4.3742309570e+003;4.5106411133e+003;4.5239741211e+003;4.5379487305e+003;4.5488461914e+003;4.4662822266e+003;4.5979487305e+003;4.5498715820e+003;4.6205126953e+003;4.5837177734e+003;
2.3828125000e+000;4.4561538086e+003;4.4161538086e+003;4.5662822266e+003;4.5003847656e+003;4.3870512695e+003;4.5252563477e+003;4.5352563477e+003;4.5406411133e+003;4.5517949219e+003;4.4717949219e+003;4.6176923828e+003;4.5487177734e+003;4.6230771484e+003;4.5853847656e+003;
2.3906250000e+000;4.4319228516e+003;4.3993588867e+003;4.5384614258e+003;4.4900000000e+003;4.3665385742e+003;4.5026923828e+003;4.5130771484e+003;4.5248715820e+003;4.5300000000e+003;4.4476923828e+003;4.5976923828e+003;4.5292309570e+003;4.6002563477e+003;4.5553847656e+003;
2.3984375000e+000;4.4453847656e+003;4.4150000000e+003;4.5489741211e+003;4.5025639648e+003;4.3794873047e+003;4.5130771484e+003;4.5232050781e+003;4.5352563477e+003;4.5401284180e+003;4.4579487305e+003;4.5974360352e+003;4.5374360352e+003;4.6141025391e+003;4.5647436523e+003;
2.4062500000e+000;4.4535898438e+003;4.4143588867e+003;4.5607690430e+003;4.4916665039e+003;4.3779487305e+003;4.5198715820e+003;4.5293588867e+003;4.5379487305e+003;4.5470512695e+003;4.4700000000e+003;4.5897436523e+003;4.5416665039e+003;4.6160258789e+003;4.5710258789e+003;
2.4140625000e+000;4.4108974609e+003;4.3711538086e+003;4.5155126953e+003;4.4561538086e+003;4.3355126953e+003;4.4798715820e+003;4.4916665039e+003;4.4950000000e+003;4.5032050781e+003;4.4247436523e+003;4.5534614258e+003;4.5003847656e+003;4.5705126953e+003;4.5261538086e+003;
2.4218750000e+000;4.3903847656e+003;4.3532050781e+003;4.4885898438e+003;4.4420512695e+003;4.3175639648e+003;4.4523076172e+003;4.4678203125e+003;4.4720512695e+003;4.4784614258e+003;4.3951284180e+003;4.5403847656e+003;4.4776923828e+003;4.5483334961e+003;4.4987177734e+003;
2.4296875000e+000;4.3879487305e+003;4.3482050781e+003;4.4892309570e+003;4.4306411133e+003;4.3125639648e+003;4.4466665039e+003;4.4603847656e+003;4.4685898438e+003;4.4746152344e+003;4.3893588867e+003;4.5317949219e+003;4.4739741211e+003;4.5448715820e+003;4.4934614258e+003;
2.4375000000e+000;4.4092309570e+003;4.3611538086e+003;4.5117949219e+003;4.4316665039e+003;4.3269228516e+003;4.4710258789e+003;4.4841025391e+003;4.4833334961e+003;4.4871796875e+003;4.4051284180e+003;4.5261538086e+003;4.4885898438e+003;4.5575639648e+003;4.4976923828e+003;
2.4453125000e+000;4.4598715820e+003;4.4148715820e+003;4.5558974609e+003;4.4897436523e+003;4.3801284180e+003;4.5179487305e+003;4.5341025391e+003;4.5352563477e+003;4.5396152344e+003;4.4623076172e+003;4.5824360352e+003;4.5398715820e+003;4.6103847656e+003;4.5464101563e+003;
2.4531250000e+000;4.4782050781e+003;4.4388461914e+003;4.5656411133e+003;4.5288461914e+003;4.3992309570e+003;4.5289741211e+003;4.5462822266e+003;4.5571796875e+003;4.5628203125e+003;4.4910258789e+003;4.6111538086e+003;4.5624360352e+003;4.6383334961e+003;4.5691025391e+003;
2.4609375000e+000;4.4602563477e+003;4.4237177734e+003;4.5455126953e+003;4.5143588867e+003;4.3802563477e+003;4.5098715820e+003;4.5262822266e+003;4.5360258789e+003;4.5417949219e+003;4.4698715820e+003;4.5871796875e+003;4.5435898438e+003;4.6224360352e+003;4.5515385742e+003;
2.4687500000e+000;4.5248715820e+003;4.4997436523e+003;4.6130771484e+003;4.5562822266e+003;4.4484614258e+003;4.5735898438e+003;4.5866665039e+003;4.5984614258e+003;4.6021796875e+003;4.5325639648e+003;4.6484614258e+003;4.6101284180e+003;4.6784614258e+003;4.6082050781e+003;
2.4765625000e+000;4.5224360352e+003;4.4948715820e+003;4.6143588867e+003;4.5507690430e+003;4.4458974609e+003;4.5724360352e+003;4.5847436523e+003;4.5996152344e+003;4.6024360352e+003;4.5323076172e+003;4.6551284180e+003;4.6092309570e+003;4.6747436523e+003;4.6025639648e+003;
2.4843750000e+000;4.5139741211e+003;4.4832050781e+003;4.6074360352e+003;4.5450000000e+003;4.4373076172e+003;4.5650000000e+003;4.5778203125e+003;4.5915385742e+003;4.5952563477e+003;4.5237177734e+003;4.6523076172e+003;4.5987177734e+003;4.6687177734e+003;4.5911538086e+003;
2.4921875000e+000;4.5275639648e+003;4.4976923828e+003;4.6198715820e+003;4.5643588867e+003;4.4525639648e+003;4.5785898438e+003;4.5930771484e+003;4.6034614258e+003;4.6098715820e+003;4.5382050781e+003;4.6660258789e+003;4.6085898438e+003;4.6889741211e+003;4.6035898438e+003;
2.5000000000e+000;4.5602563477e+003;4.5506411133e+003;4.6561538086e+003;4.5978203125e+003;4.4942309570e+003;4.6174360352e+003;4.6338461914e+003;4.6438461914e+003;4.6475639648e+003;4.5774360352e+003;4.6832050781e+003;4.6439741211e+003;4.7378203125e+003;4.6342309570e+003;
2.5078125000e+000;4.5808974609e+003;4.5678203125e+003;4.6744873047e+003;4.6130771484e+003;4.5155126953e+003;4.6350000000e+003;4.6524360352e+003;4.6625639648e+003;4.6638461914e+003;4.5938461914e+003;4.7025639648e+003;4.6641025391e+003;4.7523076172e+003;4.6510258789e+003;
2.5156250000e+000;4.6542309570e+003;4.6419228516e+003;4.7466665039e+003;4.6924360352e+003;4.5937177734e+003;4.7100000000e+003;4.7253847656e+003;4.7425639648e+003;4.7433334961e+003;4.6847436523e+003;4.7956411133e+003;4.7517949219e+003;4.8237177734e+003;4.7335898438e+003;
2.5234375000e+000;4.6653847656e+003;4.6694873047e+003;4.7637177734e+003;4.7087177734e+003;4.6100000000e+003;4.7224360352e+003;4.7391025391e+003;4.7506411133e+003;4.7491025391e+003;4.6917949219e+003;4.7912822266e+003;4.7528203125e+003;4.8498715820e+003;4.7353847656e+003;
2.5312500000e+000;4.6889741211e+003;4.6960258789e+003;4.7893588867e+003;4.7325639648e+003;4.6366665039e+003;4.7446152344e+003;4.7607690430e+003;4.7760258789e+003;4.7753847656e+003;4.7187177734e+003;4.8120512695e+003;4.7747436523e+003;4.8758974609e+003;4.7558974609e+003;
2.5390625000e+000;4.6435898438e+003;4.6483334961e+003;4.7461538086e+003;4.6878203125e+003;4.5956411133e+003;4.7087177734e+003;4.7241025391e+003;4.7352563477e+003;4.7407690430e+003;4.6761538086e+003;4.7766665039e+003;4.7371796875e+003;4.8171796875e+003;4.7101284180e+003;
2.5468750000e+000;4.6547436523e+003;4.6658974609e+003;4.7564101563e+003;4.7023076172e+003;4.6119228516e+003;4.7217949219e+003;4.7347436523e+003;4.7523076172e+003;4.7589741211e+003;4.6906411133e+003;4.7891025391e+003;4.7516665039e+003;4.8333334961e+003;4.7224360352e+003;
2.5546875000e+000;4.6226923828e+003;4.6337177734e+003;4.7262822266e+003;4.6741025391e+003;4.5798715820e+003;4.6917949219e+003;4.7038461914e+003;4.7205126953e+003;4.7244873047e+003;4.6567949219e+003;4.7521796875e+003;4.7182050781e+003;4.8032050781e+003;4.6882050781e+003;
2.5625000000e+000;4.6142309570e+003;4.6228203125e+003;4.7182050781e+003;4.6661538086e+003;4.5676923828e+003;4.6823076172e+003;4.6962822266e+003;4.7094873047e+003;4.7115385742e+003;4.6452563477e+003;4.7385898438e+003;4.7058974609e+003;4.7944873047e+003;4.6752563477e+003;
2.5703125000e+000;4.6761538086e+003;4.6832050781e+003;4.7787177734e+003;4.7273076172e+003;4.6180771484e+003;4.7384614258e+003;4.7585898438e+003;4.7741025391e+003;4.7778203125e+003;4.7137177734e+003;4.8048715820e+003;4.7660258789e+003;4.8601284180e+003;4.7348715820e+003;
2.5781250000e+000;4.6691025391e+003;4.6842309570e+003;4.7733334961e+003;4.7261538086e+003;4.6228203125e+003;4.7369228516e+003;4.7507690430e+003;4.7702563477e+003;4.7776923828e+003;4.7155126953e+003;4.7998715820e+003;4.7671796875e+003;4.8534614258e+003;4.7339741211e+003;
2.5859375000e+000;4.6875639648e+003;4.7048715820e+003;4.7915385742e+003;4.7410258789e+003;4.6492309570e+003;4.7517949219e+003;4.7648715820e+003;4.7843588867e+003;4.7897436523e+003;4.7320512695e+003;4.8133334961e+003;4.7852563477e+003;4.8675639648e+003;4.7492309570e+003;
2.5937500000e+000;4.7064101563e+003;4.7252563477e+003;4.8108974609e+003;4.7564101563e+003;4.6728203125e+003;4.7671796875e+003;4.7805126953e+003;4.8024360352e+003;4.8050000000e+003;4.7514101563e+003;4.8315385742e+003;4.8048715820e+003;4.8839741211e+003;4.7650000000e+003;
2.6015625000e+000;4.6779487305e+003;4.6991025391e+003;4.7844873047e+003;4.7335898438e+003;4.6457690430e+003;4.7435898438e+003;4.7575639648e+003;4.7785898438e+003;4.7808974609e+003;4.7230771484e+003;4.8123076172e+003;4.7767949219e+003;4.8607690430e+003;4.7344873047e+003;
2.6093750000e+000;4.6707690430e+003;4.6943588867e+003;4.7764101563e+003;4.7317949219e+003;4.6401284180e+003;4.7402563477e+003;4.7550000000e+003;4.7715385742e+003;4.7760258789e+003;4.7148715820e+003;4.8074360352e+003;4.7652563477e+003;4.8606411133e+003;4.7266665039e+003;
2.6171875000e+000;4.6910258789e+003;4.7189741211e+003;4.7957690430e+003;4.7546152344e+003;4.6637177734e+003;4.7619228516e+003;4.7775639648e+003;4.7920512695e+003;4.7971796875e+003;4.7374360352e+003;4.8267949219e+003;4.7816665039e+003;4.8884614258e+003;4.7471796875e+003;
2.6250000000e+000;4.7121796875e+003;4.7380771484e+003;4.8273076172e+003;4.7632050781e+003;4.6841025391e+003;4.7835898438e+003;4.8011538086e+003;4.8115385742e+003;4.8039741211e+003;4.7544873047e+003;4.8392309570e+003;4.8148715820e+003;4.9079487305e+003;4.7620512695e+003;
2.6328125000e+000;4.7441025391e+003;4.7726923828e+003;4.8560258789e+003;4.8006411133e+003;4.7187177734e+003;4.8160258789e+003;4.8315385742e+003;4.8458974609e+003;4.8380771484e+003;4.7891025391e+003;4.8683334961e+003;4.8456411133e+003;4.9433334961e+003;4.7925639648e+003;
2.6406250000e+000;4.7115385742e+003;4.7520512695e+003;4.8256411133e+003;4.7892309570e+003;4.6983334961e+003;4.8010258789e+003;4.8125639648e+003;4.8300000000e+003;4.8233334961e+003;4.7671796875e+003;4.8470512695e+003;4.8201284180e+003;4.9001284180e+003;4.7667949219e+003;
2.6484375000e+000;4.7783334961e+003;4.8269228516e+003;4.9010258789e+003;4.8487177734e+003;4.7741025391e+003;4.8757690430e+003;4.8866665039e+003;4.9087177734e+003;4.9128203125e+003;4.8556411133e+003;4.9279487305e+003;4.8897436523e+003;4.9947436523e+003;4.8365385742e+003;
2.6562500000e+000;4.7628203125e+003;4.8089741211e+003;4.8880771484e+003;4.8282050781e+003;4.7546152344e+003;4.8603847656e+003;4.8706411133e+003;4.8947436523e+003;4.8971796875e+003;4.8435898438e+003;4.9043588867e+003;4.8756411133e+003;4.9838461914e+003;4.8193588867e+003;
2.6640625000e+000;4.7992309570e+003;4.8406411133e+003;4.9215385742e+003;4.8564101563e+003;4.7835898438e+003;4.8808974609e+003;4.8980771484e+003;4.9260258789e+003;4.9228203125e+003;4.8696152344e+003;4.9343588867e+003;4.9133334961e+003;5.0007690430e+003;4.8564101563e+003;
2.6718750000e+000;4.8046152344e+003;4.8514101563e+003;4.9255126953e+003;4.8708974609e+003;4.7929487305e+003;4.8861538086e+003;4.9029487305e+003;4.9342309570e+003;4.9308974609e+003;4.8779487305e+003;4.9479487305e+003;4.9203847656e+003;5.0097436523e+003;4.8650000000e+003;
2.6796875000e+000;4.7511538086e+003;4.8084614258e+003;4.8716665039e+003;4.8326923828e+003;4.7432050781e+003;4.8384614258e+003;4.8542309570e+003;4.8787177734e+003;4.8743588867e+003;4.8247436523e+003;4.8984614258e+003;4.8638461914e+003;4.9697436523e+003;4.8096152344e+003;
2.6875000000e+000;4.7567949219e+003;4.8144873047e+003;4.8782050781e+003;4.8342309570e+003;4.7473076172e+003;4.8423076172e+003;4.8587177734e+003;4.8791025391e+003;4.8746152344e+003;4.8270512695e+003;4.9002563477e+003;4.8660258789e+003;4.9757690430e+003;4.8123076172e+003;
2.6953125000e+000;4.7869228516e+003;4.8305126953e+003;4.9160258789e+003;4.8542309570e+003;4.7729487305e+003;4.8692309570e+003;4.8816665039e+003;4.9103847656e+003;4.9048715820e+003;4.8552563477e+003;4.9193588867e+003;4.9016665039e+003;4.9898715820e+003;4.8415385742e+003;
2.7031250000e+000;4.7556411133e+003;4.8170512695e+003;4.8780771484e+003;4.8379487305e+003;4.7560258789e+003;4.8496152344e+003;4.8626923828e+003;4.8839741211e+003;4.8803847656e+003;4.8251284180e+003;4.8923076172e+003;4.8720512695e+003;4.9589741211e+003;4.8087177734e+003;
2.7109375000e+000;4.7517949219e+003;4.8206411133e+003;4.8732050781e+003;4.8352563477e+003;4.7564101563e+003;4.8483334961e+003;4.8615385742e+003;4.8834614258e+003;4.8806411133e+003;4.8252563477e+003;4.8985898438e+003;4.8712822266e+003;4.9578203125e+003;4.8080771484e+003;
2.7187500000e+000;4.7314101563e+003;4.8030771484e+003;4.8548715820e+003;4.8144873047e+003;4.7371796875e+003;4.8305126953e+003;4.8434614258e+003;4.8652563477e+003;4.8611538086e+003;4.8061538086e+003;4.8828203125e+003;4.8526923828e+003;4.9406411133e+003;4.7901284180e+003;
2.7265625000e+000;4.7380771484e+003;4.8069228516e+003;4.8685898438e+003;4.8166665039e+003;4.7424360352e+003;4.8351284180e+003;4.8501284180e+003;4.8678203125e+003;4.8562822266e+003;4.8088461914e+003;4.8773076172e+003;4.8544873047e+003;4.9560258789e+003;4.7946152344e+003;
2.7343750000e+000;4.7744873047e+003;4.8412822266e+003;4.9080771484e+003;4.8508974609e+003;4.7782050781e+003;4.8670512695e+003;4.8839741211e+003;4.9023076172e+003;4.8887177734e+003;4.8458974609e+003;4.9082050781e+003;4.8896152344e+003;4.9935898438e+003;4.8297436523e+003;
2.7421875000e+000;4.7885898438e+003;4.8529487305e+003;4.9247436523e+003;4.8651284180e+003;4.7911538086e+003;4.8784614258e+003;4.8960258789e+003;4.9171796875e+003;4.9038461914e+003;4.8615385742e+003;4.9214101563e+003;4.9058974609e+003;5.0028203125e+003;4.8430771484e+003;
2.7500000000e+000;4.7730771484e+003;4.8241025391e+003;4.9064101563e+003;4.8432050781e+003;4.7655126953e+003;4.8500000000e+003;4.8644873047e+003;4.8950000000e+003;4.8857690430e+003;4.8353847656e+003;4.9038461914e+003;4.8778203125e+003;4.9733334961e+003;4.8112822266e+003;
2.7578125000e+000;4.7651284180e+003;4.8162822266e+003;4.8980771484e+003;4.8370512695e+003;4.7575639648e+003;4.8438461914e+003;4.8561538086e+003;4.8869228516e+003;4.8764101563e+003;4.8289741211e+003;4.8964101563e+003;4.8694873047e+003;4.9687177734e+003;4.8030771484e+003;
2.7656250000e+000;4.7746152344e+003;4.8389741211e+003;4.8998715820e+003;4.8557690430e+003;4.7734614258e+003;4.8611538086e+003;4.8775639648e+003;4.8983334961e+003;4.8855126953e+003;4.8328203125e+003;4.9066665039e+003;4.8855126953e+003;4.9648715820e+003;4.8111538086e+003;
2.7734375000e+000;4.7442309570e+003;4.8042309570e+003;4.8796152344e+003;4.8203847656e+003;4.7453847656e+003;4.8341025391e+003;4.8514101563e+003;4.8764101563e+003;4.8624360352e+003;4.8162822266e+003;4.8746152344e+003;4.8644873047e+003;4.9353847656e+003;4.7891025391e+003;
2.7812500000e+000;4.7265385742e+003;4.7844873047e+003;4.8606411133e+003;4.8008974609e+003;4.7273076172e+003;4.8158974609e+003;4.8312822266e+003;4.8525639648e+003;4.8385898438e+003;4.7935898438e+003;4.8552563477e+003;4.8387177734e+003;4.9170512695e+003;4.7674360352e+003;
2.7890625000e+000;4.6762822266e+003;4.7457690430e+003;4.8088461914e+003;4.7520512695e+003;4.6748715820e+003;4.7714101563e+003;4.7797436523e+003;4.8019228516e+003;4.7882050781e+003;4.7360258789e+003;4.8029487305e+003;4.7811538086e+003;4.8667949219e+003;4.7058974609e+003;
2.7968750000e+000;4.6164101563e+003;4.6848715820e+003;4.7503847656e+003;4.6967949219e+003;4.6165385742e+003;4.7170512695e+003;4.7260258789e+003;4.7446152344e+003;4.7302563477e+003;4.6739741211e+003;4.7400000000e+003;4.7261538086e+003;4.8048715820e+003;4.6447436523e+003;
2.8046875000e+000;4.5760258789e+003;4.6353847656e+003;4.7035898438e+003;4.6600000000e+003;4.5841025391e+003;4.6773076172e+003;4.6906411133e+003;4.6997436523e+003;4.6851284180e+003;4.6273076172e+003;4.6970512695e+003;4.6882050781e+003;4.7569228516e+003;4.6038461914e+003;
2.8125000000e+000;4.5812822266e+003;4.6346152344e+003;4.7058974609e+003;4.6615385742e+003;4.5900000000e+003;4.6803847656e+003;4.6925639648e+003;4.7020512695e+003;4.6882050781e+003;4.6311538086e+003;4.7003847656e+003;4.6921796875e+003;4.7592309570e+003;4.6097436523e+003;
2.8203125000e+000;4.5156411133e+003;4.5528203125e+003;4.6423076172e+003;4.5817949219e+003;4.5124360352e+003;4.6166665039e+003;4.6193588867e+003;4.6283334961e+003;4.6188461914e+003;4.5483334961e+003;4.6075639648e+003;4.6161538086e+003;4.6794873047e+003;4.5317949219e+003;
2.8281250000e+000;4.5250000000e+003;4.5623076172e+003;4.6498715820e+003;4.5906411133e+003;4.5242309570e+003;4.6256411133e+003;4.6282050781e+003;4.6370512695e+003;4.6302563477e+003;4.5561538086e+003;4.6130771484e+003;4.6207690430e+003;4.6848715820e+003;4.5346152344e+003;
2.8359375000e+000;4.5244873047e+003;4.5666665039e+003;4.6426923828e+003;4.5965385742e+003;4.5312822266e+003;4.6266665039e+003;4.6279487305e+003;4.6415385742e+003;4.6362822266e+003;4.5646152344e+003;4.6223076172e+003;4.6165385742e+003;4.6851284180e+003;4.5283334961e+003;
2.8437500000e+000;4.4939741211e+003;4.5361538086e+003;4.6080771484e+003;4.5673076172e+003;4.4985898438e+003;4.5960258789e+003;4.5971796875e+003;4.6097436523e+003;4.6029487305e+003;4.5329487305e+003;4.5955126953e+003;4.5843588867e+003;4.6551284180e+003;4.4953847656e+003;
2.8515625000e+000;4.4926923828e+003;4.5184614258e+003;4.5994873047e+003;4.5494873047e+003;4.4844873047e+003;4.5798715820e+003;4.5843588867e+003;4.6002563477e+003;4.5900000000e+003;4.5138461914e+003;4.5806411133e+003;4.5801284180e+003;4.6421796875e+003;4.4824360352e+003;
2.8593750000e+000;4.4808974609e+003;4.5002563477e+003;4.5882050781e+003;4.5355126953e+003;4.4738461914e+003;4.5692309570e+003;4.5716665039e+003;4.5920512695e+003;4.5815385742e+003;4.5008974609e+003;4.5646152344e+003;4.5694873047e+003;4.6256411133e+003;4.4671796875e+003;
2.8671875000e+000;4.4550000000e+003;4.4693588867e+003;4.5607690430e+003;4.5092309570e+003;4.4484614258e+003;4.5458974609e+003;4.5455126953e+003;4.5665385742e+003;4.5562822266e+003;4.4723076172e+003;4.5344873047e+003;4.5401284180e+003;4.5951284180e+003;4.4347436523e+003;
2.8750000000e+000;4.4423076172e+003;4.4507690430e+003;4.5325639648e+003;4.4962822266e+003;4.4250000000e+003;4.5216665039e+003;4.5216665039e+003;4.5365385742e+003;4.5225639648e+003;4.4489741211e+003;4.5202563477e+003;4.5135898438e+003;4.5694873047e+003;4.4033334961e+003;
2.8828125000e+000;4.4160258789e+003;4.4243588867e+003;4.5062822266e+003;4.4728203125e+003;4.4034614258e+003;4.5007690430e+003;4.4992309570e+003;4.5100000000e+003;4.4951284180e+003;4.4197436523e+003;4.4903847656e+003;4.4861538086e+003;4.5425639648e+003;4.3767949219e+003;
2.8906250000e+000;4.4264101563e+003;4.4260258789e+003;4.5103847656e+003;4.4725639648e+003;4.4082050781e+003;4.5075639648e+003;4.5005126953e+003;4.5160258789e+003;4.5037177734e+003;4.4334614258e+003;4.4767949219e+003;4.4848715820e+003;4.5494873047e+003;4.3750000000e+003;
2.8984375000e+000;4.3537177734e+003;4.3383334961e+003;4.4287177734e+003;4.3846152344e+003;4.3248715820e+003;4.4289741211e+003;4.4316665039e+003;4.4316665039e+003;4.4244873047e+003;4.3466665039e+003;4.4023076172e+003;4.4017949219e+003;4.4664101563e+003;4.2894873047e+003;
2.9062500000e+000;4.3701284180e+003;4.3584614258e+003;4.4411538086e+003;4.4030771484e+003;4.3446152344e+003;4.4450000000e+003;4.4479487305e+003;4.4480771484e+003;4.4424360352e+003;4.3637177734e+003;4.4237177734e+003;4.4157690430e+003;4.4880771484e+003;4.3056411133e+003;
2.9140625000e+000;4.3644873047e+003;4.3560258789e+003;4.4237177734e+003;4.4120512695e+003;4.3346152344e+003;4.4358974609e+003;4.4321796875e+003;4.4428203125e+003;4.4335898438e+003;4.3546152344e+003;4.4098715820e+003;4.4137177734e+003;4.4802563477e+003;4.2979487305e+003;
2.9218750000e+000;4.3875639648e+003;4.3753847656e+003;4.4425639648e+003;4.4306411133e+003;4.3547436523e+003;4.4506411133e+003;4.4503847656e+003;4.4623076172e+003;4.4535898438e+003;4.3742309570e+003;4.4285898438e+003;4.4383334961e+003;4.4961538086e+003;4.3185898438e+003;
2.9296875000e+000;4.4097436523e+003;4.3928203125e+003;4.4655126953e+003;4.4406411133e+003;4.3717949219e+003;4.4625639648e+003;4.4661538086e+003;4.4858974609e+003;4.4785898438e+003;4.4014101563e+003;4.4555126953e+003;4.4628203125e+003;4.5173076172e+003;4.3388461914e+003;
2.9375000000e+000;4.3714101563e+003;4.3514101563e+003;4.4285898438e+003;4.4008974609e+003;4.3285898438e+003;4.4252563477e+003;4.4260258789e+003;4.4471796875e+003;4.4380771484e+003;4.3620512695e+003;4.4193588867e+003;4.4208974609e+003;4.4811538086e+003;4.2987177734e+003;
2.9453125000e+000;4.3492309570e+003;4.3203847656e+003;4.3939741211e+003;4.3711538086e+003;4.2956411133e+003;4.3939741211e+003;4.3873076172e+003;4.4061538086e+003;4.3934614258e+003;4.3194873047e+003;4.3894873047e+003;4.3817949219e+003;4.4487177734e+003;4.2712822266e+003;
2.9531250000e+000;4.3524360352e+003;4.3220512695e+003;4.3961538086e+003;4.3706411133e+003;4.2985898438e+003;4.3937177734e+003;4.3870512695e+003;4.4087177734e+003;4.3979487305e+003;4.3225639648e+003;4.3852563477e+003;4.3876923828e+003;4.4475639648e+003;4.2744873047e+003;
2.9609375000e+000;4.3001284180e+003;4.2634614258e+003;4.3444873047e+003;4.3208974609e+003;4.2435898438e+003;4.3414101563e+003;4.3373076172e+003;4.3574360352e+003;4.3476923828e+003;4.2665385742e+003;4.3102563477e+003;4.3398715820e+003;4.3871796875e+003;4.2133334961e+003;
2.9687500000e+000;4.3037177734e+003;4.2629487305e+003;4.3444873047e+003;4.3274360352e+003;4.2438461914e+003;4.3426923828e+003;4.3410258789e+003;4.3583334961e+003;4.3471796875e+003;4.2662822266e+003;4.3105126953e+003;4.3406411133e+003;4.3873076172e+003;4.2107690430e+003;
2.9765625000e+000;4.3433334961e+003;4.2957690430e+003;4.3758974609e+003;4.3664101563e+003;4.2766665039e+003;4.3771796875e+003;4.3779487305e+003;4.3971796875e+003;4.3805126953e+003;4.3091025391e+003;4.3776923828e+003;4.3775639648e+003;4.4237177734e+003;4.2529487305e+003;
2.9843750000e+000;4.3264101563e+003;4.2800000000e+003;4.3597436523e+003;4.3453847656e+003;4.2615385742e+003;4.3625639648e+003;4.3632050781e+003;4.3791025391e+003;4.3632050781e+003;4.2914101563e+003;4.3578203125e+003;4.3603847656e+003;4.4062822266e+003;4.2351284180e+003;
2.9921875000e+000;4.3274360352e+003;4.2825639648e+003;4.3608974609e+003;4.3405126953e+003;4.2655126953e+003;4.3643588867e+003;4.3650000000e+003;4.3771796875e+003;4.3642309570e+003;4.2910258789e+003;4.3489741211e+003;4.3592309570e+003;4.4067949219e+003;4.2320512695e+003;
3.0000000000e+000;4.3423076172e+003;4.2969228516e+003;4.3757690430e+003;4.3501284180e+003;4.2819228516e+003;4.3793588867e+003;4.3791025391e+003;4.3903847656e+003;4.3806411133e+003;4.3058974609e+003;4.3552563477e+003;4.3719228516e+003;4.4202563477e+003;4.2430771484e+003;
3.0078125000e+000;4.2992309570e+003;4.2334614258e+003;4.3339741211e+003;4.3098715820e+003;4.2326923828e+003;4.3412822266e+003;4.3441025391e+003;4.3466665039e+003;4.3412822266e+003;4.2570512695e+003;4.3148715820e+003;4.3248715820e+003;4.3661538086e+003;4.1991025391e+003;
3.0156250000e+000;4.2960258789e+003;4.2470512695e+003;4.3207690430e+003;4.3157690430e+003;4.2339741211e+003;4.3350000000e+003;4.3310258789e+003;4.3512822266e+003;4.3479487305e+003;4.2623076172e+003;4.3197436523e+003;4.3298715820e+003;4.3723076172e+003;4.1967949219e+003;
3.0234375000e+000;4.2934614258e+003;4.2430771484e+003;4.3160258789e+003;4.3069228516e+003;4.2292309570e+003;4.3276923828e+003;4.3264101563e+003;4.3439741211e+003;4.3374360352e+003;4.2516665039e+003;4.3121796875e+003;4.3216665039e+003;4.3621796875e+003;4.1898715820e+003;
3.0312500000e+000;4.3398715820e+003;4.2820512695e+003;4.3619228516e+003;4.3333334961e+003;4.2669228516e+003;4.3619228516e+003;4.3661538086e+003;4.3875639648e+003;4.3758974609e+003;4.2965385742e+003;4.3408974609e+003;4.3565385742e+003;4.4043588867e+003;4.2283334961e+003;
3.0390625000e+000;4.2906411133e+003;4.2341025391e+003;4.3143588867e+003;4.3011538086e+003;4.2141025391e+003;4.3123076172e+003;4.3152563477e+003;4.3308974609e+003;4.3252563477e+003;4.2430771484e+003;4.2864101563e+003;4.2997436523e+003;4.3555126953e+003;4.1760258789e+003;
3.0468750000e+000;4.3002563477e+003;4.2420512695e+003;4.3262822266e+003;4.3105126953e+003;4.2237177734e+003;4.3194873047e+003;4.3229487305e+003;4.3405126953e+003;4.3324360352e+003;4.2520512695e+003;4.2991025391e+003;4.3100000000e+003;4.3612822266e+003;4.1847436523e+003;
3.0546875000e+000;4.2524360352e+003;4.1824360352e+003;4.2794873047e+003;4.2542309570e+003;4.1689741211e+003;4.2719228516e+003;4.2762822266e+003;4.2902563477e+003;4.2775639648e+003;4.2001284180e+003;4.2508974609e+003;4.2611538086e+003;4.3014101563e+003;4.1293588867e+003;
3.0625000000e+000;4.2382050781e+003;4.1642309570e+003;4.2606411133e+003;4.2339741211e+003;4.1528203125e+003;4.2579487305e+003;4.2626923828e+003;4.2714101563e+003;4.2612822266e+003;4.1821796875e+003;4.2352563477e+003;4.2430771484e+003;4.2833334961e+003;4.1115385742e+003;
3.0703125000e+000;4.2267949219e+003;4.1566665039e+003;4.2460258789e+003;4.2235898438e+003;4.1469228516e+003;4.2498715820e+003;4.2488461914e+003;4.2611538086e+003;4.2593588867e+003;4.1783334961e+003;4.2207690430e+003;4.2312822266e+003;4.2833334961e+003;4.1033334961e+003;
3.0781250000e+000;4.1914101563e+003;4.1182050781e+003;4.2108974609e+003;4.1953847656e+003;4.1088461914e+003;4.2146152344e+003;4.2130771484e+003;4.2230771484e+003;4.2192309570e+003;4.1396152344e+003;4.1788461914e+003;4.1935898438e+003;4.2464101563e+003;4.0635898438e+003;
3.0859375000e+000;4.2101284180e+003;4.1316665039e+003;4.2146152344e+003;4.2158974609e+003;4.1208974609e+003;4.2216665039e+003;4.2238461914e+003;4.2247436523e+003;4.2187177734e+003;4.1443588867e+003;4.1846152344e+003;4.1982050781e+003;4.2487177734e+003;4.0678205566e+003;
3.0937500000e+000;4.2442309570e+003;4.1666665039e+003;4.2406411133e+003;4.2442309570e+003;4.1548715820e+003;4.2489741211e+003;4.2520512695e+003;4.2538461914e+003;4.2483334961e+003;4.1766665039e+003;4.2167949219e+003;4.2267949219e+003;4.2757690430e+003;4.0987177734e+003;
3.1015625000e+000;4.2180771484e+003;4.1374360352e+003;4.2156411133e+003;4.2083334961e+003;4.1258974609e+003;4.2185898438e+003;4.2171796875e+003;4.2232050781e+003;4.2169228516e+003;4.1430771484e+003;4.1871796875e+003;4.1914101563e+003;4.2407690430e+003;4.0687180176e+003;
3.1093750000e+000;4.2357690430e+003;4.1534614258e+003;4.2339741211e+003;4.2241025391e+003;4.1398715820e+003;4.2320512695e+003;4.2303847656e+003;4.2387177734e+003;4.2329487305e+003;4.1578203125e+003;4.2003847656e+003;4.2087177734e+003;4.2578203125e+003;4.0838461914e+003;
3.1171875000e+000;4.2621796875e+003;4.1785898438e+003;4.2600000000e+003;4.2474360352e+003;4.1625639648e+003;4.2537177734e+003;4.2524360352e+003;4.2653847656e+003;4.2606411133e+003;4.1851284180e+003;4.2219228516e+003;4.2391025391e+003;4.2843588867e+003;4.1091025391e+003;
3.1250000000e+000;4.2661538086e+003;4.1810258789e+003;4.2643588867e+003;4.2479487305e+003;4.1643588867e+003;4.2555126953e+003;4.2548715820e+003;4.2717949219e+003;4.2674360352e+003;4.1916665039e+003;4.2208974609e+003;4.2494873047e+003;4.2884614258e+003;4.1134614258e+003;
3.1328125000e+000;4.2294873047e+003;4.1397436523e+003;4.2200000000e+003;4.2175639648e+003;4.1343588867e+003;4.2170512695e+003;4.2161538086e+003;4.2325639648e+003;4.2246152344e+003;4.1526923828e+003;4.1837177734e+003;4.2007690430e+003;4.2452563477e+003;4.0689743652e+003;
3.1406250000e+000;4.2056411133e+003;4.1135898438e+003;4.1926923828e+003;4.1994873047e+003;4.1083334961e+003;4.1930771484e+003;4.1905126953e+003;4.2080771484e+003;4.1997436523e+003;4.1282050781e+003;4.1655126953e+003;4.1748715820e+003;4.2171796875e+003;4.0442307129e+003;
3.1484375000e+000;4.1657690430e+003;4.0614101563e+003;4.1535898438e+003;4.1407690430e+003;4.0552563477e+003;4.1461538086e+003;4.1464101563e+003;4.1567949219e+003;4.1471796875e+003;4.0721794434e+003;4.1032050781e+003;4.1334614258e+003;4.1646152344e+003;3.9976923828e+003;
3.1562500000e+000;4.1452563477e+003;4.0419230957e+003;4.1287177734e+003;4.1238461914e+003;4.0306411133e+003;4.1225639648e+003;4.1230771484e+003;4.1351284180e+003;4.1221796875e+003;4.0548718262e+003;4.0921794434e+003;4.1162822266e+003;4.1367949219e+003;3.9760256348e+003;
3.1640625000e+000;4.1229487305e+003;4.0182050781e+003;4.0998715820e+003;4.1066665039e+003;4.0074357910e+003;4.1005126953e+003;4.1006411133e+003;4.1074360352e+003;4.0938461914e+003;4.0266667480e+003;4.0716667480e+003;4.0888461914e+003;4.1098715820e+003;3.9519230957e+003;
3.1718750000e+000;4.1880771484e+003;4.0867949219e+003;4.1635898438e+003;4.1642309570e+003;4.0730769043e+003;4.1592309570e+003;4.1592309570e+003;4.1676923828e+003;4.1547436523e+003;4.0944870605e+003;4.1292309570e+003;4.1471796875e+003;4.1802563477e+003;4.0158974609e+003;
3.1796875000e+000;4.1256411133e+003;4.0171794434e+003;4.0961538086e+003;4.0911538086e+003;4.0026923828e+003;4.0943588867e+003;4.0901281738e+003;4.0988461914e+003;4.0850000000e+003;4.0247436523e+003;4.0529487305e+003;4.0802563477e+003;4.1120512695e+003;3.9384614258e+003;
3.1875000000e+000;4.1200000000e+003;4.0069230957e+003;4.0838461914e+003;4.0848718262e+003;3.9957692871e+003;4.0869230957e+003;4.0817949219e+003;4.0925642090e+003;4.0811538086e+003;4.0179487305e+003;4.0383332520e+003;4.0705129395e+003;4.1066665039e+003;3.9308974609e+003;
3.1953125000e+000;4.0388461914e+003;3.9100000000e+003;3.9984614258e+003;4.0047436523e+003;3.9089743652e+003;4.0105129395e+003;3.9993588867e+003;4.0114101563e+003;4.0035898438e+003;3.9274357910e+003;3.9476923828e+003;3.9819230957e+003;4.0085898438e+003;3.8457692871e+003;
3.2031250000e+000;4.0565385742e+003;3.9253845215e+003;4.0146154785e+003;4.0194870605e+003;3.9258974609e+003;4.0234614258e+003;4.0135898438e+003;4.0220512695e+003;4.0151281738e+003;3.9391025391e+003;3.9674357910e+003;3.9941025391e+003;4.0185898438e+003;3.8560256348e+003;
3.2109375000e+000;4.1096152344e+003;3.9802563477e+003;4.0639743652e+003;4.0694870605e+003;3.9806411133e+003;4.0673076172e+003;4.0625642090e+003;4.0693588867e+003;4.0634614258e+003;3.9946154785e+003;4.0214101563e+003;4.0438461914e+003;4.0696154785e+003;3.9039743652e+003;
3.2187500000e+000;4.0932050781e+003;3.9661538086e+003;4.0458974609e+003;4.0546154785e+003;3.9648718262e+003;4.0521794434e+003;4.0491025391e+003;4.0544870605e+003;4.0473076172e+003;3.9810256348e+003;4.0010256348e+003;4.0291025391e+003;4.0537180176e+003;3.8906411133e+003;
3.2265625000e+000;4.0969228516e+003;3.9705129395e+003;4.0388461914e+003;4.0552563477e+003;3.9673076172e+003;4.0539743652e+003;4.0489743652e+003;4.0520512695e+003;4.0421794434e+003;3.9812819824e+003;3.9976923828e+003;4.0229487305e+003;4.0534614258e+003;3.8919230957e+003;
3.2343750000e+000;4.1039741211e+003;3.9723076172e+003;4.0453845215e+003;4.0621794434e+003;3.9715385742e+003;4.0576923828e+003;4.0507692871e+003;4.0556411133e+003;4.0467949219e+003;3.9878205566e+003;4.0071794434e+003;4.0270512695e+003;4.0598718262e+003;3.8947436523e+003;
3.2421875000e+000;4.0855129395e+003;3.9478205566e+003;4.0282050781e+003;4.0465385742e+003;3.9500000000e+003;4.0371794434e+003;4.0308974609e+003;4.0343588867e+003;4.0261538086e+003;3.9669230957e+003;3.9901281738e+003;4.0084614258e+003;4.0396154785e+003;3.8732050781e+003;
3.2500000000e+000;4.0661538086e+003;3.9256411133e+003;4.0091025391e+003;4.0308974609e+003;3.9287180176e+003;4.0162819824e+003;4.0132050781e+003;4.0132050781e+003;4.0044870605e+003;3.9434614258e+003;3.9700000000e+003;3.9901281738e+003;4.0165385742e+003;3.8529487305e+003;
3.2578125000e+000;4.0625642090e+003;3.9308974609e+003;3.9930769043e+003;4.0120512695e+003;3.9191025391e+003;4.0100000000e+003;4.0043588867e+003;4.0157692871e+003;3.9962819824e+003;3.9367949219e+003;3.9510256348e+003;3.9828205566e+003;4.0000000000e+003;3.8462819824e+003;
3.2656250000e+000;4.0205129395e+003;3.8811538086e+003;3.9528205566e+003;3.9619230957e+003;3.8752563477e+003;3.9682050781e+003;3.9630769043e+003;3.9685898438e+003;3.9505129395e+003;3.8894870605e+003;3.9057692871e+003;3.9347436523e+003;3.9580769043e+003;3.7985898438e+003;
3.2734375000e+000;4.0400000000e+003;3.8882050781e+003;3.9710256348e+003;3.9771794434e+003;3.8950000000e+003;3.9801281738e+003;3.9788461914e+003;3.9802563477e+003;3.9660256348e+003;3.9030769043e+003;3.9202563477e+003;3.9525642090e+003;3.9720512695e+003;3.8157692871e+003;
3.2812500000e+000;3.9841025391e+003;3.8384614258e+003;3.9006411133e+003;3.9403845215e+003;3.8365385742e+003;3.9294870605e+003;3.9156411133e+003;3.9219230957e+003;3.9087180176e+003;3.8452563477e+003;3.8589743652e+003;3.8983332520e+003;3.9003845215e+003;3.7565385742e+003;
3.2890625000e+000;3.9966667480e+003;3.8521794434e+003;3.9137180176e+003;3.9453845215e+003;3.8476923828e+003;3.9391025391e+003;3.9276923828e+003;3.9328205566e+003;3.9233332520e+003;3.8605129395e+003;3.8771794434e+003;3.9066667480e+003;3.9117949219e+003;3.7661538086e+003;
3.2968750000e+000;3.9847436523e+003;3.8350000000e+003;3.9039743652e+003;3.9207692871e+003;3.8315385742e+003;3.9167949219e+003;3.9175642090e+003;3.9196154785e+003;3.9152563477e+003;3.8501281738e+003;3.8647436523e+003;3.8884614258e+003;3.9012819824e+003;3.7485898438e+003;
3.3046875000e+000;4.0415385742e+003;3.8830769043e+003;3.9456411133e+003;3.9798718262e+003;3.8789743652e+003;3.9665385742e+003;3.9620512695e+003;3.9735898438e+003;3.9711538086e+003;3.9064101563e+003;3.9185898438e+003;3.9424357910e+003;3.9629487305e+003;3.8003845215e+003;
3.3125000000e+000;4.0176923828e+003;3.8629487305e+003;3.9261538086e+003;3.9560256348e+003;3.8539743652e+003;3.9498718262e+003;3.9423076172e+003;3.9593588867e+003;3.9570512695e+003;3.8934614258e+003;3.9008974609e+003;3.9271794434e+003;3.9455129395e+003;3.7834614258e+003;
3.3203125000e+000;3.9739743652e+003;3.8233332520e+003;3.8880769043e+003;3.9091025391e+003;3.8117949219e+003;3.9138461914e+003;3.9048718262e+003;3.9224357910e+003;3.9188461914e+003;3.8555129395e+003;3.8570512695e+003;3.8888461914e+003;3.9055129395e+003;3.7455129395e+003;
3.3281250000e+000;3.9696154785e+003;3.8184614258e+003;3.8851281738e+003;3.8920512695e+003;3.8161538086e+003;3.9038461914e+003;3.8994870605e+003;3.9101281738e+003;3.9057692871e+003;3.8426923828e+003;3.8403845215e+003;3.8770512695e+003;3.8956411133e+003;3.7402563477e+003;
3.3359375000e+000;3.9764101563e+003;3.8138461914e+003;3.8853845215e+003;3.9096154785e+003;3.8282050781e+003;3.8983332520e+003;3.8983332520e+003;3.9032050781e+003;3.9012819824e+003;3.8346154785e+003;3.8475642090e+003;3.8812819824e+003;3.8948718262e+003;3.7392307129e+003;
3.3437500000e+000;3.9764101563e+003;3.8146154785e+003;3.8838461914e+003;3.9116667480e+003;3.8280769043e+003;3.9012819824e+003;3.9011538086e+003;3.9024357910e+003;3.9003845215e+003;3.8328205566e+003;3.8483332520e+003;3.8825642090e+003;3.8939743652e+003;3.7385898438e+003;
3.3515625000e+000;4.0064101563e+003;3.8471794434e+003;3.9123076172e+003;3.9382050781e+003;3.8578205566e+003;3.9321794434e+003;3.9314101563e+003;3.9324357910e+003;3.9303845215e+003;3.8647436523e+003;3.8792307129e+003;3.9119230957e+003;3.9215385742e+003;3.7688461914e+003;
3.3593750000e+000;4.0392307129e+003;3.8796154785e+003;3.9433332520e+003;3.9601281738e+003;3.8842307129e+003;3.9585898438e+003;3.9579487305e+003;3.9661538086e+003;3.9610256348e+003;3.9007692871e+003;3.9096154785e+003;3.9387180176e+003;3.9419230957e+003;3.7994870605e+003;
3.3671875000e+000;4.0106411133e+003;3.8466667480e+003;3.9134614258e+003;3.9296154785e+003;3.8497436523e+003;3.9256411133e+003;3.9282050781e+003;3.9353845215e+003;3.9275642090e+003;3.8655129395e+003;3.8739743652e+003;3.9044870605e+003;3.9060256348e+003;3.7653845215e+003;
3.3750000000e+000;3.9855129395e+003;3.8175642090e+003;3.8862819824e+003;3.9051281738e+003;3.8206411133e+003;3.8973076172e+003;3.9043588867e+003;3.9069230957e+003;3.8973076172e+003;3.8320512695e+003;3.8416667480e+003;3.8746154785e+003;3.8774357910e+003;3.7344870605e+003;
3.3828125000e+000;3.9491025391e+003;3.7729487305e+003;3.8492307129e+003;3.8615385742e+003;3.7864101563e+003;3.8734614258e+003;3.8717949219e+003;3.8689743652e+003;3.8688461914e+003;3.7997436523e+003;3.8108974609e+003;3.8441025391e+003;3.8376923828e+003;3.6991025391e+003;
3.3906250000e+000;3.9757692871e+003;3.7989743652e+003;3.8730769043e+003;3.8850000000e+003;3.8137180176e+003;3.8961538086e+003;3.8971794434e+003;3.8948718262e+003;3.8955129395e+003;3.8270512695e+003;3.8320512695e+003;3.8633332520e+003;3.8667949219e+003;3.7201281738e+003;
3.3984375000e+000;3.9832050781e+003;3.8041025391e+003;3.8792307129e+003;3.8952563477e+003;3.8256411133e+003;3.9074357910e+003;3.9058974609e+003;3.9050000000e+003;3.9073076172e+003;3.8426923828e+003;3.8234614258e+003;3.8712819824e+003;3.8692307129e+003;3.7228205566e+003;
3.4062500000e+000;4.0248718262e+003;3.8492307129e+003;3.9119230957e+003;3.9352563477e+003;3.8583332520e+003;3.9269230957e+003;3.9264101563e+003;3.9206411133e+003;3.9317949219e+003;3.8688461914e+003;3.8751281738e+003;3.9075642090e+003;3.8950000000e+003;3.7646154785e+003;
3.4140625000e+000;4.0285898438e+003;3.8567949219e+003;3.9182050781e+003;3.9362819824e+003;3.8602563477e+003;3.9248718262e+003;3.9255129395e+003;3.9265385742e+003;3.9355129395e+003;3.8764101563e+003;3.8839743652e+003;3.9084614258e+003;3.9083332520e+003;3.7692307129e+003;
3.4218750000e+000;3.9848718262e+003;3.8064101563e+003;3.8865385742e+003;3.8779487305e+003;3.8119230957e+003;3.8784614258e+003;3.8808974609e+003;3.8801281738e+003;3.8796154785e+003;3.8237180176e+003;3.8220512695e+003;3.8564101563e+003;3.8716667480e+003;3.7215385742e+003;
3.4296875000e+000;3.9493588867e+003;3.7701281738e+003;3.8443588867e+003;3.8706411133e+003;3.7819230957e+003;3.8510256348e+003;3.8502563477e+003;3.8507692871e+003;3.8496154785e+003;3.7923076172e+003;3.7842307129e+003;3.8361538086e+003;3.8197436523e+003;3.6898718262e+003;
