Time (s);AF3;F7;F3;FC5;T7;P7;O1;O2;P8;T8;FC6;F4;F8;AF4;Sampling Rate
0.0000000000e+000;4.2203847656e+003;4.2380771484e+003;4.2285898438e+003;4.2167949219e+003;4.2417949219e+003;4.2082050781e+003;4.2312822266e+003;4.2242309570e+003;4.2376923828e+003;4.2521796875e+003;4.2393588867e+003;4.2519228516e+003;4.2505126953e+003;4.2373076172e+003;128
7.8125000000e-003;4.2034614258e+003;4.2244873047e+003;4.2139741211e+003;4.2030771484e+003;4.2289741211e+003;4.1889741211e+003;4.2084614258e+003;4.1876923828e+003;4.1982050781e+003;4.2212822266e+003;4.2162822266e+003;4.2311538086e+003;4.2274360352e+003;4.2176923828e+003;
1.5625000000e-002;4.2273076172e+003;4.2514101563e+003;4.2380771484e+003;4.2257690430e+003;4.2552563477e+003;4.2085898438e+003;4.2287177734e+003;4.2073076172e+003;4.2198715820e+003;4.2452563477e+003;4.2420512695e+003;4.2539741211e+003;4.2530771484e+003;4.2433334961e+003;
2.3437500000e-002;4.2370512695e+003;4.2637177734e+003;4.2506411133e+003;4.2352563477e+003;4.2644873047e+003;4.2165385742e+003;4.2329487305e+003;4.2170512695e+003;4.2325639648e+003;4.2634614258e+003;4.2578203125e+003;4.2693588867e+003;4.2700000000e+003;4.2630771484e+003;
3.1250000000e-002;4.2243588867e+003;4.2498715820e+003;4.2387177734e+003;4.2239741211e+003;4.2498715820e+003;4.2043588867e+003;4.2179487305e+003;4.2038461914e+003;4.2202563477e+003;4.2524360352e+003;4.2464101563e+003;4.2588461914e+003;4.2598715820e+003;4.2532050781e+003;
3.9062500000e-002;4.2310258789e+003;4.2560258789e+003;4.2451284180e+003;4.2317949219e+003;4.2558974609e+003;4.2094873047e+003;4.2217949219e+003;4.2100000000e+003;4.2289741211e+003;4.2610258789e+003;4.2548715820e+003;4.2667949219e+003;4.2692309570e+003;4.2607690430e+003;
4.6875000000e-002;4.1970512695e+003;4.2316665039e+003;4.2287177734e+003;4.2121796875e+003;4.2355126953e+003;4.1884614258e+003;4.2156411133e+003;4.2225639648e+003;4.2391025391e+003;4.2516665039e+003;4.2411538086e+003;4.2485898438e+003;4.2515385742e+003;4.2380771484e+003;
5.4687500000e-002;4.2121796875e+003;4.2462822266e+003;4.2416665039e+003;4.2247436523e+003;4.2487177734e+003;4.2023076172e+003;4.2335898438e+003;4.2416665039e+003;4.2516665039e+003;4.2642309570e+003;4.2529487305e+003;4.2596152344e+003;4.2637177734e+003;4.2507690430e+003;
6.2500000000e-002;4.2073076172e+003;4.2467949219e+003;4.2393588867e+003;4.2274360352e+003;4.2441025391e+003;4.2076923828e+003;4.2391025391e+003;4.2515385742e+003;4.2525639648e+003;4.2656411133e+003;4.2444873047e+003;4.2583334961e+003;4.2532050781e+003;4.2389741211e+003;
7.0312500000e-002;4.2400000000e+003;4.2837177734e+003;4.2769228516e+003;4.2615385742e+003;4.2925639648e+003;4.2510258789e+003;4.2856411133e+003;4.3003847656e+003;4.3029487305e+003;4.3066665039e+003;4.2855126953e+003;4.2961538086e+003;4.2982050781e+003;4.2810258789e+003;
7.8125000000e-002;4.2211538086e+003;4.2632050781e+003;4.2582050781e+003;4.2410258789e+003;4.2733334961e+003;4.2347436523e+003;4.2673076172e+003;4.2825639648e+003;4.2848715820e+003;4.2880771484e+003;4.2676923828e+003;4.2800000000e+003;4.2784614258e+003;4.2652563477e+003;
8.5937500000e-002;4.1898715820e+003;4.2294873047e+003;4.2210258789e+003;4.2058974609e+003;4.2317949219e+003;4.1993588867e+003;4.2235898438e+003;4.2279487305e+003;4.2301284180e+003;4.2408974609e+003;4.2233334961e+003;4.2438461914e+003;4.2335898438e+003;4.2301284180e+003;
9.3750000000e-002;4.2146152344e+003;4.2543588867e+003;4.2447436523e+003;4.2283334961e+003;4.2543588867e+003;4.2179487305e+003;4.2408974609e+003;4.2461538086e+003;4.2488461914e+003;4.2632050781e+003;4.2460258789e+003;4.2667949219e+003;4.2571796875e+003;4.2541025391e+003;
1.0156250000e-001;4.1851284180e+003;4.2178203125e+003;4.2141025391e+003;4.1939741211e+003;4.2170512695e+003;4.1807690430e+003;4.2024360352e+003;4.1948715820e+003;4.1955126953e+003;4.2130771484e+003;4.2089741211e+003;4.2283334961e+003;4.2161538086e+003;4.2198715820e+003;
1.0937500000e-001;4.2002563477e+003;4.2323076172e+003;4.2276923828e+003;4.2082050781e+003;4.2298715820e+003;4.1921796875e+003;4.2144873047e+003;4.2007690430e+003;4.2010258789e+003;4.2215385742e+003;4.2212822266e+003;4.2411538086e+003;4.2294873047e+003;4.2335898438e+003;
1.1718750000e-001;4.2242309570e+003;4.2558974609e+003;4.2525639648e+003;4.2334614258e+003;4.2492309570e+003;4.2096152344e+003;4.2274360352e+003;4.2150000000e+003;4.2162822266e+003;4.2442309570e+003;4.2448715820e+003;4.2688461914e+003;4.2576923828e+003;4.2597436523e+003;
1.2500000000e-001;4.2056411133e+003;4.2360258789e+003;4.2344873047e+003;4.2147436523e+003;4.2280771484e+003;4.1887177734e+003;4.2033334961e+003;4.1919228516e+003;4.1947436523e+003;4.2250000000e+003;4.2261538086e+003;4.2506411133e+003;4.2402563477e+003;4.2415385742e+003;
1.3281250000e-001;4.1920512695e+003;4.2216665039e+003;4.2194873047e+003;4.1991025391e+003;4.2123076172e+003;4.1708974609e+003;4.1847436523e+003;4.1728203125e+003;4.1780771484e+003;4.2103847656e+003;4.2124360352e+003;4.2347436523e+003;4.2261538086e+003;4.2264101563e+003;
1.4062500000e-001;4.1979487305e+003;4.2282050781e+003;4.2233334961e+003;4.2024360352e+003;4.2166665039e+003;4.1706411133e+003;4.1862822266e+003;4.1762822266e+003;4.1841025391e+003;4.2185898438e+003;4.2203847656e+003;4.2387177734e+003;4.2323076172e+003;4.2305126953e+003;
1.4843750000e-001;4.1610258789e+003;4.1903847656e+003;4.1876923828e+003;4.1710258789e+003;4.1814101563e+003;4.1406411133e+003;4.1566665039e+003;4.1721796875e+003;4.1833334961e+003;4.1996152344e+003;4.1991025391e+003;4.2111538086e+003;4.2052563477e+003;4.1991025391e+003;
1.5625000000e-001;4.1697436523e+003;4.1978203125e+003;4.1941025391e+003;4.1785898438e+003;4.1929487305e+003;4.1516665039e+003;4.1674360352e+003;4.1848715820e+003;4.1965385742e+003;4.2091025391e+003;4.2069228516e+003;4.2171796875e+003;4.2132050781e+003;4.2070512695e+003;
1.6406250000e-001;4.0888461914e+003;4.1084614258e+003;4.1107690430e+003;4.0996152344e+003;4.1117949219e+003;4.0757692871e+003;4.0935898438e+003;4.1170512695e+003;4.1221796875e+003;4.1287177734e+003;4.1205126953e+003;4.1330771484e+003;4.1234614258e+003;4.1237177734e+003;
1.7187500000e-001;4.1039741211e+003;4.1212822266e+003;4.1197436523e+003;4.1097436523e+003;4.1230771484e+003;4.0967949219e+003;4.1183334961e+003;4.1296152344e+003;4.1270512695e+003;4.1237177734e+003;4.1211538086e+003;4.1352563477e+003;4.1260258789e+003;4.1269228516e+003;
1.7968750000e-001;4.1251284180e+003;4.1453847656e+003;4.1421796875e+003;4.1315385742e+003;4.1491025391e+003;4.1261538086e+003;4.1466665039e+003;4.1579487305e+003;4.1543588867e+003;4.1503847656e+003;4.1425639648e+003;4.1580771484e+003;4.1466665039e+003;4.1483334961e+003;
1.8750000000e-001;4.1096152344e+003;4.1252563477e+003;4.1305126953e+003;4.1220512695e+003;4.1461538086e+003;4.1261538086e+003;4.1497436523e+003;4.1570512695e+003;4.1537177734e+003;4.1442309570e+003;4.1293588867e+003;4.1483334961e+003;4.1326923828e+003;4.1280771484e+003;
1.9531250000e-001;4.1247436523e+003;4.1370512695e+003;4.1432050781e+003;4.1339741211e+003;4.1588461914e+003;4.1371796875e+003;4.1607690430e+003;4.1691025391e+003;4.1679487305e+003;4.1585898438e+003;4.1456411133e+003;4.1619228516e+003;4.1485898438e+003;4.1419228516e+003;
2.0312500000e-001;4.0908974609e+003;4.0989741211e+003;4.1042309570e+003;4.0946154785e+003;4.1146152344e+003;4.0993588867e+003;4.1176923828e+003;4.1229487305e+003;4.1226923828e+003;4.1214101563e+003;4.1115385742e+003;4.1260258789e+003;4.1143588867e+003;4.1105126953e+003;
2.1093750000e-001;4.0632050781e+003;4.0700000000e+003;4.0743588867e+003;4.0657692871e+003;4.0838461914e+003;4.0692307129e+003;4.0869230957e+003;4.0861538086e+003;4.0841025391e+003;4.0887180176e+003;4.0820512695e+003;4.0965385742e+003;4.0855129395e+003;4.0830769043e+003;
2.1875000000e-001;4.0996152344e+003;4.1069228516e+003;4.1057690430e+003;4.0996152344e+003;4.1189741211e+003;4.0842307129e+003;4.1055126953e+003;4.0961538086e+003;4.0939743652e+003;4.1143588867e+003;4.1148715820e+003;4.1267949219e+003;4.1196152344e+003;4.1187177734e+003;
2.2656250000e-001;4.0994873047e+003;4.1069228516e+003;4.1032050781e+003;4.0983334961e+003;4.1155126953e+003;4.0794870605e+003;4.0992309570e+003;4.0864101563e+003;4.0852563477e+003;4.1087177734e+003;4.1097436523e+003;4.1238461914e+003;4.1158974609e+003;4.1156411133e+003;
2.3437500000e-001;4.1019228516e+003;4.1091025391e+003;4.1019228516e+003;4.0978203125e+003;4.1138461914e+003;4.0773076172e+003;4.0958974609e+003;4.0783332520e+003;4.0773076172e+003;4.1037177734e+003;4.1057690430e+003;4.1221796875e+003;4.1142309570e+003;4.1137177734e+003;
2.4218750000e-001;4.1229487305e+003;4.1302563477e+003;4.1197436523e+003;4.1146152344e+003;4.1326923828e+003;4.0924357910e+003;4.1108974609e+003;4.0915385742e+003;4.0900000000e+003;4.1198715820e+003;4.1233334961e+003;4.1403847656e+003;4.1335898438e+003;4.1320512695e+003;
2.5000000000e-001;4.1371796875e+003;4.1453847656e+003;4.1421796875e+003;4.1310258789e+003;4.1467949219e+003;4.0989741211e+003;4.1121796875e+003;4.1152563477e+003;4.1158974609e+003;4.1420512695e+003;4.1478203125e+003;4.1642309570e+003;4.1460258789e+003;4.1502563477e+003;
2.5781250000e-001;4.2023076172e+003;4.2098715820e+003;4.2038461914e+003;4.1867949219e+003;4.2105126953e+003;4.1662822266e+003;4.1873076172e+003;4.2138461914e+003;4.2129487305e+003;4.2297436523e+003;4.2138461914e+003;4.2310258789e+003;4.2143588867e+003;4.2148715820e+003;
2.6562500000e-001;4.1762822266e+003;4.1853847656e+003;4.1802563477e+003;4.1651284180e+003;4.1882050781e+003;4.1489741211e+003;4.1707690430e+003;4.1975639648e+003;4.1941025391e+003;4.2074360352e+003;4.1925639648e+003;4.2082050781e+003;4.1938461914e+003;4.1921796875e+003;
2.7343750000e-001;4.1987177734e+003;4.2164101563e+003;4.2037177734e+003;4.1934614258e+003;4.2232050781e+003;4.1846152344e+003;4.2064101563e+003;4.2306411133e+003;4.2220512695e+003;4.2324360352e+003;4.2185898438e+003;4.2302563477e+003;4.2187177734e+003;4.2160258789e+003;
2.8125000000e-001;4.2179487305e+003;4.2389741211e+003;4.2241025391e+003;4.2139741211e+003;4.2475639648e+003;4.2088461914e+003;4.2298715820e+003;4.2541025391e+003;4.2425639648e+003;4.2547436523e+003;4.2364101563e+003;4.2489741211e+003;4.2352563477e+003;4.2352563477e+003;
2.8906250000e-001;4.2038461914e+003;4.2270512695e+003;4.2148715820e+003;4.2030771484e+003;4.2389741211e+003;4.2084614258e+003;4.2297436523e+003;4.2369228516e+003;4.2201284180e+003;4.2373076172e+003;4.2115385742e+003;4.2292309570e+003;4.2129487305e+003;4.2165385742e+003;
2.9687500000e-001;4.2666665039e+003;4.2930771484e+003;4.2828203125e+003;4.2682050781e+003;4.3074360352e+003;4.2721796875e+003;4.2889741211e+003;4.2935898438e+003;4.2785898438e+003;4.2993588867e+003;4.2776923828e+003;4.2920512695e+003;4.2860258789e+003;4.2815385742e+003;
3.0468750000e-001;4.2474360352e+003;4.2719228516e+003;4.2650000000e+003;4.2507690430e+003;4.2891025391e+003;4.2533334961e+003;4.2687177734e+003;4.2726923828e+003;4.2580771484e+003;4.2783334961e+003;4.2583334961e+003;4.2728203125e+003;4.2675639648e+003;4.2630771484e+003;
3.1250000000e-001;4.2106411133e+003;4.2451284180e+003;4.2319228516e+003;4.2182050781e+003;4.2574360352e+003;4.2210258789e+003;4.2379487305e+003;4.2339741211e+003;4.2212822266e+003;4.2478203125e+003;4.2310258789e+003;4.2426923828e+003;4.2350000000e+003;4.2326923828e+003;
3.2031250000e-001;4.1861538086e+003;4.2226923828e+003;4.2092309570e+003;4.1952563477e+003;4.2312822266e+003;4.1978203125e+003;4.2128203125e+003;4.2053847656e+003;4.1926923828e+003;4.2208974609e+003;4.2084614258e+003;4.2226923828e+003;4.2112822266e+003;4.2112822266e+003;
3.2812500000e-001;4.1921796875e+003;4.2212822266e+003;4.2134614258e+003;4.1980771484e+003;4.2285898438e+003;4.1906411133e+003;4.2046152344e+003;4.1888461914e+003;4.1762822266e+003;4.2057690430e+003;4.2053847656e+003;4.2262822266e+003;4.2114101563e+003;4.2146152344e+003;
3.3593750000e-001;4.2401284180e+003;4.2656411133e+003;4.2614101563e+003;4.2426923828e+003;4.2734614258e+003;4.2274360352e+003;4.2421796875e+003;4.2288461914e+003;4.2162822266e+003;4.2489741211e+003;4.2510258789e+003;4.2729487305e+003;4.2576923828e+003;4.2610258789e+003;
3.4375000000e-001;4.2350000000e+003;4.2620512695e+003;4.2673076172e+003;4.2392309570e+003;4.2633334961e+003;4.2153847656e+003;4.2283334961e+003;4.2332050781e+003;4.2183334961e+003;4.2584614258e+003;4.2587177734e+003;4.2838461914e+003;4.2597436523e+003;4.2658974609e+003;
3.5156250000e-001;4.2267949219e+003;4.2539741211e+003;4.2582050781e+003;4.2293588867e+003;4.2525639648e+003;4.2034614258e+003;4.2201284180e+003;4.2262822266e+003;4.2117949219e+003;4.2497436523e+003;4.2502563477e+003;4.2755126953e+003;4.2508974609e+003;4.2571796875e+003;
3.5937500000e-001;4.2582050781e+003;4.2853847656e+003;4.2873076172e+003;4.2571796875e+003;4.2825639648e+003;4.2276923828e+003;4.2500000000e+003;4.2600000000e+003;4.2470512695e+003;4.2815385742e+003;4.2805126953e+003;4.3042309570e+003;4.2812822266e+003;4.2864101563e+003;
3.6718750000e-001;4.2991025391e+003;4.3269228516e+003;4.3275639648e+003;4.2962822266e+003;4.3241025391e+003;4.2643588867e+003;4.2907690430e+003;4.3080771484e+003;4.2966665039e+003;4.3271796875e+003;4.3223076172e+003;4.3442309570e+003;4.3219228516e+003;4.3260258789e+003;
3.7500000000e-001;4.2528203125e+003;4.2939741211e+003;4.2887177734e+003;4.2697436523e+003;4.2980771484e+003;4.2491025391e+003;4.2691025391e+003;4.2892309570e+003;4.2778203125e+003;4.2987177734e+003;4.2869228516e+003;4.3082050781e+003;4.2833334961e+003;4.2873076172e+003;
3.8281250000e-001;4.2610258789e+003;4.3028203125e+003;4.2938461914e+003;4.2778203125e+003;4.3088461914e+003;4.2585898438e+003;4.2765385742e+003;4.2974360352e+003;4.2847436523e+003;4.3070512695e+003;4.2944873047e+003;4.3155126953e+003;4.2934614258e+003;4.2932050781e+003;
3.9062500000e-001;4.2520512695e+003;4.2929487305e+003;4.2841025391e+003;4.2715385742e+003;4.3044873047e+003;4.2592309570e+003;4.2720512695e+003;4.2893588867e+003;4.2752563477e+003;4.2894873047e+003;4.2755126953e+003;4.2978203125e+003;4.2782050781e+003;4.2679487305e+003;
3.9843750000e-001;4.3224360352e+003;4.3778203125e+003;4.3646152344e+003;4.3488461914e+003;4.3860258789e+003;4.3416665039e+003;4.3573076172e+003;4.3669228516e+003;4.3608974609e+003;4.3770512695e+003;4.3582050781e+003;4.3762822266e+003;4.3594873047e+003;4.3521796875e+003;
4.0625000000e-001;4.3083334961e+003;4.3643588867e+003;4.3519228516e+003;4.3364101563e+003;4.3744873047e+003;4.3314101563e+003;4.3473076172e+003;4.3538461914e+003;4.3460258789e+003;4.3630771484e+003;4.3455126953e+003;4.3652563477e+003;4.3484614258e+003;4.3411538086e+003;
4.1406250000e-001;4.3066665039e+003;4.3566665039e+003;4.3443588867e+003;4.3305126953e+003;4.3756411133e+003;4.3306411133e+003;4.3419228516e+003;4.3439741211e+003;4.3292309570e+003;4.3498715820e+003;4.3424360352e+003;4.3592309570e+003;4.3471796875e+003;4.3294873047e+003;
4.2187500000e-001;4.2512822266e+003;4.3050000000e+003;4.2975639648e+003;4.2820512695e+003;4.3219228516e+003;4.2787177734e+003;4.2915385742e+003;4.2789741211e+003;4.2708974609e+003;4.3002563477e+003;4.2985898438e+003;4.3096152344e+003;4.2933334961e+003;4.2789741211e+003;
4.2968750000e-001;4.2606411133e+003;4.3153847656e+003;4.3085898438e+003;4.2910258789e+003;4.3306411133e+003;4.2851284180e+003;4.3001284180e+003;4.2814101563e+003;4.2747436523e+003;4.3065385742e+003;4.3062822266e+003;4.3185898438e+003;4.3012822266e+003;4.2898715820e+003;
4.3750000000e-001;4.2766665039e+003;4.3310258789e+003;4.3256411133e+003;4.3055126953e+003;4.3447436523e+003;4.2975639648e+003;4.3125639648e+003;4.2930771484e+003;4.2858974609e+003;4.3206411133e+003;4.3194873047e+003;4.3351284180e+003;4.3160258789e+003;4.3073076172e+003;
4.4531250000e-001;4.2552563477e+003;4.3017949219e+003;4.3060258789e+003;4.2830771484e+003;4.3164101563e+003;4.2730771484e+003;4.2852563477e+003;4.2705126953e+003;4.2596152344e+003;4.2965385742e+003;4.2962822266e+003;4.3164101563e+003;4.2946152344e+003;4.2874360352e+003;
4.5312500000e-001;4.3457690430e+003;4.3870512695e+003;4.3879487305e+003;4.3652563477e+003;4.3992309570e+003;4.3417949219e+003;4.3617949219e+003;4.3652563477e+003;4.3594873047e+003;4.3933334961e+003;4.3984614258e+003;4.4066665039e+003;4.3932050781e+003;4.3787177734e+003;
4.6093750000e-001;4.3697436523e+003;4.4150000000e+003;4.4115385742e+003;4.3888461914e+003;4.4197436523e+003;4.3594873047e+003;4.3811538086e+003;4.3967949219e+003;4.3939741211e+003;4.4260258789e+003;4.4241025391e+003;4.4321796875e+003;4.4178203125e+003;4.4056411133e+003;
4.6875000000e-001;4.3465385742e+003;4.4028203125e+003;4.3916665039e+003;4.3739741211e+003;4.3938461914e+003;4.3412822266e+003;4.3652563477e+003;4.3934614258e+003;4.3905126953e+003;4.4091025391e+003;4.3965385742e+003;4.4024360352e+003;4.3907690430e+003;4.3848715820e+003;
4.7656250000e-001;4.3765385742e+003;4.4378203125e+003;4.4233334961e+003;4.4058974609e+003;4.4308974609e+003;4.3773076172e+003;4.3994873047e+003;4.4307690430e+003;4.4247436523e+003;4.4429487305e+003;4.4316665039e+003;4.4344873047e+003;4.4252563477e+003;4.4174360352e+003;
4.8437500000e-001;4.3942309570e+003;4.4597436523e+003;4.4437177734e+003;4.4260258789e+003;4.4567949219e+003;4.4025639648e+003;4.4212822266e+003;4.4564101563e+003;4.4466665039e+003;4.4666665039e+003;4.4558974609e+003;4.4580771484e+003;4.4482050781e+003;4.4402563477e+003;
4.9218750000e-001;4.3848715820e+003;4.4517949219e+003;4.4358974609e+003;4.4188461914e+003;4.4533334961e+003;4.3998715820e+003;4.4156411133e+003;4.4512822266e+003;4.4391025391e+003;4.4598715820e+003;4.4493588867e+003;4.4529487305e+003;4.4407690430e+003;4.4355126953e+003;
5.0000000000e-001;4.4244873047e+003;4.4934614258e+003;4.4728203125e+003;4.4573076172e+003;4.4991025391e+003;4.4435898438e+003;4.4652563477e+003;4.4864101563e+003;4.4867949219e+003;4.4955126953e+003;4.4806411133e+003;4.4842309570e+003;4.4776923828e+003;4.4774360352e+003;
5.0781250000e-001;4.3478203125e+003;4.4246152344e+003;4.4110258789e+003;4.3953847656e+003;4.4396152344e+003;4.3988461914e+003;4.4129487305e+003;4.4156411133e+003;4.4115385742e+003;4.4244873047e+003;4.4137177734e+003;4.4192309570e+003;4.4085898438e+003;4.4041025391e+003;
5.1562500000e-001;4.3553847656e+003;4.4306411133e+003;4.4193588867e+003;4.4024360352e+003;4.4491025391e+003;4.4062822266e+003;4.4207690430e+003;4.4241025391e+003;4.4194873047e+003;4.4320512695e+003;4.4215385742e+003;4.4278203125e+003;4.4152563477e+003;4.4130771484e+003;
5.2343750000e-001;4.3708974609e+003;4.4412822266e+003;4.4320512695e+003;4.4157690430e+003;4.4612822266e+003;4.4197436523e+003;4.4361538086e+003;4.4350000000e+003;4.4284614258e+003;4.4426923828e+003;4.4335898438e+003;4.4420512695e+003;4.4276923828e+003;4.4273076172e+003;
5.3125000000e-001;4.4048715820e+003;4.4762822266e+003;4.4629487305e+003;4.4478203125e+003;4.4939741211e+003;4.4500000000e+003;4.4688461914e+003;4.4614101563e+003;4.4551284180e+003;4.4735898438e+003;4.4657690430e+003;4.4728203125e+003;4.4629487305e+003;4.4601284180e+003;
5.3906250000e-001;4.4362822266e+003;4.5142309570e+003;4.5003847656e+003;4.4816665039e+003;4.5258974609e+003;4.4765385742e+003;4.4975639648e+003;4.4839741211e+003;4.4762822266e+003;4.5087177734e+003;4.5060258789e+003;4.5114101563e+003;4.5052563477e+003;4.5053847656e+003;
5.4687500000e-001;4.3820512695e+003;4.4516665039e+003;4.4507690430e+003;4.4282050781e+003;4.4670512695e+003;4.4184614258e+003;4.4430771484e+003;4.4282050781e+003;4.4205126953e+003;4.4505126953e+003;4.4551284180e+003;4.4660258789e+003;4.4464101563e+003;4.4500000000e+003;
5.5468750000e-001;4.3903847656e+003;4.4597436523e+003;4.4584614258e+003;4.4362822266e+003;4.4733334961e+003;4.4220512695e+003;4.4471796875e+003;4.4379487305e+003;4.4342309570e+003;4.4612822266e+003;4.4634614258e+003;4.4743588867e+003;4.4561538086e+003;4.4576923828e+003;
5.6250000000e-001;4.3834614258e+003;4.4542309570e+003;4.4443588867e+003;4.4288461914e+003;4.4619228516e+003;4.4112822266e+003;4.4306411133e+003;4.4416665039e+003;4.4430771484e+003;4.4532050781e+003;4.4517949219e+003;4.4561538086e+003;4.4470512695e+003;4.4465385742e+003;
5.7031250000e-001;4.4235898438e+003;4.4947436523e+003;4.4820512695e+003;4.4652563477e+003;4.5024360352e+003;4.4498715820e+003;4.4702563477e+003;4.4901284180e+003;4.4889741211e+003;4.4974360352e+003;4.4934614258e+003;4.4932050781e+003;4.4869228516e+003;4.4839741211e+003;
5.7812500000e-001;4.4597436523e+003;4.5316665039e+003;4.5192309570e+003;4.4992309570e+003;4.5398715820e+003;4.4867949219e+003;4.5089741211e+003;4.5382050781e+003;4.5328203125e+003;4.5425639648e+003;4.5338461914e+003;4.5307690430e+003;4.5257690430e+003;4.5201284180e+003;
5.8593750000e-001;4.4697436523e+003;4.5426923828e+003;4.5326923828e+003;4.5100000000e+003;4.5512822266e+003;4.5002563477e+003;4.5243588867e+003;4.5585898438e+003;4.5489741211e+003;4.5605126953e+003;4.5475639648e+003;4.5443588867e+003;4.5401284180e+003;4.5323076172e+003;
5.9375000000e-001;4.5587177734e+003;4.6415385742e+003;4.6235898438e+003;4.5983334961e+003;4.6478203125e+003;4.5923076172e+003;4.6183334961e+003;4.6450000000e+003;4.6343588867e+003;4.6517949219e+003;4.6374360352e+003;4.6330771484e+003;4.6348715820e+003;4.6279487305e+003;
6.0156250000e-001;4.5523076172e+003;4.6385898438e+003;4.6194873047e+003;4.5946152344e+003;4.6448715820e+003;4.5917949219e+003;4.6158974609e+003;4.6438461914e+003;4.6321796875e+003;4.6500000000e+003;4.6344873047e+003;4.6294873047e+003;4.6289741211e+003;4.6228203125e+003;
6.0937500000e-001;4.4930771484e+003;4.5888461914e+003;4.5667949219e+003;4.5483334961e+003;4.6032050781e+003;4.5579487305e+003;4.5783334961e+003;4.5946152344e+003;4.5810258789e+003;4.5947436523e+003;4.5793588867e+003;4.5711538086e+003;4.5738461914e+003;4.5651284180e+003;
6.1718750000e-001;4.4712822266e+003;4.5664101563e+003;4.5496152344e+003;4.5298715820e+003;4.5844873047e+003;4.5447436523e+003;4.5607690430e+003;4.5642309570e+003;4.5587177734e+003;4.5724360352e+003;4.5588461914e+003;4.5507690430e+003;4.5535898438e+003;4.5482050781e+003;
6.2500000000e-001;4.4553847656e+003;4.5516665039e+003;4.5341025391e+003;4.5146152344e+003;4.5667949219e+003;4.5282050781e+003;4.5455126953e+003;4.5430771484e+003;4.5376923828e+003;4.5514101563e+003;4.5414101563e+003;4.5344873047e+003;4.5366665039e+003;4.5305126953e+003;
6.3281250000e-001;4.4788461914e+003;4.5853847656e+003;4.5575639648e+003;4.5442309570e+003;4.5941025391e+003;4.5489741211e+003;4.5652563477e+003;4.5548715820e+003;4.5487177734e+003;4.5711538086e+003;4.5707690430e+003;4.5643588867e+003;4.5629487305e+003;4.5556411133e+003;
6.4062500000e-001;4.4689741211e+003;4.5723076172e+003;4.5482050781e+003;4.5361538086e+003;4.5812822266e+003;4.5373076172e+003;4.5528203125e+003;4.5382050781e+003;4.5328203125e+003;4.5570512695e+003;4.5614101563e+003;4.5566665039e+003;4.5510258789e+003;4.5458974609e+003;
6.4843750000e-001;4.5010258789e+003;4.5957690430e+003;4.5791025391e+003;4.5608974609e+003;4.6011538086e+003;4.5535898438e+003;4.5714101563e+003;4.5501284180e+003;4.5462822266e+003;4.5766665039e+003;4.5885898438e+003;4.5869228516e+003;4.5775639648e+003;4.5751284180e+003;
6.5625000000e-001;4.5285898438e+003;4.6239741211e+003;4.6079487305e+003;4.5838461914e+003;4.6252563477e+003;4.5743588867e+003;4.5915385742e+003;4.5734614258e+003;4.5693588867e+003;4.6044873047e+003;4.6169228516e+003;4.6167949219e+003;4.6071796875e+003;4.6050000000e+003;
6.6406250000e-001;4.4934614258e+003;4.5957690430e+003;4.5811538086e+003;4.5534614258e+003;4.5938461914e+003;4.5437177734e+003;4.5575639648e+003;4.5526923828e+003;4.5478203125e+003;4.5803847656e+003;4.5933334961e+003;4.5932050781e+003;4.5870512695e+003;4.5792309570e+003;
6.7187500000e-001;4.5128203125e+003;4.6157690430e+003;4.6007690430e+003;4.5751284180e+003;4.6148715820e+003;4.5611538086e+003;4.5791025391e+003;4.5800000000e+003;4.5758974609e+003;4.6032050781e+003;4.6151284180e+003;4.6114101563e+003;4.6100000000e+003;4.5983334961e+003;
6.7968750000e-001;4.5646152344e+003;4.6696152344e+003;4.6537177734e+003;4.6280771484e+003;4.6656411133e+003;4.6073076172e+003;4.6307690430e+003;4.6501284180e+003;4.6460258789e+003;4.6652563477e+003;4.6688461914e+003;4.6638461914e+003;4.6635898438e+003;4.6525639648e+003;
6.8750000000e-001;4.5583334961e+003;4.6643588867e+003;4.6483334961e+003;4.6205126953e+003;4.6587177734e+003;4.6023076172e+003;4.6243588867e+003;4.6496152344e+003;4.6438461914e+003;4.6600000000e+003;4.6607690430e+003;4.6584614258e+003;4.6550000000e+003;4.6470512695e+003;
6.9531250000e-001;4.5701284180e+003;4.6792309570e+003;4.6626923828e+003;4.6289741211e+003;4.6732050781e+003;4.6165385742e+003;4.6428203125e+003;4.6739741211e+003;4.6639741211e+003;4.6760258789e+003;4.6769228516e+003;4.6708974609e+003;4.6702563477e+003;4.6571796875e+003;
7.0312500000e-001;4.5591025391e+003;4.6703847656e+003;4.6556411133e+003;4.6225639648e+003;4.6638461914e+003;4.6100000000e+003;4.6391025391e+003;4.6726923828e+003;4.6620512695e+003;4.6732050781e+003;4.6712822266e+003;4.6646152344e+003;4.6655126953e+003;4.6496152344e+003;
7.1093750000e-001;4.5273076172e+003;4.6412822266e+003;4.6269228516e+003;4.5965385742e+003;4.6346152344e+003;4.5873076172e+003;4.6158974609e+003;4.6488461914e+003;4.6374360352e+003;4.6470512695e+003;4.6417949219e+003;4.6365385742e+003;4.6389741211e+003;4.6221796875e+003;
7.1875000000e-001;4.5024360352e+003;4.6189741211e+003;4.6023076172e+003;4.5746152344e+003;4.6134614258e+003;4.5723076172e+003;4.5976923828e+003;4.6267949219e+003;4.6147436523e+003;4.6230771484e+003;4.6156411133e+003;4.6112822266e+003;4.6167949219e+003;4.6001284180e+003;
7.2656250000e-001;4.4583334961e+003;4.5673076172e+003;4.5539741211e+003;4.5260258789e+003;4.5683334961e+003;4.5358974609e+003;4.5551284180e+003;4.5721796875e+003;4.5639741211e+003;4.5726923828e+003;4.5647436523e+003;4.5583334961e+003;4.5634614258e+003;4.5537177734e+003;
7.3437500000e-001;4.4866665039e+003;4.6016665039e+003;4.5767949219e+003;4.5570512695e+003;4.5976923828e+003;4.5625639648e+003;4.5774360352e+003;4.5812822266e+003;4.5751284180e+003;4.5906411133e+003;4.5905126953e+003;4.5802563477e+003;4.5885898438e+003;4.5756411133e+003;
7.4218750000e-001;4.4665385742e+003;4.5803847656e+003;4.5582050781e+003;4.5375639648e+003;4.5783334961e+003;4.5453847656e+003;4.5562822266e+003;4.5592309570e+003;4.5538461914e+003;4.5703847656e+003;4.5725639648e+003;4.5624360352e+003;4.5678203125e+003;4.5584614258e+003;
7.5000000000e-001;4.4619228516e+003;4.5720512695e+003;4.5547436523e+003;4.5312822266e+003;4.5706411133e+003;4.5323076172e+003;4.5462822266e+003;4.5378203125e+003;4.5334614258e+003;4.5541025391e+003;4.5647436523e+003;4.5530771484e+003;4.5570512695e+003;4.5511538086e+003;
7.5781250000e-001;4.5207690430e+003;4.6314101563e+003;4.6175639648e+003;4.5906411133e+003;4.6176923828e+003;4.5678203125e+003;4.5807690430e+003;4.5767949219e+003;4.5775639648e+003;4.6139741211e+003;4.6224360352e+003;4.6171796875e+003;4.6148715820e+003;4.6158974609e+003;
7.6562500000e-001;4.5141025391e+003;4.6256411133e+003;4.6129487305e+003;4.5878203125e+003;4.6128203125e+003;4.5587177734e+003;4.5723076172e+003;4.5746152344e+003;4.5774360352e+003;4.6105126953e+003;4.6197436523e+003;4.6152563477e+003;4.6106411133e+003;4.6135898438e+003;
7.7343750000e-001;4.5239741211e+003;4.6371796875e+003;4.6261538086e+003;4.6016665039e+003;4.6275639648e+003;4.5644873047e+003;4.5794873047e+003;4.6041025391e+003;4.6060258789e+003;4.6282050781e+003;4.6365385742e+003;4.6339741211e+003;4.6283334961e+003;4.6284614258e+003;
7.8125000000e-001;4.5083334961e+003;4.6206411133e+003;4.6119228516e+003;4.5869228516e+003;4.6123076172e+003;4.5511538086e+003;4.5651284180e+003;4.5974360352e+003;4.5957690430e+003;4.6114101563e+003;4.6205126953e+003;4.6197436523e+003;4.6146152344e+003;4.6124360352e+003;
7.8906250000e-001;4.5426923828e+003;4.6596152344e+003;4.6430771484e+003;4.6188461914e+003;4.6542309570e+003;4.5973076172e+003;4.6119228516e+003;4.6446152344e+003;4.6316665039e+003;4.6441025391e+003;4.6551284180e+003;4.6475639648e+003;4.6532050781e+003;4.6462822266e+003;
7.9687500000e-001;4.5608974609e+003;4.6811538086e+003;4.6602563477e+003;4.6385898438e+003;4.6788461914e+003;4.6217949219e+003;4.6357690430e+003;4.6715385742e+003;4.6580771484e+003;4.6715385742e+003;4.6793588867e+003;4.6685898438e+003;4.6765385742e+003;4.6689741211e+003;
8.0468750000e-001;4.4917949219e+003;4.6144873047e+003;4.5907690430e+003;4.5792309570e+003;4.6179487305e+003;4.5715385742e+003;4.5819228516e+003;4.6188461914e+003;4.6076923828e+003;4.6105126953e+003;4.6165385742e+003;4.6051284180e+003;4.6119228516e+003;4.6044873047e+003;
8.1250000000e-001;4.4582050781e+003;4.5814101563e+003;4.5560258789e+003;4.5488461914e+003;4.5847436523e+003;4.5442309570e+003;4.5542309570e+003;4.5879487305e+003;4.5767949219e+003;4.5742309570e+003;4.5808974609e+003;4.5693588867e+003;4.5769228516e+003;4.5691025391e+003;
8.2031250000e-001;4.4520512695e+003;4.5761538086e+003;4.5515385742e+003;4.5428203125e+003;4.5742309570e+003;4.5425639648e+003;4.5569228516e+003;4.5828203125e+003;4.5629487305e+003;4.5682050781e+003;4.5701284180e+003;4.5583334961e+003;4.5714101563e+003;4.5632050781e+003;
8.2812500000e-001;4.4415385742e+003;4.5639741211e+003;4.5429487305e+003;4.5323076172e+003;4.5623076172e+003;4.5335898438e+003;4.5500000000e+003;4.5684614258e+003;4.5482050781e+003;4.5532050781e+003;4.5574360352e+003;4.5473076172e+003;4.5612822266e+003;4.5530771484e+003;
8.3593750000e-001;4.4458974609e+003;4.5670512695e+003;4.5484614258e+003;4.5355126953e+003;4.5664101563e+003;4.5378203125e+003;4.5558974609e+003;4.5666665039e+003;4.5488461914e+003;4.5506411133e+003;4.5585898438e+003;4.5496152344e+003;4.5646152344e+003;4.5567949219e+003;
8.4375000000e-001;4.4658974609e+003;4.5875639648e+003;4.5697436523e+003;4.5542309570e+003;4.5870512695e+003;4.5564101563e+003;4.5744873047e+003;4.5811538086e+003;4.5661538086e+003;4.5661538086e+003;4.5762822266e+003;4.5674360352e+003;4.5825639648e+003;4.5766665039e+003;
8.5156250000e-001;4.4255126953e+003;4.5498715820e+003;4.5383334961e+003;4.5214101563e+003;4.5489741211e+003;4.5235898438e+003;4.5338461914e+003;4.5280771484e+003;4.5106411133e+003;4.5260258789e+003;4.5358974609e+003;4.5291025391e+003;4.5357690430e+003;4.5370512695e+003;
8.5937500000e-001;4.4375639648e+003;4.5591025391e+003;4.5511538086e+003;4.5323076172e+003;4.5623076172e+003;4.5350000000e+003;4.5456411133e+003;4.5365385742e+003;4.5229487305e+003;4.5394873047e+003;4.5497436523e+003;4.5414101563e+003;4.5488461914e+003;4.5484614258e+003;
8.6718750000e-001;4.3685898438e+003;4.4815385742e+003;4.4883334961e+003;4.4665385742e+003;4.4873076172e+003;4.4657690430e+003;4.4724360352e+003;4.4585898438e+003;4.4569228516e+003;4.4743588867e+003;4.4830771484e+003;4.4780771484e+003;4.4774360352e+003;4.4810258789e+003;
8.7500000000e-001;4.3511538086e+003;4.4555126953e+003;4.4598715820e+003;4.4426923828e+003;4.4558974609e+003;4.4253847656e+003;4.4323076172e+003;4.4229487305e+003;4.4292309570e+003;4.4444873047e+003;4.4593588867e+003;4.4557690430e+003;4.4575639648e+003;4.4582050781e+003;
8.8281250000e-001;4.3455126953e+003;4.4467949219e+003;4.4542309570e+003;4.4351284180e+003;4.4455126953e+003;4.4138461914e+003;4.4216665039e+003;4.4251284180e+003;4.4337177734e+003;4.4421796875e+003;4.4550000000e+003;4.4525639648e+003;4.4516665039e+003;4.4529487305e+003;
8.9062500000e-001;4.2871796875e+003;4.3808974609e+003;4.3948715820e+003;4.3723076172e+003;4.3741025391e+003;4.3460258789e+003;4.3670512695e+003;4.3971796875e+003;4.3951284180e+003;4.3842309570e+003;4.3938461914e+003;4.3891025391e+003;4.3869228516e+003;4.3900000000e+003;
8.9843750000e-001;4.2793588867e+003;4.3682050781e+003;4.3752563477e+003;4.3637177734e+003;4.3574360352e+003;4.3391025391e+003;4.3556411133e+003;4.3969228516e+003;4.3821796875e+003;4.3711538086e+003;4.3814101563e+003;4.3755126953e+003;4.3764101563e+003;4.3783334961e+003;
9.0625000000e-001;4.2883334961e+003;4.3783334961e+003;4.3814101563e+003;4.3730771484e+003;4.3693588867e+003;4.3512822266e+003;4.3657690430e+003;4.4044873047e+003;4.3905126953e+003;4.3775639648e+003;4.3869228516e+003;4.3800000000e+003;4.3811538086e+003;4.3850000000e+003;
9.1406250000e-001;4.3557690430e+003;4.4521796875e+003;4.4480771484e+003;4.4383334961e+003;4.4612822266e+003;4.4353847656e+003;4.4439741211e+003;4.4726923828e+003;4.4642309570e+003;4.4474360352e+003;4.4505126953e+003;4.4411538086e+003;4.4448715820e+003;4.4505126953e+003;
9.2187500000e-001;4.3408974609e+003;4.4355126953e+003;4.4324360352e+003;4.4239741211e+003;4.4496152344e+003;4.4283334961e+003;4.4333334961e+003;4.4558974609e+003;4.4476923828e+003;4.4310258789e+003;4.4341025391e+003;4.4267949219e+003;4.4296152344e+003;4.4343588867e+003;
9.2968750000e-001;4.3616665039e+003;4.4550000000e+003;4.4466665039e+003;4.4417949219e+003;4.4678203125e+003;4.4507690430e+003;4.4547436523e+003;4.4693588867e+003;4.4593588867e+003;4.4462822266e+003;4.4528203125e+003;4.4457690430e+003;4.4492309570e+003;4.4525639648e+003;
9.3750000000e-001;4.3903847656e+003;4.4856411133e+003;4.4748715820e+003;4.4683334961e+003;4.4956411133e+003;4.4760258789e+003;4.4814101563e+003;4.4979487305e+003;4.4865385742e+003;4.4762822266e+003;4.4828203125e+003;4.4753847656e+003;4.4789741211e+003;4.4830771484e+003;
9.4531250000e-001;4.3557690430e+003;4.4503847656e+003;4.4466665039e+003;4.4370512695e+003;4.4626923828e+003;4.4384614258e+003;4.4458974609e+003;4.4496152344e+003;4.4373076172e+003;4.4330771484e+003;4.4424360352e+003;4.4365385742e+003;4.4355126953e+003;4.4430771484e+003;
9.5312500000e-001;4.3703847656e+003;4.4660258789e+003;4.4600000000e+003;4.4517949219e+003;4.4760258789e+003;4.4492309570e+003;4.4573076172e+003;4.4532050781e+003;4.4406411133e+003;4.4416665039e+003;4.4525639648e+003;4.4458974609e+003;4.4444873047e+003;4.4515385742e+003;
9.6093750000e-001;4.3984614258e+003;4.4974360352e+003;4.4874360352e+003;4.4798715820e+003;4.5024360352e+003;4.4726923828e+003;4.4810258789e+003;4.4750000000e+003;4.4602563477e+003;4.4682050781e+003;4.4793588867e+003;4.4725639648e+003;4.4710258789e+003;4.4782050781e+003;
9.6875000000e-001;4.4079487305e+003;4.5093588867e+003;4.4984614258e+003;4.4903847656e+003;4.5100000000e+003;4.4791025391e+003;4.4870512695e+003;4.4832050781e+003;4.4642309570e+003;4.4780771484e+003;4.4893588867e+003;4.4844873047e+003;4.4826923828e+003;4.4907690430e+003;
9.7656250000e-001;4.4106411133e+003;4.5026923828e+003;4.5078203125e+003;4.4848715820e+003;4.5029487305e+003;4.4676923828e+003;4.4773076172e+003;4.4643588867e+003;4.4453847656e+003;4.4652563477e+003;4.4865385742e+003;4.4898715820e+003;4.4846152344e+003;4.4934614258e+003;
9.8437500000e-001;4.4164101563e+003;4.5061538086e+003;4.5117949219e+003;4.4876923828e+003;4.5039741211e+003;4.4689741211e+003;4.4789741211e+003;4.4676923828e+003;4.4511538086e+003;4.4719228516e+003;4.4935898438e+003;4.4961538086e+003;4.4870512695e+003;4.4967949219e+003;
9.9218750000e-001;4.3930771484e+003;4.4729487305e+003;4.4814101563e+003;4.4623076172e+003;4.4694873047e+003;4.4342309570e+003;4.4483334961e+003;4.4524360352e+003;4.4389741211e+003;4.4494873047e+003;4.4717949219e+003;4.4674360352e+003;4.4623076172e+003;4.4688461914e+003;
1.0000000000e+000;4.4206411133e+003;4.5060258789e+003;4.5147436523e+003;4.4915385742e+003;4.5074360352e+003;4.4715385742e+003;4.4846152344e+003;4.5128203125e+003;4.5065385742e+003;4.5065385742e+003;4.5130771484e+003;4.5017949219e+003;4.4993588867e+003;4.5051284180e+003;
1.0078125000e+000;4.3956411133e+003;4.4808974609e+003;4.4887177734e+003;4.4670512695e+003;4.4833334961e+003;4.4529487305e+003;4.4656411133e+003;4.4957690430e+003;4.4873076172e+003;4.4824360352e+003;4.4882050781e+003;4.4764101563e+003;4.4751284180e+003;4.4783334961e+003;
1.0156250000e+000;4.3701284180e+003;4.4539741211e+003;4.4591025391e+003;4.4448715820e+003;4.4641025391e+003;4.4367949219e+003;4.4471796875e+003;4.4880771484e+003;4.4711538086e+003;4.4608974609e+003;4.4635898438e+003;4.4488461914e+003;4.4608974609e+003;4.4512822266e+003;
1.0234375000e+000;4.2617949219e+003;4.3452563477e+003;4.3462822266e+003;4.3410258789e+003;4.3650000000e+003;4.3500000000e+003;4.3560258789e+003;4.3844873047e+003;4.3693588867e+003;4.3500000000e+003;4.3508974609e+003;4.3333334961e+003;4.3435898438e+003;4.3410258789e+003;
1.0312500000e+000;4.2647436523e+003;4.3450000000e+003;4.3438461914e+003;4.3388461914e+003;4.3669228516e+003;4.3511538086e+003;4.3591025391e+003;4.3861538086e+003;4.3712822266e+003;4.3498715820e+003;4.3498715820e+003;4.3314101563e+003;4.3441025391e+003;4.3388461914e+003;
1.0390625000e+000;4.1924360352e+003;4.2607690430e+003;4.2687177734e+003;4.2667949219e+003;4.2857690430e+003;4.2755126953e+003;4.2829487305e+003;4.3066665039e+003;4.2853847656e+003;4.2674360352e+003;4.2673076172e+003;4.2558974609e+003;4.2696152344e+003;4.2610258789e+003;
1.0468750000e+000;4.1725639648e+003;4.2393588867e+003;4.2485898438e+003;4.2489741211e+003;4.2648715820e+003;4.2565385742e+003;4.2624360352e+003;4.2766665039e+003;4.2535898438e+003;4.2387177734e+003;4.2416665039e+003;4.2314101563e+003;4.2428203125e+003;4.2374360352e+003;
1.0546875000e+000;4.1808974609e+003;4.2438461914e+003;4.2546152344e+003;4.2533334961e+003;4.2685898438e+003;4.2616665039e+003;4.2644873047e+003;4.2660258789e+003;4.2432050781e+003;4.2328203125e+003;4.2416665039e+003;4.2341025391e+003;4.2379487305e+003;4.2366665039e+003;
1.0625000000e+000;4.1688461914e+003;4.2255126953e+003;4.2408974609e+003;4.2362822266e+003;4.2505126953e+003;4.2455126953e+003;4.2470512695e+003;4.2462822266e+003;4.2228203125e+003;4.2134614258e+003;4.2260258789e+003;4.2223076172e+003;4.2224360352e+003;4.2215385742e+003;
1.0703125000e+000;4.1762822266e+003;4.2148715820e+003;4.2328203125e+003;4.2307690430e+003;4.2388461914e+003;4.2265385742e+003;4.2319228516e+003;4.2184614258e+003;4.1911538086e+003;4.1937177734e+003;4.2179487305e+003;4.2189741211e+003;4.2215385742e+003;4.2219228516e+003;
1.0781250000e+000;4.1898715820e+003;4.2275639648e+003;4.2423076172e+003;4.2441025391e+003;4.2489741211e+003;4.2344873047e+003;4.2385898438e+003;4.2229487305e+003;4.1982050781e+003;4.2037177734e+003;4.2285898438e+003;4.2296152344e+003;4.2315385742e+003;4.2330771484e+003;
1.0859375000e+000;4.1776923828e+003;4.2153847656e+003;4.2293588867e+003;4.2337177734e+003;4.2350000000e+003;4.2212822266e+003;4.2224360352e+003;4.2062822266e+003;4.1856411133e+003;4.1891025391e+003;4.2150000000e+003;4.2175639648e+003;4.2161538086e+003;4.2179487305e+003;
1.0937500000e+000;4.1556411133e+003;4.1928203125e+003;4.2078203125e+003;4.2125639648e+003;4.2117949219e+003;4.1993588867e+003;4.1982050781e+003;4.1829487305e+003;4.1666665039e+003;4.1638461914e+003;4.1916665039e+003;4.1962822266e+003;4.1919228516e+003;4.1924360352e+003;
1.1015625000e+000;4.1779487305e+003;4.2102563477e+003;4.2238461914e+003;4.2278203125e+003;4.2203847656e+003;4.2026923828e+003;4.2100000000e+003;4.2203847656e+003;4.2071796875e+003;4.1920512695e+003;4.2126923828e+003;4.2171796875e+003;4.2116665039e+003;4.2128203125e+003;
1.1093750000e+000;4.1539741211e+003;4.1826923828e+003;4.1966665039e+003;4.2035898438e+003;4.1917949219e+003;4.1758974609e+003;4.1851284180e+003;4.1970512695e+003;4.1826923828e+003;4.1661538086e+003;4.1862822266e+003;4.1894873047e+003;4.1838461914e+003;4.1862822266e+003;
1.1171875000e+000;4.1976923828e+003;4.2251284180e+003;4.2321796875e+003;4.2417949219e+003;4.2337177734e+003;4.2157690430e+003;4.2235898438e+003;4.2432050781e+003;4.2293588867e+003;4.2080771484e+003;4.2253847656e+003;4.2274360352e+003;4.2239741211e+003;4.2214101563e+003;
1.1250000000e+000;4.2019228516e+003;4.2298715820e+003;4.2298715820e+003;4.2462822266e+003;4.2442309570e+003;4.2319228516e+003;4.2364101563e+003;4.2589741211e+003;4.2415385742e+003;4.2179487305e+003;4.2255126953e+003;4.2205126953e+003;4.2260258789e+003;4.2196152344e+003;
1.1328125000e+000;4.2253847656e+003;4.2534614258e+003;4.2496152344e+003;4.2671796875e+003;4.2702563477e+003;4.2551284180e+003;4.2607690430e+003;4.2821796875e+003;4.2666665039e+003;4.2429487305e+003;4.2501284180e+003;4.2396152344e+003;4.2500000000e+003;4.2420512695e+003;
1.1406250000e+000;4.2065385742e+003;4.2370512695e+003;4.2329487305e+003;4.2480771484e+003;4.2500000000e+003;4.2435898438e+003;4.2455126953e+003;4.2653847656e+003;4.2478203125e+003;4.2275639648e+003;4.2343588867e+003;4.2256411133e+003;4.2325639648e+003;4.2275639648e+003;
1.1484375000e+000;4.2466665039e+003;4.2737177734e+003;4.2700000000e+003;4.2838461914e+003;4.2852563477e+003;4.2765385742e+003;4.2800000000e+003;4.2946152344e+003;4.2752563477e+003;4.2547436523e+003;4.2662822266e+003;4.2567949219e+003;4.2726923828e+003;4.2614101563e+003;
1.1562500000e+000;4.2442309570e+003;4.2693588867e+003;4.2683334961e+003;4.2806411133e+003;4.2806411133e+003;4.2721796875e+003;4.2750000000e+003;4.2906411133e+003;4.2724360352e+003;4.2520512695e+003;4.2662822266e+003;4.2578203125e+003;4.2697436523e+003;4.2607690430e+003;
1.1640625000e+000;4.1980771484e+003;4.2205126953e+003;4.2243588867e+003;4.2305126953e+003;4.2291025391e+003;4.2239741211e+003;4.2278203125e+003;4.2284614258e+003;4.2035898438e+003;4.1956411133e+003;4.2214101563e+003;4.2166665039e+003;4.2197436523e+003;4.2191025391e+003;
1.1718750000e+000;4.2232050781e+003;4.2433334961e+003;4.2475639648e+003;4.2506411133e+003;4.2519228516e+003;4.2425639648e+003;4.2470512695e+003;4.2453847656e+003;4.2174360352e+003;4.2170512695e+003;4.2432050781e+003;4.2385898438e+003;4.2456411133e+003;4.2432050781e+003;
1.1796875000e+000;4.2082050781e+003;4.2174360352e+003;4.2271796875e+003;4.2302563477e+003;4.2264101563e+003;4.2169228516e+003;4.2187177734e+003;4.2146152344e+003;4.1851284180e+003;4.1897436523e+003;4.2174360352e+003;4.2162822266e+003;4.2235898438e+003;4.2228203125e+003;
1.1875000000e+000;4.1767949219e+003;4.1810258789e+003;4.1932050781e+003;4.1987177734e+003;4.1905126953e+003;4.1833334961e+003;4.1839741211e+003;4.1762822266e+003;4.1488461914e+003;4.1507690430e+003;4.1816665039e+003;4.1801284180e+003;4.1855126953e+003;4.1879487305e+003;
1.1953125000e+000;4.1597436523e+003;4.1620512695e+003;4.1753847656e+003;4.1819228516e+003;4.1720512695e+003;4.1647436523e+003;4.1660258789e+003;4.1560258789e+003;4.1314101563e+003;4.1306411133e+003;4.1638461914e+003;4.1596152344e+003;4.1646152344e+003;4.1693588867e+003;
1.2031250000e+000;4.1507690430e+003;4.1546152344e+003;4.1707690430e+003;4.1738461914e+003;4.1614101563e+003;4.1512822266e+003;4.1562822266e+003;4.1525639648e+003;4.1334614258e+003;4.1280771484e+003;4.1583334961e+003;4.1535898438e+003;4.1561538086e+003;4.1633334961e+003;
1.2109375000e+000;4.1419228516e+003;4.1451284180e+003;4.1632050781e+003;4.1643588867e+003;4.1482050781e+003;4.1380771484e+003;4.1444873047e+003;4.1456411133e+003;4.1296152344e+003;4.1196152344e+003;4.1478203125e+003;4.1479487305e+003;4.1462822266e+003;4.1546152344e+003;
1.2187500000e+000;4.1446152344e+003;4.1456411133e+003;4.1635898438e+003;4.1641025391e+003;4.1448715820e+003;4.1338461914e+003;4.1411538086e+003;4.1478203125e+003;4.1346152344e+003;4.1193588867e+003;4.1467949219e+003;4.1514101563e+003;4.1464101563e+003;4.1548715820e+003;
1.2265625000e+000;4.1139741211e+003;4.1093588867e+003;4.1230771484e+003;4.1316665039e+003;4.1185898438e+003;4.1147436523e+003;4.1176923828e+003;4.1483334961e+003;4.1339741211e+003;4.1052563477e+003;4.1217949219e+003;4.1130771484e+003;4.1188461914e+003;4.1185898438e+003;
1.2343750000e+000;4.1455126953e+003;4.1464101563e+003;4.1533334961e+003;4.1646152344e+003;4.1555126953e+003;4.1515385742e+003;4.1541025391e+003;4.1796152344e+003;4.1661538086e+003;4.1355126953e+003;4.1511538086e+003;4.1410258789e+003;4.1505126953e+003;4.1489741211e+003;
1.2421875000e+000;4.1912822266e+003;4.2016665039e+003;4.2026923828e+003;4.2126923828e+003;4.2103847656e+003;4.2092309570e+003;4.2083334961e+003;4.2339741211e+003;4.2156411133e+003;4.1919228516e+003;4.2034614258e+003;4.1919228516e+003;4.2011538086e+003;4.2005126953e+003;
1.2500000000e+000;4.1620512695e+003;4.1689741211e+003;4.1675639648e+003;4.1865385742e+003;4.1860258789e+003;4.1839741211e+003;4.1851284180e+003;4.1987177734e+003;4.1752563477e+003;4.1541025391e+003;4.1703847656e+003;4.1526923828e+003;4.1620512695e+003;4.1608974609e+003;
1.2578125000e+000;4.1735898438e+003;4.1815385742e+003;4.1787177734e+003;4.1973076172e+003;4.1975639648e+003;4.1947436523e+003;4.1955126953e+003;4.2073076172e+003;4.1829487305e+003;4.1625639648e+003;4.1803847656e+003;4.1658974609e+003;4.1712822266e+003;4.1716665039e+003;
1.2656250000e+000;4.1385898438e+003;4.1448715820e+003;4.1528203125e+003;4.1578203125e+003;4.1576923828e+003;4.1610258789e+003;4.1570512695e+003;4.1541025391e+003;4.1293588867e+003;4.1112822266e+003;4.1374360352e+003;4.1342309570e+003;4.1314101563e+003;4.1362822266e+003;
1.2734375000e+000;4.1523076172e+003;4.1517949219e+003;4.1617949219e+003;4.1658974609e+003;4.1630771484e+003;4.1589741211e+003;4.1602563477e+003;4.1494873047e+003;4.1258974609e+003;4.1174360352e+003;4.1426923828e+003;4.1364101563e+003;4.1402563477e+003;4.1461538086e+003;
1.2812500000e+000;4.1344873047e+003;4.1308974609e+003;4.1426923828e+003;4.1473076172e+003;4.1424360352e+003;4.1392309570e+003;4.1414101563e+003;4.1255126953e+003;4.1014101563e+003;4.0935898438e+003;4.1203847656e+003;4.1173076172e+003;4.1212822266e+003;4.1269228516e+003;
1.2890625000e+000;4.1380771484e+003;4.1326923828e+003;4.1452563477e+003;4.1493588867e+003;4.1444873047e+003;4.1405126953e+003;4.1425639648e+003;4.1228203125e+003;4.0997436523e+003;4.0923076172e+003;4.1214101563e+003;4.1219228516e+003;4.1247436523e+003;4.1305126953e+003;
1.2968750000e+000;4.1680771484e+003;4.1614101563e+003;4.1742309570e+003;4.1789741211e+003;4.1720512695e+003;4.1635898438e+003;4.1625639648e+003;4.1507690430e+003;4.1332050781e+003;4.1279487305e+003;4.1592309570e+003;4.1623076172e+003;4.1588461914e+003;4.1673076172e+003;
1.3046875000e+000;4.0770512695e+003;4.0584614258e+003;4.0737180176e+003;4.0878205566e+003;4.0648718262e+003;4.0575642090e+003;4.0614101563e+003;4.0656411133e+003;4.0551281738e+003;4.0376923828e+003;4.0732050781e+003;4.0711538086e+003;4.0662819824e+003;4.0743588867e+003;
1.3125000000e+000;4.0820512695e+003;4.0605129395e+003;4.0758974609e+003;4.0880769043e+003;4.0652563477e+003;4.0571794434e+003;4.0617949219e+003;4.0732050781e+003;4.0648718262e+003;4.0408974609e+003;4.0758974609e+003;4.0735898438e+003;4.0703845215e+003;4.0766667480e+003;
1.3203125000e+000;4.0943588867e+003;4.0711538086e+003;4.0875642090e+003;4.0966665039e+003;4.0747436523e+003;4.0667949219e+003;4.0689743652e+003;4.0906411133e+003;4.0835898438e+003;4.0548718262e+003;4.0874357910e+003;4.0869230957e+003;4.0829487305e+003;4.0883332520e+003;
1.3281250000e+000;4.0753845215e+003;4.0478205566e+003;4.0671794434e+003;4.0766667480e+003;4.0526923828e+003;4.0487180176e+003;4.0438461914e+003;4.0807692871e+003;4.0711538086e+003;4.0400000000e+003;4.0671794434e+003;4.0679487305e+003;4.0629487305e+003;4.0687180176e+003;
1.3359375000e+000;4.0651281738e+003;4.0344870605e+003;4.0539743652e+003;4.0652563477e+003;4.0424357910e+003;4.0389743652e+003;4.0334614258e+003;4.0723076172e+003;4.0598718262e+003;4.0305129395e+003;4.0550000000e+003;4.0524357910e+003;4.0516667480e+003;4.0560256348e+003;
1.3437500000e+000;4.0629487305e+003;4.0300000000e+003;4.0492307129e+003;4.0614101563e+003;4.0411538086e+003;4.0384614258e+003;4.0332050781e+003;4.0726923828e+003;4.0582050781e+003;4.0306411133e+003;4.0511538086e+003;4.0450000000e+003;4.0494870605e+003;4.0511538086e+003;
1.3515625000e+000;3.9952563477e+003;3.9647436523e+003;3.9725642090e+003;3.9997436523e+003;3.9806411133e+003;3.9984614258e+003;3.9939743652e+003;4.0075642090e+003;3.9915385742e+003;3.9587180176e+003;3.9762819824e+003;3.9707692871e+003;3.9753845215e+003;3.9751281738e+003;
1.3593750000e+000;3.9960256348e+003;3.9642307129e+003;3.9701281738e+003;3.9971794434e+003;3.9800000000e+003;3.9994870605e+003;3.9946154785e+003;4.0066667480e+003;3.9892307129e+003;3.9582050781e+003;3.9733332520e+003;3.9683332520e+003;3.9739743652e+003;3.9746154785e+003;
1.3671875000e+000;3.8902563477e+003;3.8510256348e+003;3.8650000000e+003;3.8910256348e+003;3.8712819824e+003;3.9041025391e+003;3.8903845215e+003;3.8896154785e+003;3.8684614258e+003;3.8383332520e+003;3.8607692871e+003;3.8642307129e+003;3.8634614258e+003;3.8665385742e+003;
1.3750000000e+000;3.9294870605e+003;3.8825642090e+003;3.8939743652e+003;3.9247436523e+003;3.9014101563e+003;3.9244870605e+003;3.9144870605e+003;3.8953845215e+003;3.8784614258e+003;3.8633332520e+003;3.8964101563e+003;3.8962819824e+003;3.8951281738e+003;3.9028205566e+003;
1.3828125000e+000;3.9126923828e+003;3.8633332520e+003;3.8746154785e+003;3.9066667480e+003;3.8803845215e+003;3.9043588867e+003;3.8937180176e+003;3.8711538086e+003;3.8532050781e+003;3.8419230957e+003;3.8750000000e+003;3.8752563477e+003;3.8743588867e+003;3.8819230957e+003;
1.3906250000e+000;3.9702563477e+003;3.9187180176e+003;3.9307692871e+003;3.9602563477e+003;3.9334614258e+003;3.9491025391e+003;3.9378205566e+003;3.9214101563e+003;3.8978205566e+003;3.8969230957e+003;3.9284614258e+003;3.9300000000e+003;3.9312819824e+003;3.9310256348e+003;
1.3984375000e+000;3.9624357910e+003;3.9039743652e+003;3.9192307129e+003;3.9435898438e+003;3.9061538086e+003;3.9201281738e+003;3.9114101563e+003;3.9033332520e+003;3.8914101563e+003;3.8837180176e+003;3.9180769043e+003;3.9220512695e+003;3.9160256348e+003;3.9234614258e+003;
1.4062500000e+000;3.9723076172e+003;3.9147436523e+003;3.9264101563e+003;3.9494870605e+003;3.9112819824e+003;3.9214101563e+003;3.9160256348e+003;3.9111538086e+003;3.9029487305e+003;3.8930769043e+003;3.9265385742e+003;3.9294870605e+003;3.9241025391e+003;3.9307692871e+003;
1.4140625000e+000;3.9853845215e+003;3.9291025391e+003;3.9389743652e+003;3.9607692871e+003;3.9219230957e+003;3.9287180176e+003;3.9253845215e+003;3.9285898438e+003;3.9212819824e+003;3.9106411133e+003;3.9407692871e+003;3.9435898438e+003;3.9379487305e+003;3.9425642090e+003;
1.4218750000e+000;3.9542307129e+003;3.8966667480e+003;3.9120512695e+003;3.9324357910e+003;3.8907692871e+003;3.9001281738e+003;3.8951281738e+003;3.9162819824e+003;3.9044870605e+003;3.8876923828e+003;3.9135898438e+003;3.9200000000e+003;3.9101281738e+003;3.9121794434e+003;
1.4296875000e+000;3.9398718262e+003;3.8820512695e+003;3.8983332520e+003;3.9182050781e+003;3.8782050781e+003;3.8891025391e+003;3.8837180176e+003;3.9083332520e+003;3.8956411133e+003;3.8726923828e+003;3.8994870605e+003;3.9061538086e+003;3.8971794434e+003;3.8971794434e+003;
1.4375000000e+000;3.9641025391e+003;3.9114101563e+003;3.9185898438e+003;3.9388461914e+003;3.9070512695e+003;3.9165385742e+003;3.9126923828e+003;3.9425642090e+003;3.9301281738e+003;3.9026923828e+003;3.9255129395e+003;3.9278205566e+003;3.9255129395e+003;3.9205129395e+003;
1.4453125000e+000;3.9596154785e+003;3.9067949219e+003;3.9112819824e+003;3.9334614258e+003;3.9020512695e+003;3.9146154785e+003;3.9103845215e+003;3.9426923828e+003;3.9287180176e+003;3.9029487305e+003;3.9210256348e+003;3.9216667480e+003;3.9207692871e+003;3.9157692871e+003;
1.4531250000e+000;3.9405129395e+003;3.8755129395e+003;3.8841025391e+003;3.9110256348e+003;3.8800000000e+003;3.9007692871e+003;3.8975642090e+003;3.9203845215e+003;3.9042307129e+003;3.8724357910e+003;3.8912819824e+003;3.8884614258e+003;3.8914101563e+003;3.8898718262e+003;
1.4609375000e+000;3.9615385742e+003;3.8967949219e+003;3.9067949219e+003;3.9312819824e+003;3.9056411133e+003;3.9243588867e+003;3.9217949219e+003;3.9425642090e+003;3.9283332520e+003;3.8930769043e+003;3.9142307129e+003;3.9103845215e+003;3.9137180176e+003;3.9120512695e+003;
1.4687500000e+000;3.9619230957e+003;3.8983332520e+003;3.9103845215e+003;3.9330769043e+003;3.9115385742e+003;3.9308974609e+003;3.9274357910e+003;3.9460256348e+003;3.9335898438e+003;3.8967949219e+003;3.9183332520e+003;3.9155129395e+003;3.9164101563e+003;3.9155129395e+003;
1.4765625000e+000;4.0121794434e+003;3.9357692871e+003;3.9542307129e+003;3.9733332520e+003;3.9465385742e+003;3.9671794434e+003;3.9579487305e+003;3.9589743652e+003;3.9465385742e+003;3.9283332520e+003;3.9456411133e+003;3.9528205566e+003;3.9430769043e+003;3.9487180176e+003;
1.4843750000e+000;3.9933332520e+003;3.9157692871e+003;3.9384614258e+003;3.9533332520e+003;3.9241025391e+003;3.9448718262e+003;3.9352563477e+003;3.9312819824e+003;3.9198718262e+003;3.9026923828e+003;3.9237180176e+003;3.9337180176e+003;3.9224357910e+003;3.9287180176e+003;
1.4921875000e+000;3.9842307129e+003;3.9075642090e+003;3.9275642090e+003;3.9448718262e+003;3.9129487305e+003;3.9315385742e+003;3.9267949219e+003;3.9061538086e+003;3.8937180176e+003;3.8851281738e+003;3.9148718262e+003;3.9292307129e+003;3.9165385742e+003;3.9275642090e+003;
1.5000000000e+000;3.9575642090e+003;3.8837180176e+003;3.9034614258e+003;3.9217949219e+003;3.8885898438e+003;3.9101281738e+003;3.9057692871e+003;3.8825642090e+003;3.8671794434e+003;3.8614101563e+003;3.8907692871e+003;3.9092307129e+003;3.8928205566e+003;3.9035898438e+003;
1.5078125000e+000;3.9708974609e+003;3.8950000000e+003;3.9141025391e+003;3.9319230957e+003;3.9019230957e+003;3.9205129395e+003;3.9184614258e+003;3.8969230957e+003;3.8814101563e+003;3.8738461914e+003;3.9023076172e+003;3.9208974609e+003;3.9044870605e+003;3.9132050781e+003;
1.5156250000e+000;4.0114101563e+003;3.9330769043e+003;3.9548718262e+003;3.9671794434e+003;3.9397436523e+003;3.9555129395e+003;3.9551281738e+003;3.9721794434e+003;3.9561538086e+003;3.9398718262e+003;3.9550000000e+003;3.9679487305e+003;3.9501281738e+003;3.9570512695e+003;
1.5234375000e+000;4.0000000000e+003;3.9237180176e+003;3.9470512695e+003;3.9574357910e+003;3.9287180176e+003;3.9432050781e+003;3.9439743652e+003;3.9701281738e+003;3.9555129395e+003;3.9333332520e+003;3.9461538086e+003;3.9547436523e+003;3.9407692871e+003;3.9451281738e+003;
1.5312500000e+000;4.0379487305e+003;3.9687180176e+003;3.9848718262e+003;3.9961538086e+003;3.9712819824e+003;3.9730769043e+003;3.9746154785e+003;4.0132050781e+003;4.0037180176e+003;3.9761538086e+003;3.9825642090e+003;3.9841025391e+003;3.9814101563e+003;3.9774357910e+003;
1.5390625000e+000;4.0491025391e+003;3.9826923828e+003;3.9928205566e+003;4.0079487305e+003;3.9833332520e+003;3.9832050781e+003;3.9815385742e+003;4.0271794434e+003;4.0175642090e+003;3.9917949219e+003;3.9933332520e+003;3.9947436523e+003;3.9942307129e+003;3.9888461914e+003;
1.5468750000e+000;3.9862819824e+003;3.9203845215e+003;3.9212819824e+003;3.9471794434e+003;3.9135898438e+003;3.9246154785e+003;3.9208974609e+003;3.9684614258e+003;3.9542307129e+003;3.9283332520e+003;3.9329487305e+003;3.9314101563e+003;3.9350000000e+003;3.9307692871e+003;
1.5546875000e+000;3.9952563477e+003;3.9283332520e+003;3.9306411133e+003;3.9538461914e+003;3.9214101563e+003;3.9301281738e+003;3.9279487305e+003;3.9732050781e+003;3.9616667480e+003;3.9351281738e+003;3.9420512695e+003;3.9374357910e+003;3.9443588867e+003;3.9388461914e+003;
1.5625000000e+000;3.9798718262e+003;3.9076923828e+003;3.9196154785e+003;3.9375642090e+003;3.9038461914e+003;3.9151281738e+003;3.9093588867e+003;3.9479487305e+003;3.9402563477e+003;3.9156411133e+003;3.9211538086e+003;3.9188461914e+003;3.9248718262e+003;3.9203845215e+003;
1.5703125000e+000;3.9564101563e+003;3.8815385742e+003;3.8957692871e+003;3.9148718262e+003;3.8787180176e+003;3.8966667480e+003;3.8887180176e+003;3.9201281738e+003;3.9116667480e+003;3.8871794434e+003;3.8934614258e+003;3.8937180176e+003;3.8984614258e+003;3.8950000000e+003;
1.5781250000e+000;4.0023076172e+003;3.9261538086e+003;3.9328205566e+003;3.9555129395e+003;3.9283332520e+003;3.9511538086e+003;3.9461538086e+003;3.9639743652e+003;3.9543588867e+003;3.9307692871e+003;3.9416667480e+003;3.9406411133e+003;3.9439743652e+003;3.9410256348e+003;
1.5859375000e+000;4.0041025391e+003;3.9283332520e+003;3.9357692871e+003;3.9582050781e+003;3.9342307129e+003;3.9555129395e+003;3.9520512695e+003;3.9666667480e+003;3.9547436523e+003;3.9341025391e+003;3.9458974609e+003;3.9455129395e+003;3.9451281738e+003;3.9443588867e+003;
1.5937500000e+000;3.9991025391e+003;3.9246154785e+003;3.9329487305e+003;3.9561538086e+003;3.9333332520e+003;3.9526923828e+003;3.9514101563e+003;3.9605129395e+003;3.9438461914e+003;3.9269230957e+003;3.9411538086e+003;3.9420512695e+003;3.9393588867e+003;3.9391025391e+003;
1.6015625000e+000;4.0139743652e+003;3.9423076172e+003;3.9487180176e+003;3.9732050781e+003;3.9508974609e+003;3.9667949219e+003;3.9689743652e+003;3.9724357910e+003;3.9508974609e+003;3.9376923828e+003;3.9551281738e+003;3.9562819824e+003;3.9548718262e+003;3.9523076172e+003;
1.6093750000e+000;4.0900000000e+003;4.0258974609e+003;4.0291025391e+003;4.0505129395e+003;4.0255129395e+003;4.0332050781e+003;4.0416667480e+003;4.0403845215e+003;4.0178205566e+003;4.0088461914e+003;4.0293588867e+003;4.0342307129e+003;4.0270512695e+003;4.0291025391e+003;
1.6171875000e+000;4.1666665039e+003;4.1116665039e+003;4.1097436523e+003;4.1282050781e+003;4.1080771484e+003;4.1008974609e+003;4.1133334961e+003;4.1306411133e+003;4.1066665039e+003;4.1114101563e+003;4.1208974609e+003;4.1173076172e+003;4.1210258789e+003;4.1164101563e+003;
1.6250000000e+000;4.1525639648e+003;4.0991025391e+003;4.0969228516e+003;4.1169228516e+003;4.0928205566e+003;4.0878205566e+003;4.1000000000e+003;4.1217949219e+003;4.1020512695e+003;4.1021796875e+003;4.1110258789e+003;4.1056411133e+003;4.1121796875e+003;4.1041025391e+003;
1.6328125000e+000;4.1960258789e+003;4.1479487305e+003;4.1443588867e+003;4.1584614258e+003;4.1402563477e+003;4.1296152344e+003;4.1414101563e+003;4.1708974609e+003;4.1593588867e+003;4.1550000000e+003;4.1598715820e+003;4.1519228516e+003;4.1601284180e+003;4.1502563477e+003;
1.6406250000e+000;4.1641025391e+003;4.1248715820e+003;4.1239741211e+003;4.1300000000e+003;4.1157690430e+003;4.1039741211e+003;4.1108974609e+003;4.1516665039e+003;4.1408974609e+003;4.1369228516e+003;4.1312822266e+003;4.1332050781e+003;4.1374360352e+003;4.1275639648e+003;
1.6484375000e+000;4.1651284180e+003;4.1269228516e+003;4.1224360352e+003;4.1323076172e+003;4.1175639648e+003;4.1062822266e+003;4.1111538086e+003;4.1502563477e+003;4.1406411133e+003;4.1346152344e+003;4.1294873047e+003;4.1305126953e+003;4.1369228516e+003;4.1267949219e+003;
1.6562500000e+000;4.1882050781e+003;4.1507690430e+003;4.1428203125e+003;4.1560258789e+003;4.1451284180e+003;4.1371796875e+003;4.1380771484e+003;4.1765385742e+003;4.1664101563e+003;4.1603847656e+003;4.1534614258e+003;4.1508974609e+003;4.1583334961e+003;4.1492309570e+003;
1.6640625000e+000;4.1812822266e+003;4.1430771484e+003;4.1357690430e+003;4.1492309570e+003;4.1414101563e+003;4.1374360352e+003;4.1371796875e+003;4.1711538086e+003;4.1596152344e+003;4.1546152344e+003;4.1466665039e+003;4.1438461914e+003;4.1507690430e+003;4.1410258789e+003;
1.6718750000e+000;4.2162822266e+003;4.1816665039e+003;4.1698715820e+003;4.1842309570e+003;4.1843588867e+003;4.1820512695e+003;4.1821796875e+003;4.1976923828e+003;4.1855126953e+003;4.1856411133e+003;4.1757690430e+003;4.1734614258e+003;4.1798715820e+003;4.1691025391e+003;
1.6796875000e+000;4.2142309570e+003;4.1788461914e+003;4.1684614258e+003;4.1819228516e+003;4.1802563477e+003;4.1792309570e+003;4.1793588867e+003;4.1915385742e+003;4.1773076172e+003;4.1794873047e+003;4.1701284180e+003;4.1711538086e+003;4.1732050781e+003;4.1661538086e+003;
1.6875000000e+000;4.2044873047e+003;4.1616665039e+003;4.1541025391e+003;4.1656411133e+003;4.1620512695e+003;4.1619228516e+003;4.1666665039e+003;4.1661538086e+003;4.1451284180e+003;4.1524360352e+003;4.1492309570e+003;4.1574360352e+003;4.1532050781e+003;4.1520512695e+003;
1.6953125000e+000;4.2365385742e+003;4.1911538086e+003;4.1823076172e+003;4.1933334961e+003;4.1926923828e+003;4.1880771484e+003;4.1966665039e+003;4.1920512695e+003;4.1692309570e+003;4.1801284180e+003;4.1792309570e+003;4.1879487305e+003;4.1846152344e+003;4.1833334961e+003;
1.7031250000e+000;4.2773076172e+003;4.2319228516e+003;4.2248715820e+003;4.2350000000e+003;4.2392309570e+003;4.2278203125e+003;4.2406411133e+003;4.2410258789e+003;4.2167949219e+003;4.2307690430e+003;4.2275639648e+003;4.2334614258e+003;4.2315385742e+003;4.2316665039e+003;
1.7109375000e+000;4.2770512695e+003;4.2321796875e+003;4.2264101563e+003;4.2343588867e+003;4.2402563477e+003;4.2293588867e+003;4.2438461914e+003;4.2428203125e+003;4.2178203125e+003;4.2301284180e+003;4.2274360352e+003;4.2316665039e+003;4.2316665039e+003;4.2307690430e+003;
1.7187500000e+000;4.3034614258e+003;4.2607690430e+003;4.2544873047e+003;4.2588461914e+003;4.2676923828e+003;4.2556411133e+003;4.2717949219e+003;4.2708974609e+003;4.2456411133e+003;4.2571796875e+003;4.2551284180e+003;4.2575639648e+003;4.2606411133e+003;4.2566665039e+003;
1.7265625000e+000;4.3370512695e+003;4.2980771484e+003;4.2906411133e+003;4.2917949219e+003;4.3029487305e+003;4.2888461914e+003;4.3050000000e+003;4.3087177734e+003;4.2838461914e+003;4.2956411133e+003;4.2925639648e+003;4.2952563477e+003;4.2997436523e+003;4.2923076172e+003;
1.7343750000e+000;4.3428203125e+003;4.3134614258e+003;4.2991025391e+003;4.2994873047e+003;4.3160258789e+003;4.2870512695e+003;4.3021796875e+003;4.3217949219e+003;4.3050000000e+003;4.3055126953e+003;4.3032050781e+003;4.3051284180e+003;4.3088461914e+003;4.2958974609e+003;
1.7421875000e+000;4.3769228516e+003;4.3510258789e+003;4.3334614258e+003;4.3307690430e+003;4.3501284180e+003;4.3162822266e+003;4.3334614258e+003;4.3560258789e+003;4.3420512695e+003;4.3402563477e+003;4.3379487305e+003;4.3365385742e+003;4.3420512695e+003;4.3270512695e+003;
1.7500000000e+000;4.3641025391e+003;4.3498715820e+003;4.3293588867e+003;4.3289741211e+003;4.3384614258e+003;4.3103847656e+003;4.3247436523e+003;4.3543588867e+003;4.3403847656e+003;4.3389741211e+003;4.3352563477e+003;4.3361538086e+003;4.3378203125e+003;4.3223076172e+003;
1.7578125000e+000;4.4192309570e+003;4.4025639648e+003;4.3847436523e+003;4.3778203125e+003;4.3946152344e+003;4.3573076172e+003;4.3685898438e+003;4.4069228516e+003;4.3976923828e+003;4.3991025391e+003;4.3997436523e+003;4.3919228516e+003;4.3950000000e+003;4.3811538086e+003;
1.7656250000e+000;4.4048715820e+003;4.3970512695e+003;4.3808974609e+003;4.3716665039e+003;4.3985898438e+003;4.3717949219e+003;4.3771796875e+003;4.4015385742e+003;4.3925639648e+003;4.3970512695e+003;4.3894873047e+003;4.3862822266e+003;4.3891025391e+003;4.3761538086e+003;
1.7734375000e+000;4.4119228516e+003;4.4051284180e+003;4.3867949219e+003;4.3803847656e+003;4.4089741211e+003;4.3825639648e+003;4.3874360352e+003;4.4121796875e+003;4.4011538086e+003;4.4080771484e+003;4.3985898438e+003;4.3958974609e+003;4.3970512695e+003;4.3853847656e+003;
1.7812500000e+000;4.3720512695e+003;4.3614101563e+003;4.3467949219e+003;4.3429487305e+003;4.3698715820e+003;4.3498715820e+003;4.3575639648e+003;4.3737177734e+003;4.3587177734e+003;4.3651284180e+003;4.3593588867e+003;4.3561538086e+003;4.3537177734e+003;4.3455126953e+003;
1.7890625000e+000;4.3708974609e+003;4.3598715820e+003;4.3476923828e+003;4.3416665039e+003;4.3688461914e+003;4.3506411133e+003;4.3632050781e+003;4.3716665039e+003;4.3555126953e+003;4.3606411133e+003;4.3569228516e+003;4.3538461914e+003;4.3517949219e+003;4.3447436523e+003;
1.7968750000e+000;4.3855126953e+003;4.3858974609e+003;4.3762822266e+003;4.3638461914e+003;4.3891025391e+003;4.3764101563e+003;4.3965385742e+003;4.4038461914e+003;4.3808974609e+003;4.3858974609e+003;4.3789741211e+003;4.3816665039e+003;4.3766665039e+003;4.3700000000e+003;
1.8046875000e+000;4.3667949219e+003;4.3711538086e+003;4.3585898438e+003;4.3483334961e+003;4.3724360352e+003;4.3619228516e+003;4.3810258789e+003;4.3876923828e+003;4.3626923828e+003;4.3665385742e+003;4.3620512695e+003;4.3656411133e+003;4.3608974609e+003;4.3521796875e+003;
1.8125000000e+000;4.3824360352e+003;4.3905126953e+003;4.3721796875e+003;4.3615385742e+003;4.3883334961e+003;4.3730771484e+003;4.3907690430e+003;4.3952563477e+003;4.3726923828e+003;4.3769228516e+003;4.3770512695e+003;4.3800000000e+003;4.3792309570e+003;4.3688461914e+003;
1.8203125000e+000;4.3841025391e+003;4.3897436523e+003;4.3767949219e+003;4.3615385742e+003;4.3870512695e+003;4.3702563477e+003;4.3865385742e+003;4.3939741211e+003;4.3737177734e+003;4.3794873047e+003;4.3797436523e+003;4.3834614258e+003;4.3808974609e+003;4.3739741211e+003;
1.8281250000e+000;4.3041025391e+003;4.2992309570e+003;4.3066665039e+003;4.2850000000e+003;4.2971796875e+003;4.2819228516e+003;4.2994873047e+003;4.3141025391e+003;4.2941025391e+003;4.3014101563e+003;4.3047436523e+003;4.3089741211e+003;4.2992309570e+003;4.2987177734e+003;
1.8359375000e+000;4.3210258789e+003;4.3191025391e+003;4.3217949219e+003;4.3017949219e+003;4.3146152344e+003;4.2942309570e+003;4.3150000000e+003;4.3330771484e+003;4.3134614258e+003;4.3228203125e+003;4.3247436523e+003;4.3253847656e+003;4.3203847656e+003;4.3158974609e+003;
1.8437500000e+000;4.3403847656e+003;4.3423076172e+003;4.3396152344e+003;4.3203847656e+003;4.3343588867e+003;4.3103847656e+003;4.3325639648e+003;4.3560258789e+003;4.3383334961e+003;4.3491025391e+003;4.3473076172e+003;4.3450000000e+003;4.3446152344e+003;4.3373076172e+003;
1.8515625000e+000;4.3366665039e+003;4.3406411133e+003;4.3356411133e+003;4.3166665039e+003;4.3292309570e+003;4.3060258789e+003;4.3270512695e+003;4.3548715820e+003;4.3405126953e+003;4.3501284180e+003;4.3452563477e+003;4.3417949219e+003;4.3429487305e+003;4.3364101563e+003;
1.8593750000e+000;4.3283334961e+003;4.3346152344e+003;4.3319228516e+003;4.3126923828e+003;4.3270512695e+003;4.3092309570e+003;4.3226923828e+003;4.3567949219e+003;4.3479487305e+003;4.3488461914e+003;4.3407690430e+003;4.3361538086e+003;4.3367949219e+003;4.3321796875e+003;
1.8671875000e+000;4.3139741211e+003;4.3203847656e+003;4.3194873047e+003;4.3021796875e+003;4.3169228516e+003;4.3019228516e+003;4.3144873047e+003;4.3482050781e+003;4.3376923828e+003;4.3396152344e+003;4.3279487305e+003;4.3239741211e+003;4.3244873047e+003;4.3208974609e+003;
1.8750000000e+000;4.2769228516e+003;4.2796152344e+003;4.2847436523e+003;4.2702563477e+003;4.2775639648e+003;4.2700000000e+003;4.2770512695e+003;4.3037177734e+003;4.2942309570e+003;4.2915385742e+003;4.2821796875e+003;4.2817949219e+003;4.2808974609e+003;4.2807690430e+003;
1.8828125000e+000;4.2165385742e+003;4.2198715820e+003;4.2276923828e+003;4.2126923828e+003;4.2200000000e+003;4.2214101563e+003;4.2211538086e+003;4.2374360352e+003;4.2266665039e+003;4.2196152344e+003;4.2169228516e+003;4.2260258789e+003;4.2167949219e+003;4.2175639648e+003;
1.8906250000e+000;4.2230771484e+003;4.2225639648e+003;4.2293588867e+003;4.2207690430e+003;4.2197436523e+003;4.2208974609e+003;4.2332050781e+003;4.2343588867e+003;4.2147436523e+003;4.2126923828e+003;4.2214101563e+003;4.2321796875e+003;4.2146152344e+003;4.2234614258e+003;
1.8984375000e+000;4.1882050781e+003;4.1871796875e+003;4.1965385742e+003;4.1873076172e+003;4.1834614258e+003;4.1861538086e+003;4.1991025391e+003;4.1985898438e+003;4.1805126953e+003;4.1752563477e+003;4.1879487305e+003;4.1994873047e+003;4.1816665039e+003;4.1903847656e+003;
1.9062500000e+000;4.1614101563e+003;4.1580771484e+003;4.1701284180e+003;4.1578203125e+003;4.1591025391e+003;4.1608974609e+003;4.1734614258e+003;4.1660258789e+003;4.1521796875e+003;4.1501284180e+003;4.1653847656e+003;4.1707690430e+003;4.1584614258e+003;4.1664101563e+003;
1.9140625000e+000;4.1723076172e+003;4.1679487305e+003;4.1787177734e+003;4.1655126953e+003;4.1705126953e+003;4.1707690430e+003;4.1826923828e+003;4.1757690430e+003;4.1624360352e+003;4.1664101563e+003;4.1797436523e+003;4.1811538086e+003;4.1701284180e+003;4.1784614258e+003;
1.9218750000e+000;4.1489741211e+003;4.1378203125e+003;4.1420512695e+003;4.1352563477e+003;4.1367949219e+003;4.1366665039e+003;4.1503847656e+003;4.1452563477e+003;4.1308974609e+003;4.1352563477e+003;4.1483334961e+003;4.1516665039e+003;4.1406411133e+003;4.1438461914e+003;
1.9296875000e+000;4.1589741211e+003;4.1464101563e+003;4.1483334961e+003;4.1429487305e+003;4.1426923828e+003;4.1392309570e+003;4.1537177734e+003;4.1516665039e+003;4.1407690430e+003;4.1410258789e+003;4.1548715820e+003;4.1576923828e+003;4.1498715820e+003;4.1507690430e+003;
1.9375000000e+000;4.1346152344e+003;4.1220512695e+003;4.1282050781e+003;4.1224360352e+003;4.1126923828e+003;4.1084614258e+003;4.1185898438e+003;4.1324360352e+003;4.1284614258e+003;4.1243588867e+003;4.1374360352e+003;4.1382050781e+003;4.1296152344e+003;4.1346152344e+003;
1.9453125000e+000;4.0866667480e+003;4.0726923828e+003;4.0843588867e+003;4.0782050781e+003;4.0633332520e+003;4.0617949219e+003;4.0696154785e+003;4.0888461914e+003;4.0855129395e+003;4.0791025391e+003;4.0943588867e+003;4.0943588867e+003;4.0830769043e+003;4.0911538086e+003;
1.9531250000e+000;4.0841025391e+003;4.0629487305e+003;4.0741025391e+003;4.0682050781e+003;4.0592307129e+003;4.0550000000e+003;4.0601281738e+003;4.0850000000e+003;4.0824357910e+003;4.0694870605e+003;4.0902563477e+003;4.0846154785e+003;4.0817949219e+003;4.0832050781e+003;
1.9609375000e+000;4.0901281738e+003;4.0696154785e+003;4.0782050781e+003;4.0744870605e+003;4.0652563477e+003;4.0633332520e+003;4.0653845215e+003;4.0921794434e+003;4.0897436523e+003;4.0761538086e+003;4.0952563477e+003;4.0907692871e+003;4.0896154785e+003;4.0888461914e+003;
1.9687500000e+000;4.0734614258e+003;4.0544870605e+003;4.0614101563e+003;4.0612819824e+003;4.0488461914e+003;4.0507692871e+003;4.0510256348e+003;4.0761538086e+003;4.0739743652e+003;4.0593588867e+003;4.0770512695e+003;4.0755129395e+003;4.0737180176e+003;4.0721794434e+003;
1.9765625000e+000;4.0596154785e+003;4.0426923828e+003;4.0471794434e+003;4.0507692871e+003;4.0352563477e+003;4.0385898438e+003;4.0396154785e+003;4.0606411133e+003;4.0597436523e+003;4.0437180176e+003;4.0603845215e+003;4.0612819824e+003;4.0584614258e+003;4.0570512695e+003;
1.9843750000e+000;4.0587180176e+003;4.0387180176e+003;4.0391025391e+003;4.0466667480e+003;4.0301281738e+003;4.0329487305e+003;4.0332050781e+003;4.0496154785e+003;4.0564101563e+003;4.0355129395e+003;4.0480769043e+003;4.0453845215e+003;4.0443588867e+003;4.0434614258e+003;
1.9921875000e+000;4.0348718262e+003;4.0126923828e+003;4.0129487305e+003;4.0219230957e+003;4.0071794434e+003;4.0128205566e+003;4.0129487305e+003;4.0242307129e+003;4.0289743652e+003;4.0056411133e+003;4.0228205566e+003;4.0174357910e+003;4.0189743652e+003;4.0175642090e+003;
2.0000000000e+000;4.0537180176e+003;4.0308974609e+003;4.0329487305e+003;4.0414101563e+003;4.0314101563e+003;4.0362819824e+003;4.0438461914e+003;4.0491025391e+003;4.0433332520e+003;4.0226923828e+003;4.0424357910e+003;4.0382050781e+003;4.0398718262e+003;4.0397436523e+003;
2.0078125000e+000;4.0188461914e+003;3.9839743652e+003;3.9941025391e+003;4.0020512695e+003;3.9908974609e+003;4.0037180176e+003;4.0089743652e+003;3.9975642090e+003;3.9912819824e+003;3.9697436523e+003;3.9939743652e+003;3.9966667480e+003;3.9893588867e+003;3.9914101563e+003;
2.0156250000e+000;4.0307692871e+003;3.9924357910e+003;4.0034614258e+003;4.0087180176e+003;4.0014101563e+003;4.0124357910e+003;4.0179487305e+003;4.0033332520e+003;3.9980769043e+003;3.9761538086e+003;4.0026923828e+003;4.0047436523e+003;3.9966667480e+003;3.9998718262e+003;
2.0234375000e+000;3.9982050781e+003;3.9519230957e+003;3.9723076172e+003;3.9739743652e+003;3.9589743652e+003;3.9774357910e+003;3.9834614258e+003;3.9683332520e+003;3.9616667480e+003;3.9434614258e+003;3.9671794434e+003;3.9732050781e+003;3.9582050781e+003;3.9685898438e+003;
2.0312500000e+000;4.1107690430e+003;4.0730769043e+003;4.0889743652e+003;4.0878205566e+003;4.0793588867e+003;4.0780769043e+003;4.0897436523e+003;4.0862819824e+003;4.0874357910e+003;4.0703845215e+003;4.0894870605e+003;4.0923076172e+003;4.0835898438e+003;4.0858974609e+003;
2.0390625000e+000;4.1165385742e+003;4.0796154785e+003;4.0961538086e+003;4.0938461914e+003;4.0858974609e+003;4.0803845215e+003;4.0911538086e+003;4.0944870605e+003;4.0984614258e+003;4.0792307129e+003;4.0965385742e+003;4.0991025391e+003;4.0905129395e+003;4.0920512695e+003;
2.0468750000e+000;4.1134614258e+003;4.0756411133e+003;4.0930769043e+003;4.0901281738e+003;4.0806411133e+003;4.0732050781e+003;4.0834614258e+003;4.0910256348e+003;4.0971796875e+003;4.0756411133e+003;4.0921794434e+003;4.0947436523e+003;4.0850000000e+003;4.0862819824e+003;
2.0546875000e+000;4.1700000000e+003;4.1333334961e+003;4.1470512695e+003;4.1420512695e+003;4.1333334961e+003;4.1208974609e+003;4.1334614258e+003;4.1476923828e+003;4.1584614258e+003;4.1382050781e+003;4.1512822266e+003;4.1510258789e+003;4.1393588867e+003;4.1383334961e+003;
2.0625000000e+000;4.1766665039e+003;4.1519228516e+003;4.1596152344e+003;4.1523076172e+003;4.1494873047e+003;4.1411538086e+003;4.1512822266e+003;4.1707690430e+003;4.1853847656e+003;4.1662822266e+003;4.1714101563e+003;4.1673076172e+003;4.1610258789e+003;4.1565385742e+003;
2.0703125000e+000;4.1721796875e+003;4.1521796875e+003;4.1556411133e+003;4.1497436523e+003;4.1492309570e+003;4.1410258789e+003;4.1493588867e+003;4.1678203125e+003;4.1810258789e+003;4.1610258789e+003;4.1655126953e+003;4.1608974609e+003;4.1587177734e+003;4.1519228516e+003;
2.0781250000e+000;4.1839741211e+003;4.1682050781e+003;4.1666665039e+003;4.1624360352e+003;4.1646152344e+003;4.1544873047e+003;4.1615385742e+003;4.1812822266e+003;4.1928203125e+003;4.1730771484e+003;4.1757690430e+003;4.1707690430e+003;4.1702563477e+003;4.1617949219e+003;
2.0859375000e+000;4.1655126953e+003;4.1512822266e+003;4.1485898438e+003;4.1478203125e+003;4.1503847656e+003;4.1419228516e+003;4.1478203125e+003;4.1721796875e+003;4.1807690430e+003;4.1574360352e+003;4.1591025391e+003;4.1548715820e+003;4.1480771484e+003;4.1428203125e+003;
2.0937500000e+000;4.1346152344e+003;4.1179487305e+003;4.1189741211e+003;4.1207690430e+003;4.1208974609e+003;4.1166665039e+003;4.1228203125e+003;4.1448715820e+003;4.1519228516e+003;4.1244873047e+003;4.1288461914e+003;4.1251284180e+003;4.1157690430e+003;4.1130771484e+003;
2.1015625000e+000;4.1232050781e+003;4.1042309570e+003;4.1084614258e+003;4.1125639648e+003;4.1106411133e+003;4.1097436523e+003;4.1161538086e+003;4.1344873047e+003;4.1387177734e+003;4.1097436523e+003;4.1166665039e+003;4.1128203125e+003;4.1046152344e+003;4.1029487305e+003;
2.1093750000e+000;4.0869230957e+003;4.0678205566e+003;4.0726923828e+003;4.0752563477e+003;4.0737180176e+003;4.0816667480e+003;4.0953845215e+003;4.0941025391e+003;4.0820512695e+003;4.0610256348e+003;4.0760256348e+003;4.0758974609e+003;4.0689743652e+003;4.0738461914e+003;
2.1171875000e+000;4.0997436523e+003;4.0803845215e+003;4.0816667480e+003;4.0847436523e+003;4.0857692871e+003;4.0915385742e+003;4.1073076172e+003;4.1032050781e+003;4.0916667480e+003;4.0708974609e+003;4.0876923828e+003;4.0871794434e+003;4.0808974609e+003;4.0869230957e+003;
2.1250000000e+000;4.0835898438e+003;4.0619230957e+003;4.0675642090e+003;4.0697436523e+003;4.0652563477e+003;4.0765385742e+003;4.0888461914e+003;4.0837180176e+003;4.0676923828e+003;4.0589743652e+003;4.0700000000e+003;4.0755129395e+003;4.0674357910e+003;4.0723076172e+003;
2.1328125000e+000;4.1223076172e+003;4.1016665039e+003;4.1025639648e+003;4.1078203125e+003;4.1008974609e+003;4.1038461914e+003;4.1191025391e+003;4.1135898438e+003;4.1035898438e+003;4.0989741211e+003;4.1084614258e+003;4.1132050781e+003;4.1069228516e+003;4.1139741211e+003;
2.1406250000e+000;4.1196152344e+003;4.1010258789e+003;4.1030771484e+003;4.1074360352e+003;4.0989741211e+003;4.1003847656e+003;4.1151284180e+003;4.1130771484e+003;4.1083334961e+003;4.1025639648e+003;4.1106411133e+003;4.1143588867e+003;4.1075639648e+003;4.1137177734e+003;
2.1484375000e+000;4.1101284180e+003;4.0991025391e+003;4.1039741211e+003;4.1044873047e+003;4.0943588867e+003;4.0875642090e+003;4.1026923828e+003;4.1066665039e+003;4.1142309570e+003;4.1047436523e+003;4.1096152344e+003;4.1092309570e+003;4.1020512695e+003;4.1030771484e+003;
2.1562500000e+000;4.0470512695e+003;4.0350000000e+003;4.0428205566e+003;4.0412819824e+003;4.0325642090e+003;4.0317949219e+003;4.0426923828e+003;4.0593588867e+003;4.0710256348e+003;4.0567949219e+003;4.0503845215e+003;4.0508974609e+003;4.0398718262e+003;4.0442307129e+003;
2.1640625000e+000;4.0096154785e+003;3.9962819824e+003;4.0046154785e+003;4.0058974609e+003;3.9997436523e+003;4.0034614258e+003;4.0128205566e+003;4.0297436523e+003;4.0414101563e+003;4.0207692871e+003;4.0119230957e+003;4.0111538086e+003;4.0028205566e+003;4.0058974609e+003;
2.1718750000e+000;3.9996154785e+003;3.9873076172e+003;3.9937180176e+003;3.9987180176e+003;3.9958974609e+003;4.0017949219e+003;4.0103845215e+003;4.0294870605e+003;4.0401281738e+003;4.0128205566e+003;4.0021794434e+003;3.9992307129e+003;3.9944870605e+003;3.9956411133e+003;
2.1796875000e+000;3.9802563477e+003;3.9720512695e+003;3.9741025391e+003;3.9892307129e+003;3.9834614258e+003;3.9961538086e+003;4.0021794434e+003;4.0297436523e+003;4.0344870605e+003;3.9996154785e+003;3.9871794434e+003;3.9844870605e+003;3.9788461914e+003;3.9814101563e+003;
2.1875000000e+000;3.9303845215e+003;3.9188461914e+003;3.9152563477e+003;3.9393588867e+003;3.9288461914e+003;3.9444870605e+003;3.9508974609e+003;3.9725642090e+003;3.9673076172e+003;3.9388461914e+003;3.9337180176e+003;3.9293588867e+003;3.9265385742e+003;3.9246154785e+003;
2.1953125000e+000;3.9456411133e+003;3.9325642090e+003;3.9289743652e+003;3.9515385742e+003;3.9426923828e+003;3.9557692871e+003;3.9632050781e+003;3.9837180176e+003;3.9785898438e+003;3.9520512695e+003;3.9487180176e+003;3.9425642090e+003;3.9433332520e+003;3.9375642090e+003;
2.2031250000e+000;3.9410256348e+003;3.9250000000e+003;3.9250000000e+003;3.9458974609e+003;3.9352563477e+003;3.9501281738e+003;3.9573076172e+003;3.9765385742e+003;3.9719230957e+003;3.9448718262e+003;3.9430769043e+003;3.9379487305e+003;3.9384614258e+003;3.9325642090e+003;
2.2109375000e+000;3.8873076172e+003;3.8628205566e+003;3.8702563477e+003;3.8923076172e+003;3.8735898438e+003;3.8985898438e+003;3.9042307129e+003;3.9121794434e+003;3.9050000000e+003;3.8776923828e+003;3.8808974609e+003;3.8816667480e+003;3.8762819824e+003;3.8775642090e+003;
2.2187500000e+000;3.8821794434e+003;3.8550000000e+003;3.8611538086e+003;3.8846154785e+003;3.8658974609e+003;3.8915385742e+003;3.8976923828e+003;3.8988461914e+003;3.8892307129e+003;3.8658974609e+003;3.8714101563e+003;3.8738461914e+003;3.8674357910e+003;3.8707692871e+003;
2.2265625000e+000;3.8874357910e+003;3.8589743652e+003;3.8617949219e+003;3.8869230957e+003;3.8700000000e+003;3.8941025391e+003;3.9007692871e+003;3.8976923828e+003;3.8862819824e+003;3.8674357910e+003;3.8742307129e+003;3.8776923828e+003;3.8716667480e+003;3.8747436523e+003;
2.2343750000e+000;3.9205129395e+003;3.8803845215e+003;3.8778205566e+003;3.9093588867e+003;3.8875642090e+003;3.9097436523e+003;3.9203845215e+003;3.9005129395e+003;3.8928205566e+003;3.8797436523e+003;3.8952563477e+003;3.8969230957e+003;3.8926923828e+003;3.8958974609e+003;
2.2421875000e+000;3.9232050781e+003;3.8808974609e+003;3.8817949219e+003;3.9106411133e+003;3.8858974609e+003;3.9062819824e+003;3.9156411133e+003;3.8978205566e+003;3.8896154785e+003;3.8830769043e+003;3.8964101563e+003;3.9006411133e+003;3.8947436523e+003;3.9015385742e+003;
2.2500000000e+000;3.9102563477e+003;3.8628205566e+003;3.8692307129e+003;3.8950000000e+003;3.8621794434e+003;3.8738461914e+003;3.8848718262e+003;3.8642307129e+003;3.8585898438e+003;3.8560256348e+003;3.8737180176e+003;3.8852563477e+003;3.8798718262e+003;3.8833332520e+003;
2.2578125000e+000;3.9755129395e+003;3.9293588867e+003;3.9329487305e+003;3.9562819824e+003;3.9235898438e+003;3.9248718262e+003;3.9378205566e+003;3.9300000000e+003;3.9433332520e+003;3.9374357910e+003;3.9496154785e+003;3.9576923828e+003;3.9461538086e+003;3.9497436523e+003;
2.2656250000e+000;3.9656411133e+003;3.9187180176e+003;3.9232050781e+003;3.9453845215e+003;3.9138461914e+003;3.9146154785e+003;3.9265385742e+003;3.9196154785e+003;3.9364101563e+003;3.9284614258e+003;3.9382050781e+003;3.9471794434e+003;3.9357692871e+003;3.9382050781e+003;
2.2734375000e+000;4.0155129395e+003;3.9691025391e+003;3.9711538086e+003;3.9929487305e+003;3.9702563477e+003;3.9682050781e+003;3.9756411133e+003;3.9819230957e+003;3.9914101563e+003;3.9802563477e+003;3.9865385742e+003;3.9887180176e+003;3.9882050781e+003;3.9817949219e+003;
2.2812500000e+000;4.0023076172e+003;3.9574357910e+003;3.9533332520e+003;3.9802563477e+003;3.9553845215e+003;3.9646154785e+003;3.9687180176e+003;3.9820512695e+003;3.9810256348e+003;3.9629487305e+003;3.9669230957e+003;3.9742307129e+003;3.9687180176e+003;3.9714101563e+003;
2.2890625000e+000;4.0228205566e+003;3.9800000000e+003;3.9739743652e+003;3.9975642090e+003;3.9761538086e+003;3.9829487305e+003;3.9897436523e+003;4.0019230957e+003;4.0001281738e+003;3.9829487305e+003;3.9846154785e+003;3.9921794434e+003;3.9880769043e+003;3.9906411133e+003;
2.2968750000e+000;4.0303845215e+003;3.9884614258e+003;3.9839743652e+003;4.0035898438e+003;3.9850000000e+003;3.9902563477e+003;3.9988461914e+003;4.0105129395e+003;4.0069230957e+003;3.9916667480e+003;3.9908974609e+003;3.9971794434e+003;3.9948718262e+003;3.9957692871e+003;
2.3046875000e+000;4.0089743652e+003;3.9641025391e+003;3.9669230957e+003;3.9832050781e+003;3.9667949219e+003;3.9738461914e+003;3.9839743652e+003;3.9908974609e+003;3.9801281738e+003;3.9667949219e+003;3.9657692871e+003;3.9692307129e+003;3.9694870605e+003;3.9655129395e+003;
2.3125000000e+000;4.0311538086e+003;3.9855129395e+003;3.9875642090e+003;4.0035898438e+003;3.9901281738e+003;3.9947436523e+003;4.0071794434e+003;4.0123076172e+003;3.9991025391e+003;3.9871794434e+003;3.9856411133e+003;3.9893588867e+003;3.9901281738e+003;3.9841025391e+003;
2.3203125000e+000;4.1052563477e+003;4.0633332520e+003;4.0598718262e+003;4.0715385742e+003;4.0651281738e+003;4.0630769043e+003;4.0800000000e+003;4.0901281738e+003;4.0758974609e+003;4.0688461914e+003;4.0634614258e+003;4.0707692871e+003;4.0682050781e+003;4.0626923828e+003;
2.3281250000e+000;4.1038461914e+003;4.0639743652e+003;4.0600000000e+003;4.0694870605e+003;4.0634614258e+003;4.0626923828e+003;4.0802563477e+003;4.0901281738e+003;4.0748718262e+003;4.0692307129e+003;4.0660256348e+003;4.0741025391e+003;4.0687180176e+003;4.0662819824e+003;
2.3359375000e+000;4.1435898438e+003;4.1044873047e+003;4.1001284180e+003;4.1034614258e+003;4.1012822266e+003;4.0983334961e+003;4.1167949219e+003;4.1102563477e+003;4.0908974609e+003;4.0941025391e+003;4.1025639648e+003;4.1079487305e+003;4.1043588867e+003;4.1066665039e+003;
2.3437500000e+000;4.1769228516e+003;4.1376923828e+003;4.1364101563e+003;4.1364101563e+003;4.1351284180e+003;4.1285898438e+003;4.1475639648e+003;4.1401284180e+003;4.1194873047e+003;4.1284614258e+003;4.1339741211e+003;4.1420512695e+003;4.1376923828e+003;4.1389741211e+003;
2.3515625000e+000;4.1808974609e+003;4.1415385742e+003;4.1450000000e+003;4.1434614258e+003;4.1408974609e+003;4.1333334961e+003;4.1523076172e+003;4.1433334961e+003;4.1212822266e+003;4.1337177734e+003;4.1366665039e+003;4.1487177734e+003;4.1412822266e+003;4.1424360352e+003;
2.3593750000e+000;4.1643588867e+003;4.1339741211e+003;4.1284614258e+003;4.1310258789e+003;4.1256411133e+003;4.1143588867e+003;4.1294873047e+003;4.1103847656e+003;4.1007690430e+003;4.1096152344e+003;4.1241025391e+003;4.1347436523e+003;4.1252563477e+003;4.1279487305e+003;
2.3671875000e+000;4.1464101563e+003;4.1148715820e+003;4.1125639648e+003;4.1151284180e+003;4.1073076172e+003;4.0941025391e+003;4.1102563477e+003;4.0917949219e+003;4.0866667480e+003;4.0953845215e+003;4.1096152344e+003;4.1215385742e+003;4.1117949219e+003;4.1123076172e+003;
2.3750000000e+000;4.1729487305e+003;4.1425639648e+003;4.1446152344e+003;4.1451284180e+003;4.1370512695e+003;4.1148715820e+003;4.1287177734e+003;4.1220512695e+003;4.1292309570e+003;4.1375639648e+003;4.1428203125e+003;4.1525639648e+003;4.1482050781e+003;4.1416665039e+003;
2.3828125000e+000;4.1556411133e+003;4.1264101563e+003;4.1267949219e+003;4.1261538086e+003;4.1164101563e+003;4.1006411133e+003;4.1100000000e+003;4.1094873047e+003;4.1174360352e+003;4.1219228516e+003;4.1252563477e+003;4.1343588867e+003;4.1301284180e+003;4.1228203125e+003;
2.3906250000e+000;4.1241025391e+003;4.0930769043e+003;4.0884614258e+003;4.0882050781e+003;4.0798718262e+003;4.0762819824e+003;4.0843588867e+003;4.0866667480e+003;4.0923076172e+003;4.0862819824e+003;4.0908974609e+003;4.0993588867e+003;4.0946154785e+003;4.0851281738e+003;
2.3984375000e+000;4.1287177734e+003;4.1021796875e+003;4.0982050781e+003;4.1021796875e+003;4.0971796875e+003;4.0946154785e+003;4.1037177734e+003;4.1188461914e+003;4.1146152344e+003;4.1048715820e+003;4.1024360352e+003;4.1115385742e+003;4.1035898438e+003;4.1010258789e+003;
2.4062500000e+000;4.1174360352e+003;4.0910256348e+003;4.0878205566e+003;4.0907692871e+003;4.0853845215e+003;4.0861538086e+003;4.0960258789e+003;4.1074360352e+003;4.0991025391e+003;4.0884614258e+003;4.0858974609e+003;4.0944870605e+003;4.0891025391e+003;4.0862819824e+003;
2.4140625000e+000;4.1675639648e+003;4.1442309570e+003;4.1389741211e+003;4.1392309570e+003;4.1398715820e+003;4.1380771484e+003;4.1528203125e+003;4.1602563477e+003;4.1493588867e+003;4.1380771484e+003;4.1321796875e+003;4.1405126953e+003;4.1378203125e+003;4.1307690430e+003;
2.4218750000e+000;4.1694873047e+003;4.1489741211e+003;4.1446152344e+003;4.1453847656e+003;4.1471796875e+003;4.1446152344e+003;4.1591025391e+003;4.1666665039e+003;4.1566665039e+003;4.1447436523e+003;4.1374360352e+003;4.1479487305e+003;4.1419228516e+003;4.1347436523e+003;
2.4296875000e+000;4.1065385742e+003;4.0873076172e+003;4.0875642090e+003;4.0923076172e+003;4.0888461914e+003;4.0911538086e+003;4.1024360352e+003;4.0980771484e+003;4.0861538086e+003;4.0696154785e+003;4.0739743652e+003;4.0883332520e+003;4.0755129395e+003;4.0720512695e+003;
2.4375000000e+000;4.1103847656e+003;4.0891025391e+003;4.0907692871e+003;4.0960258789e+003;4.0894870605e+003;4.0938461914e+003;4.1053847656e+003;4.0976923828e+003;4.0819230957e+003;4.0670512695e+003;4.0752563477e+003;4.0902563477e+003;4.0764101563e+003;4.0742307129e+003;
2.4453125000e+000;4.0964101563e+003;4.0752563477e+003;4.0812819824e+003;4.0878205566e+003;4.0743588867e+003;4.0829487305e+003;4.0944870605e+003;4.0776923828e+003;4.0575642090e+003;4.0493588867e+003;4.0598718262e+003;4.0791025391e+003;4.0614101563e+003;4.0619230957e+003;
2.4531250000e+000;4.1048715820e+003;4.0878205566e+003;4.0917949219e+003;4.0985898438e+003;4.0857692871e+003;4.0912819824e+003;4.1028203125e+003;4.0811538086e+003;4.0623076172e+003;4.0582050781e+003;4.0691025391e+003;4.0884614258e+003;4.0710256348e+003;4.0721794434e+003;
2.4609375000e+000;4.1974360352e+003;4.1843588867e+003;4.1776923828e+003;4.1825639648e+003;4.1744873047e+003;4.1648715820e+003;4.1748715820e+003;4.1564101563e+003;4.1460258789e+003;4.1571796875e+003;4.1665385742e+003;4.1815385742e+003;4.1643588867e+003;4.1670512695e+003;
2.4687500000e+000;4.1882050781e+003;4.1703847656e+003;4.1665385742e+003;4.1720512695e+003;4.1598715820e+003;4.1514101563e+003;4.1614101563e+003;4.1408974609e+003;4.1339741211e+003;4.1483334961e+003;4.1585898438e+003;4.1738461914e+003;4.1565385742e+003;4.1588461914e+003;
2.4765625000e+000;4.1829487305e+003;4.1628203125e+003;4.1610258789e+003;4.1670512695e+003;4.1526923828e+003;4.1432050781e+003;4.1550000000e+003;4.1302563477e+003;4.1280771484e+003;4.1442309570e+003;4.1561538086e+003;4.1707690430e+003;4.1557690430e+003;4.1565385742e+003;
2.4843750000e+000;4.2010258789e+003;4.1838461914e+003;4.1805126953e+003;4.1857690430e+003;4.1734614258e+003;4.1587177734e+003;4.1729487305e+003;4.1471796875e+003;4.1505126953e+003;4.1680771484e+003;4.1801284180e+003;4.1924360352e+003;4.1817949219e+003;4.1808974609e+003;
2.4921875000e+000;4.1796152344e+003;4.1706411133e+003;4.1628203125e+003;4.1601284180e+003;4.1491025391e+003;4.1333334961e+003;4.1415385742e+003;4.1473076172e+003;4.1544873047e+003;4.1680771484e+003;4.1666665039e+003;4.1738461914e+003;4.1678203125e+003;4.1664101563e+003;
2.5000000000e+000;4.1569228516e+003;4.1523076172e+003;4.1406411133e+003;4.1478203125e+003;4.1373076172e+003;4.1325639648e+003;4.1429487305e+003;4.1601284180e+003;4.1600000000e+003;4.1547436523e+003;4.1471796875e+003;4.1511538086e+003;4.1503847656e+003;4.1473076172e+003;
2.5078125000e+000;4.1456411133e+003;4.1429487305e+003;4.1278203125e+003;4.1378203125e+003;4.1317949219e+003;4.1296152344e+003;4.1414101563e+003;4.1547436523e+003;4.1520512695e+003;4.1428203125e+003;4.1344873047e+003;4.1414101563e+003;4.1385898438e+003;4.1382050781e+003;
2.5156250000e+000;4.1897436523e+003;4.1871796875e+003;4.1730771484e+003;4.1774360352e+003;4.1832050781e+003;4.1808974609e+003;4.1928203125e+003;4.2039741211e+003;4.1948715820e+003;4.1878203125e+003;4.1787177734e+003;4.1871796875e+003;4.1829487305e+003;4.1838461914e+003;
2.5234375000e+000;4.1429487305e+003;4.1378203125e+003;4.1388461914e+003;4.1380771484e+003;4.1403847656e+003;4.1505126953e+003;4.1533334961e+003;4.1552563477e+003;4.1496152344e+003;4.1426923828e+003;4.1411538086e+003;4.1452563477e+003;4.1451284180e+003;4.1432050781e+003;
2.5312500000e+000;4.1526923828e+003;4.1458974609e+003;4.1461538086e+003;4.1446152344e+003;4.1485898438e+003;4.1567949219e+003;4.1589741211e+003;4.1605126953e+003;4.1541025391e+003;4.1493588867e+003;4.1491025391e+003;4.1528203125e+003;4.1538461914e+003;4.1524360352e+003;
2.5390625000e+000;4.1365385742e+003;4.1242309570e+003;4.1324360352e+003;4.1224360352e+003;4.1269228516e+003;4.1350000000e+003;4.1351284180e+003;4.1371796875e+003;4.1270512695e+003;4.1303847656e+003;4.1314101563e+003;4.1407690430e+003;4.1350000000e+003;4.1347436523e+003;
2.5468750000e+000;4.1230771484e+003;4.1100000000e+003;4.1207690430e+003;4.1091025391e+003;4.1130771484e+003;4.1206411133e+003;4.1207690430e+003;4.1183334961e+003;4.1085898438e+003;4.1152563477e+003;4.1185898438e+003;4.1297436523e+003;4.1219228516e+003;4.1202563477e+003;
2.5546875000e+000;4.1693588867e+003;4.1619228516e+003;4.1617949219e+003;4.1573076172e+003;4.1633334961e+003;4.1587177734e+003;4.1603847656e+003;4.1500000000e+003;4.1458974609e+003;4.1638461914e+003;4.1712822266e+003;4.1744873047e+003;4.1756411133e+003;4.1757690430e+003;
2.5625000000e+000;4.1519228516e+003;4.1433334961e+003;4.1442309570e+003;4.1392309570e+003;4.1434614258e+003;4.1391025391e+003;4.1393588867e+003;4.1287177734e+003;4.1241025391e+003;4.1434614258e+003;4.1524360352e+003;4.1567949219e+003;4.1557690430e+003;4.1614101563e+003;
2.5703125000e+000;4.1470512695e+003;4.1346152344e+003;4.1406411133e+003;4.1288461914e+003;4.1302563477e+003;4.1241025391e+003;4.1265385742e+003;4.1112822266e+003;4.1082050781e+003;4.1275639648e+003;4.1401284180e+003;4.1511538086e+003;4.1417949219e+003;4.1525639648e+003;
2.5781250000e+000;4.1851284180e+003;4.1733334961e+003;4.1800000000e+003;4.1644873047e+003;4.1651284180e+003;4.1542309570e+003;4.1600000000e+003;4.1446152344e+003;4.1451284180e+003;4.1662822266e+003;4.1773076172e+003;4.1900000000e+003;4.1791025391e+003;4.1873076172e+003;
2.5859375000e+000;4.1961538086e+003;4.1866665039e+003;4.1951284180e+003;4.1787177734e+003;4.1685898438e+003;4.1543588867e+003;4.1647436523e+003;4.1494873047e+003;4.1542309570e+003;4.1825639648e+003;4.1866665039e+003;4.1957690430e+003;4.1900000000e+003;4.1938461914e+003;
2.5937500000e+000;4.1937177734e+003;4.1853847656e+003;4.1921796875e+003;4.1756411133e+003;4.1665385742e+003;4.1502563477e+003;4.1603847656e+003;4.1464101563e+003;4.1503847656e+003;4.1776923828e+003;4.1819228516e+003;4.1883334961e+003;4.1864101563e+003;4.1900000000e+003;
2.6015625000e+000;4.2100000000e+003;4.2043588867e+003;4.2082050781e+003;4.1905126953e+003;4.1858974609e+003;4.1658974609e+003;4.1752563477e+003;4.1684614258e+003;4.1720512695e+003;4.1969228516e+003;4.1991025391e+003;4.2035898438e+003;4.2038461914e+003;4.2066665039e+003;
2.6093750000e+000;4.2210258789e+003;4.2187177734e+003;4.2201284180e+003;4.2023076172e+003;4.2020512695e+003;4.1806411133e+003;4.1885898438e+003;4.1933334961e+003;4.1965385742e+003;4.2176923828e+003;4.2150000000e+003;4.2191025391e+003;4.2184614258e+003;4.2205126953e+003;
2.6171875000e+000;4.1970512695e+003;4.2000000000e+003;4.1903847656e+003;4.1901284180e+003;4.1967949219e+003;4.1915385742e+003;4.2021796875e+003;4.2164101563e+003;4.2142309570e+003;4.2194873047e+003;4.1993588867e+003;4.1960258789e+003;4.2047436523e+003;4.2001284180e+003;
2.6250000000e+000;4.2067949219e+003;4.2111538086e+003;4.2017949219e+003;4.2000000000e+003;4.2100000000e+003;4.2069228516e+003;4.2176923828e+003;4.2300000000e+003;4.2275639648e+003;4.2323076172e+003;4.2103847656e+003;4.2052563477e+003;4.2169228516e+003;4.2102563477e+003;
2.6328125000e+000;4.1706411133e+003;4.1729487305e+003;4.1756411133e+003;4.1669228516e+003;4.1750000000e+003;4.1810258789e+003;4.1888461914e+003;4.1942309570e+003;4.1915385742e+003;4.1915385742e+003;4.1737177734e+003;4.1739741211e+003;4.1784614258e+003;4.1743588867e+003;
2.6406250000e+000;4.1723076172e+003;4.1752563477e+003;4.1757690430e+003;4.1692309570e+003;4.1750000000e+003;4.1819228516e+003;4.1864101563e+003;4.1920512695e+003;4.1926923828e+003;4.1956411133e+003;4.1796152344e+003;4.1755126953e+003;4.1780771484e+003;4.1769228516e+003;
2.6484375000e+000;4.1979487305e+003;4.2023076172e+003;4.2019228516e+003;4.1910258789e+003;4.2034614258e+003;4.2037177734e+003;4.2112822266e+003;4.2039741211e+003;4.2024360352e+003;4.2092309570e+003;4.2070512695e+003;4.2071796875e+003;4.2094873047e+003;4.2101284180e+003;
2.6562500000e+000;4.1785898438e+003;4.1824360352e+003;4.1839741211e+003;4.1733334961e+003;4.1808974609e+003;4.1841025391e+003;4.1889741211e+003;4.1851284180e+003;4.1814101563e+003;4.1915385742e+003;4.1884614258e+003;4.1906411133e+003;4.1908974609e+003;4.1937177734e+003;
2.6640625000e+000;4.1164101563e+003;4.1158974609e+003;4.1238461914e+003;4.1134614258e+003;4.1132050781e+003;4.1175639648e+003;4.1223076172e+003;4.1116665039e+003;4.1057690430e+003;4.1211538086e+003;4.1238461914e+003;4.1287177734e+003;4.1255126953e+003;4.1314101563e+003;
2.6718750000e+000;4.1343588867e+003;4.1329487305e+003;4.1414101563e+003;4.1294873047e+003;4.1307690430e+003;4.1284614258e+003;4.1366665039e+003;4.1196152344e+003;4.1147436523e+003;4.1339741211e+003;4.1417949219e+003;4.1465385742e+003;4.1434614258e+003;4.1485898438e+003;
2.6796875000e+000;4.1658974609e+003;4.1670512695e+003;4.1711538086e+003;4.1624360352e+003;4.1550000000e+003;4.1491025391e+003;4.1597436523e+003;4.1401284180e+003;4.1385898438e+003;4.1671796875e+003;4.1782050781e+003;4.1856411133e+003;4.1807690430e+003;4.1837177734e+003;
2.6875000000e+000;4.1528203125e+003;4.1525639648e+003;4.1558974609e+003;4.1488461914e+003;4.1376923828e+003;4.1324360352e+003;4.1426923828e+003;4.1243588867e+003;4.1252563477e+003;4.1526923828e+003;4.1617949219e+003;4.1688461914e+003;4.1647436523e+003;4.1665385742e+003;
2.6953125000e+000;4.1810258789e+003;4.1762822266e+003;4.1817949219e+003;4.1712822266e+003;4.1638461914e+003;4.1491025391e+003;4.1594873047e+003;4.1507690430e+003;4.1600000000e+003;4.1830771484e+003;4.1839741211e+003;4.1879487305e+003;4.1887177734e+003;4.1875639648e+003;
2.7031250000e+000;4.1838461914e+003;4.1792309570e+003;4.1862822266e+003;4.1743588867e+003;4.1691025391e+003;4.1533334961e+003;4.1616665039e+003;4.1594873047e+003;4.1703847656e+003;4.1906411133e+003;4.1879487305e+003;4.1912822266e+003;4.1923076172e+003;4.1916665039e+003;
2.7109375000e+000;4.1315385742e+003;4.1403847656e+003;4.1393588867e+003;4.1335898438e+003;4.1280771484e+003;4.1275639648e+003;4.1305126953e+003;4.1410258789e+003;4.1432050781e+003;4.1506411133e+003;4.1446152344e+003;4.1458974609e+003;4.1428203125e+003;4.1446152344e+003;
2.7187500000e+000;4.1151284180e+003;4.1253847656e+003;4.1246152344e+003;4.1189741211e+003;4.1146152344e+003;4.1176923828e+003;4.1198715820e+003;4.1352563477e+003;4.1352563477e+003;4.1384614258e+003;4.1302563477e+003;4.1319228516e+003;4.1267949219e+003;4.1292309570e+003;
2.7265625000e+000;4.0747436523e+003;4.0812819824e+003;4.0851281738e+003;4.0796154785e+003;4.0757692871e+003;4.0834614258e+003;4.0839743652e+003;4.1014101563e+003;4.1007690430e+003;4.0991025391e+003;4.0898718262e+003;4.0928205566e+003;4.0852563477e+003;4.0888461914e+003;
2.7343750000e+000;4.0178205566e+003;4.0182050781e+003;4.0274357910e+003;4.0237180176e+003;4.0202563477e+003;4.0333332520e+003;4.0315385742e+003;4.0461538086e+003;4.0457692871e+003;4.0391025391e+003;4.0307692871e+003;4.0344870605e+003;4.0255129395e+003;4.0300000000e+003;
2.7421875000e+000;3.9860256348e+003;3.9862819824e+003;3.9882050781e+003;3.9923076172e+003;3.9916667480e+003;4.0143588867e+003;4.0092307129e+003;4.0206411133e+003;4.0157692871e+003;4.0083332520e+003;3.9907692871e+003;3.9915385742e+003;3.9879487305e+003;3.9924357910e+003;
2.7500000000e+000;3.9700000000e+003;3.9682050781e+003;3.9720512695e+003;3.9766667480e+003;3.9730769043e+003;3.9980769043e+003;3.9920512695e+003;4.0023076172e+003;3.9984614258e+003;3.9885898438e+003;3.9708974609e+003;3.9730769043e+003;3.9684614258e+003;3.9743588867e+003;
2.7578125000e+000;4.0374357910e+003;4.0246154785e+003;4.0310256348e+003;4.0375642090e+003;4.0344870605e+003;4.0484614258e+003;4.0447436523e+003;4.0423076172e+003;4.0465385742e+003;4.0361538086e+003;4.0315385742e+003;4.0260256348e+003;4.0260256348e+003;4.0260256348e+003;
2.7656250000e+000;4.0589743652e+003;4.0460256348e+003;4.0566667480e+003;4.0524357910e+003;4.0453845215e+003;4.0514101563e+003;4.0493588867e+003;4.0444870605e+003;4.0471794434e+003;4.0519230957e+003;4.0476923828e+003;4.0506411133e+003;4.0358974609e+003;4.0423076172e+003;
2.7734375000e+000;4.0752563477e+003;4.0598718262e+003;4.0724357910e+003;4.0660256348e+003;4.0567949219e+003;4.0575642090e+003;4.0583332520e+003;4.0478205566e+003;4.0525642090e+003;4.0610256348e+003;4.0600000000e+003;4.0642307129e+003;4.0482050781e+003;4.0569230957e+003;
2.7812500000e+000;4.1596152344e+003;4.1403847656e+003;4.1539741211e+003;4.1461538086e+003;4.1330771484e+003;4.1234614258e+003;4.1273076172e+003;4.1079487305e+003;4.1164101563e+003;4.1394873047e+003;4.1475639648e+003;4.1498715820e+003;4.1371796875e+003;4.1437177734e+003;
2.7890625000e+000;4.2402563477e+003;4.2269228516e+003;4.2342309570e+003;4.2148715820e+003;4.2094873047e+003;4.1844873047e+003;4.1946152344e+003;4.1697436523e+003;4.1843588867e+003;4.2192309570e+003;4.2308974609e+003;4.2328203125e+003;4.2234614258e+003;4.2306411133e+003;
2.7968750000e+000;4.2443588867e+003;4.2326923828e+003;4.2406411133e+003;4.2191025391e+003;4.2134614258e+003;4.1862822266e+003;4.1958974609e+003;4.1752563477e+003;4.1948715820e+003;4.2294873047e+003;4.2378203125e+003;4.2392309570e+003;4.2298715820e+003;4.2394873047e+003;
2.8046875000e+000;4.1889741211e+003;4.1819228516e+003;4.1871796875e+003;4.1746152344e+003;4.1682050781e+003;4.1500000000e+003;4.1614101563e+003;4.1512822266e+003;4.1679487305e+003;4.1867949219e+003;4.1848715820e+003;4.1874360352e+003;4.1821796875e+003;4.1888461914e+003;
2.8125000000e+000;4.2089741211e+003;4.2058974609e+003;4.2057690430e+003;4.1946152344e+003;4.1939741211e+003;4.1757690430e+003;4.1902563477e+003;4.1851284180e+003;4.1962822266e+003;4.2110258789e+003;4.2064101563e+003;4.2084614258e+003;4.2033334961e+003;4.2083334961e+003;
2.8203125000e+000;4.2053847656e+003;4.2080771484e+003;4.2065385742e+003;4.1951284180e+003;4.2026923828e+003;4.1897436523e+003;4.2051284180e+003;4.2067949219e+003;4.2120512695e+003;4.2173076172e+003;4.2096152344e+003;4.2108974609e+003;4.1979487305e+003;4.2061538086e+003;
2.8281250000e+000;4.1897436523e+003;4.1933334961e+003;4.1951284180e+003;4.1826923828e+003;4.1938461914e+003;4.1848715820e+003;4.1996152344e+003;4.2002563477e+003;4.2055126953e+003;4.2048715820e+003;4.1965385742e+003;4.1965385742e+003;4.1823076172e+003;4.1919228516e+003;
2.8359375000e+000;4.2710258789e+003;4.2800000000e+003;4.2834614258e+003;4.2658974609e+003;4.2942309570e+003;4.2888461914e+003;4.3047436523e+003;4.3093588867e+003;4.3156411133e+003;4.3130771484e+003;4.2876923828e+003;4.2814101563e+003;4.2806411133e+003;4.2816665039e+003;
2.8437500000e+000;4.2735898438e+003;4.2839741211e+003;4.2873076172e+003;4.2703847656e+003;4.2993588867e+003;4.2989741211e+003;4.3129487305e+003;4.3201284180e+003;4.3246152344e+003;4.3250000000e+003;4.2935898438e+003;4.2871796875e+003;4.2875639648e+003;4.2853847656e+003;
2.8515625000e+000;4.2592309570e+003;4.2696152344e+003;4.2725639648e+003;4.2578203125e+003;4.2858974609e+003;4.2893588867e+003;4.3008974609e+003;4.3079487305e+003;4.3111538086e+003;4.3126923828e+003;4.2798715820e+003;4.2733334961e+003;4.2738461914e+003;4.2687177734e+003;
2.8593750000e+000;4.2547436523e+003;4.2648715820e+003;4.2657690430e+003;4.2535898438e+003;4.2817949219e+003;4.2839741211e+003;4.2941025391e+003;4.2998715820e+003;4.3041025391e+003;4.3048715820e+003;4.2742309570e+003;4.2669228516e+003;4.2679487305e+003;4.2607690430e+003;
2.8671875000e+000;4.2146152344e+003;4.2269228516e+003;4.2314101563e+003;4.2120512695e+003;4.2319228516e+003;4.2294873047e+003;4.2394873047e+003;4.2398715820e+003;4.2491025391e+003;4.2511538086e+003;4.2407690430e+003;4.2352563477e+003;4.2330771484e+003;4.2325639648e+003;
2.8750000000e+000;4.2080771484e+003;4.2198715820e+003;4.2250000000e+003;4.2048715820e+003;4.2205126953e+003;4.2201284180e+003;4.2307690430e+003;4.2244873047e+003;4.2324360352e+003;4.2383334961e+003;4.2347436523e+003;4.2282050781e+003;4.2252563477e+003;4.2261538086e+003;
2.8828125000e+000;4.2198715820e+003;4.2324360352e+003;4.2365385742e+003;4.2212822266e+003;4.2260258789e+003;4.2221796875e+003;4.2288461914e+003;4.2117949219e+003;4.2214101563e+003;4.2402563477e+003;4.2421796875e+003;4.2444873047e+003;4.2300000000e+003;4.2342309570e+003;
2.8906250000e+000;4.2121796875e+003;4.2216665039e+003;4.2293588867e+003;4.2058974609e+003;4.2087177734e+003;4.1934614258e+003;4.2033334961e+003;4.1733334961e+003;4.1866665039e+003;4.2110258789e+003;4.2192309570e+003;4.2305126953e+003;4.2141025391e+003;4.2210258789e+003;
2.8984375000e+000;4.2258974609e+003;4.2337177734e+003;4.2423076172e+003;4.2165385742e+003;4.2184614258e+003;4.1991025391e+003;4.2083334961e+003;4.1824360352e+003;4.1983334961e+003;4.2250000000e+003;4.2338461914e+003;4.2432050781e+003;4.2287177734e+003;4.2342309570e+003;
2.9062500000e+000;4.1276923828e+003;4.1271796875e+003;4.1385898438e+003;4.1233334961e+003;4.1128203125e+003;4.0964101563e+003;4.0988461914e+003;4.0867949219e+003;4.1096152344e+003;4.1297436523e+003;4.1317949219e+003;4.1426923828e+003;4.1310258789e+003;4.1320512695e+003;
2.9140625000e+000;4.1301284180e+003;4.1291025391e+003;4.1310258789e+003;4.1205126953e+003;4.1106411133e+003;4.1008974609e+003;4.1067949219e+003;4.1097436523e+003;4.1270512695e+003;4.1361538086e+003;4.1282050781e+003;4.1378203125e+003;4.1256411133e+003;4.1291025391e+003;
2.9218750000e+000;4.0932050781e+003;4.0902563477e+003;4.0941025391e+003;4.0844870605e+003;4.0741025391e+003;4.0706411133e+003;4.0765385742e+003;4.0828205566e+003;4.0947436523e+003;4.0982050781e+003;4.0929487305e+003;4.0996152344e+003;4.0879487305e+003;4.0929487305e+003;
2.9296875000e+000;4.0601281738e+003;4.0548718262e+003;4.0603845215e+003;4.0526923828e+003;4.0433332520e+003;4.0439743652e+003;4.0496154785e+003;4.0562819824e+003;4.0634614258e+003;4.0615385742e+003;4.0605129395e+003;4.0637180176e+003;4.0552563477e+003;4.0594870605e+003;
2.9375000000e+000;4.0612819824e+003;4.0517949219e+003;4.0589743652e+003;4.0532050781e+003;4.0487180176e+003;4.0502563477e+003;4.0544870605e+003;4.0621794434e+003;4.0657692871e+003;4.0588461914e+003;4.0582050781e+003;4.0597436523e+003;4.0579487305e+003;4.0584614258e+003;
2.9453125000e+000;4.0506411133e+003;4.0330769043e+003;4.0401281738e+003;4.0384614258e+003;4.0270512695e+003;4.0437180176e+003;4.0446154785e+003;4.0458974609e+003;4.0508974609e+003;4.0425642090e+003;4.0332050781e+003;4.0428205566e+003;4.0352563477e+003;4.0391025391e+003;
2.9531250000e+000;4.0617949219e+003;4.0439743652e+003;4.0465385742e+003;4.0465385742e+003;4.0373076172e+003;4.0550000000e+003;4.0557692871e+003;4.0550000000e+003;4.0606411133e+003;4.0539743652e+003;4.0438461914e+003;4.0506411133e+003;4.0460256348e+003;4.0484614258e+003;
2.9609375000e+000;4.0692307129e+003;4.0508974609e+003;4.0510256348e+003;4.0515385742e+003;4.0461538086e+003;4.0621794434e+003;4.0621794434e+003;4.0632050781e+003;4.0684614258e+003;4.0639743652e+003;4.0539743652e+003;4.0567949219e+003;4.0561538086e+003;4.0564101563e+003;
2.9687500000e+000;4.0194870605e+003;3.9960256348e+003;4.0019230957e+003;4.0042307129e+003;3.9964101563e+003;4.0116667480e+003;4.0097436523e+003;4.0115385742e+003;4.0157692871e+003;4.0085898438e+003;4.0047436523e+003;4.0046154785e+003;4.0051281738e+003;4.0058974609e+003;
2.9765625000e+000;4.0002563477e+003;3.9743588867e+003;3.9823076172e+003;3.9864101563e+003;3.9733332520e+003;3.9885898438e+003;3.9878205566e+003;3.9835898438e+003;3.9889743652e+003;3.9791025391e+003;3.9793588867e+003;3.9808974609e+003;3.9784614258e+003;3.9816667480e+003;
2.9843750000e+000;4.0100000000e+003;3.9832050781e+003;3.9898718262e+003;3.9946154785e+003;3.9782050781e+003;3.9923076172e+003;3.9928205566e+003;3.9824357910e+003;3.9897436523e+003;3.9808974609e+003;3.9820512695e+003;3.9861538086e+003;3.9803845215e+003;3.9857692871e+003;
2.9921875000e+000;4.0123076172e+003;3.9652563477e+003;3.9815385742e+003;3.9769230957e+003;3.9558974609e+003;3.9657692871e+003;3.9633332520e+003;3.9373076172e+003;3.9441025391e+003;3.9598718262e+003;3.9669230957e+003;3.9874357910e+003;3.9678205566e+003;3.9805129395e+003;
3.0000000000e+000;4.0293588867e+003;3.9800000000e+003;4.0012819824e+003;3.9941025391e+003;3.9714101563e+003;3.9743588867e+003;3.9746154785e+003;3.9485898438e+003;3.9573076172e+003;3.9719230957e+003;3.9837180176e+003;4.0061538086e+003;3.9844870605e+003;3.9989743652e+003;
3.0078125000e+000;4.0405129395e+003;3.9896154785e+003;4.0141025391e+003;4.0044870605e+003;3.9794870605e+003;3.9784614258e+003;3.9751281738e+003;3.9437180176e+003;3.9657692871e+003;3.9800000000e+003;3.9915385742e+003;4.0158974609e+003;3.9935898438e+003;4.0079487305e+003;
3.0156250000e+000;4.1889741211e+003;4.1488461914e+003;4.1614101563e+003;4.1464101563e+003;4.1365385742e+003;4.1198715820e+003;4.1258974609e+003;4.1142309570e+003;4.1303847656e+003;4.1425639648e+003;4.1485898438e+003;4.1683334961e+003;4.1483334961e+003;4.1576923828e+003;
3.0234375000e+000;4.1791025391e+003;4.1432050781e+003;4.1566665039e+003;4.1396152344e+003;4.1334614258e+003;4.1164101563e+003;4.1256411133e+003;4.1210258789e+003;4.1307690430e+003;4.1387177734e+003;4.1426923828e+003;4.1630771484e+003;4.1400000000e+003;4.1502563477e+003;
3.0312500000e+000;4.2252563477e+003;4.1953847656e+003;4.1983334961e+003;4.1843588867e+003;4.1994873047e+003;4.1802563477e+003;4.1870512695e+003;4.1838461914e+003;4.1884614258e+003;4.1928203125e+003;4.1876923828e+003;4.2052563477e+003;4.1880771484e+003;4.1919228516e+003;
3.0390625000e+000;4.2601284180e+003;4.2328203125e+003;4.2316665039e+003;4.2187177734e+003;4.2391025391e+003;4.2219228516e+003;4.2251284180e+003;4.2241025391e+003;4.2315385742e+003;4.2355126953e+003;4.2271796875e+003;4.2439741211e+003;4.2282050781e+003;4.2280771484e+003;
3.0468750000e+000;4.2421796875e+003;4.2179487305e+003;4.2185898438e+003;4.2041025391e+003;4.2287177734e+003;4.2229487305e+003;4.2232050781e+003;4.2206411133e+003;4.2312822266e+003;4.2278203125e+003;4.2184614258e+003;4.2333334961e+003;4.2178203125e+003;4.2120512695e+003;
3.0546875000e+000;4.2291025391e+003;4.2052563477e+003;4.2073076172e+003;4.1919228516e+003;4.2178203125e+003;4.2155126953e+003;4.2174360352e+003;4.2119228516e+003;4.2219228516e+003;4.2157690430e+003;4.2061538086e+003;4.2176923828e+003;4.2046152344e+003;4.1971796875e+003;
3.0625000000e+000;4.2034614258e+003;4.1846152344e+003;4.1788461914e+003;4.1721796875e+003;4.1920512695e+003;4.1991025391e+003;4.1988461914e+003;4.1908974609e+003;4.1993588867e+003;4.1935898438e+003;4.1775639648e+003;4.1860258789e+003;4.1775639648e+003;4.1688461914e+003;
3.0703125000e+000;4.1903847656e+003;4.1712822266e+003;4.1647436523e+003;4.1602563477e+003;4.1789741211e+003;4.1885898438e+003;4.1867949219e+003;4.1746152344e+003;4.1834614258e+003;4.1774360352e+003;4.1624360352e+003;4.1729487305e+003;4.1637177734e+003;4.1548715820e+003;
3.0781250000e+000;4.2269228516e+003;4.2020512695e+003;4.2025639648e+003;4.1916665039e+003;4.2150000000e+003;4.2207690430e+003;4.2197436523e+003;4.2017949219e+003;4.2087177734e+003;4.2058974609e+003;4.1973076172e+003;4.2073076172e+003;4.1964101563e+003;4.1891025391e+003;
3.0859375000e+000;4.2414101563e+003;4.2124360352e+003;4.2183334961e+003;4.2029487305e+003;4.2250000000e+003;4.2301284180e+003;4.2306411133e+003;4.2130771484e+003;4.2169228516e+003;4.2173076172e+003;4.2114101563e+003;4.2207690430e+003;4.2083334961e+003;4.2039741211e+003;
3.0937500000e+000;4.2225639648e+003;4.1919228516e+003;4.1953847656e+003;4.1815385742e+003;4.1914101563e+003;4.1953847656e+003;4.2020512695e+003;4.1778203125e+003;4.1817949219e+003;4.1894873047e+003;4.1894873047e+003;4.2003847656e+003;4.1894873047e+003;4.1887177734e+003;
3.1015625000e+000;4.2476923828e+003;4.2215385742e+003;4.2203847656e+003;4.2062822266e+003;4.2176923828e+003;4.2155126953e+003;4.2214101563e+003;4.1984614258e+003;4.2055126953e+003;4.2188461914e+003;4.2192309570e+003;4.2289741211e+003;4.2196152344e+003;4.2170512695e+003;
3.1093750000e+000;4.2638461914e+003;4.2416665039e+003;4.2400000000e+003;4.2239741211e+003;4.2355126953e+003;4.2293588867e+003;4.2319228516e+003;4.2126923828e+003;4.2216665039e+003;4.2408974609e+003;4.2417949219e+003;4.2516665039e+003;4.2407690430e+003;4.2374360352e+003;
3.1171875000e+000;4.2761538086e+003;4.2542309570e+003;4.2632050781e+003;4.2333334961e+003;4.2416665039e+003;4.2251284180e+003;4.2302563477e+003;4.2206411133e+003;4.2461538086e+003;4.2597436523e+003;4.2603847656e+003;4.2766665039e+003;4.2634614258e+003;4.2626923828e+003;
3.1250000000e+000;4.2667949219e+003;4.2446152344e+003;4.2552563477e+003;4.2238461914e+003;4.2323076172e+003;4.2170512695e+003;4.2216665039e+003;4.2198715820e+003;4.2473076172e+003;4.2573076172e+003;4.2564101563e+003;4.2703847656e+003;4.2582050781e+003;4.2596152344e+003;
3.1328125000e+000;4.2528203125e+003;4.2351284180e+003;4.2397436523e+003;4.2148715820e+003;4.2279487305e+003;4.2183334961e+003;4.2174360352e+003;4.2258974609e+003;4.2435898438e+003;4.2438461914e+003;4.2415385742e+003;4.2502563477e+003;4.2412822266e+003;4.2391025391e+003;
3.1406250000e+000;4.2029487305e+003;4.1939741211e+003;4.1970512695e+003;4.1788461914e+003;4.1960258789e+003;4.1950000000e+003;4.1912822266e+003;4.2043588867e+003;4.2142309570e+003;4.2074360352e+003;4.1933334961e+003;4.2023076172e+003;4.1950000000e+003;4.1932050781e+003;
3.1484375000e+000;4.1770512695e+003;4.1673076172e+003;4.1701284180e+003;4.1558974609e+003;4.1721796875e+003;4.1750000000e+003;4.1742309570e+003;4.1821796875e+003;4.1884614258e+003;4.1794873047e+003;4.1685898438e+003;4.1734614258e+003;4.1711538086e+003;4.1696152344e+003;
3.1562500000e+000;4.1300000000e+003;4.1135898438e+003;4.1174360352e+003;4.1076923828e+003;4.1247436523e+003;4.1384614258e+003;4.1384614258e+003;4.1387177734e+003;4.1455126953e+003;4.1316665039e+003;4.1174360352e+003;4.1232050781e+003;4.1191025391e+003;4.1169228516e+003;
3.1640625000e+000;4.0720512695e+003;4.0534614258e+003;4.0612819824e+003;4.0530769043e+003;4.0667949219e+003;4.0869230957e+003;4.0835898438e+003;4.0811538086e+003;4.0908974609e+003;4.0726923828e+003;4.0553845215e+003;4.0669230957e+003;4.0557692871e+003;4.0541025391e+003;
3.1718750000e+000;4.0110256348e+003;3.9897436523e+003;4.0011538086e+003;3.9953845215e+003;4.0050000000e+003;4.0297436523e+003;4.0229487305e+003;4.0171794434e+003;4.0297436523e+003;4.0014101563e+003;3.9901281738e+003;4.0039743652e+003;3.9902563477e+003;3.9867949219e+003;
3.1796875000e+000;4.0074357910e+003;3.9843588867e+003;3.9957692871e+003;3.9908974609e+003;3.9994870605e+003;4.0242307129e+003;4.0165385742e+003;4.0111538086e+003;4.0234614258e+003;3.9935898438e+003;3.9870512695e+003;3.9991025391e+003;3.9883332520e+003;3.9841025391e+003;
3.1875000000e+000;3.9338461914e+003;3.9043588867e+003;3.9134614258e+003;3.9201281738e+003;3.9156411133e+003;3.9452563477e+003;3.9361538086e+003;3.9153845215e+003;3.9279487305e+003;3.9101281738e+003;3.9061538086e+003;3.9193588867e+003;3.9117949219e+003;3.9130769043e+003;
3.1953125000e+000;3.9348718262e+003;3.9060256348e+003;3.9124357910e+003;3.9214101563e+003;3.9137180176e+003;3.9411538086e+003;3.9332050781e+003;3.9082050781e+003;3.9226923828e+003;3.9087180176e+003;3.9056411133e+003;3.9180769043e+003;3.9110256348e+003;3.9135898438e+003;
3.2031250000e+000;3.9420512695e+003;3.9102563477e+003;3.9179487305e+003;3.9241025391e+003;3.9137180176e+003;3.9391025391e+003;3.9297436523e+003;3.9084614258e+003;3.9256411133e+003;3.9130769043e+003;3.9157692871e+003;3.9262819824e+003;3.9157692871e+003;3.9198718262e+003;
3.2109375000e+000;3.9317949219e+003;3.8941025391e+003;3.9050000000e+003;3.9087180176e+003;3.8978205566e+003;3.9244870605e+003;3.9129487305e+003;3.8925642090e+003;3.9106411133e+003;3.8969230957e+003;3.9043588867e+003;3.9148718262e+003;3.9020512695e+003;3.9066667480e+003;
3.2187500000e+000;3.9839743652e+003;3.9388461914e+003;3.9470512695e+003;3.9464101563e+003;3.9373076172e+003;3.9497436523e+003;3.9391025391e+003;3.9178205566e+003;3.9398718262e+003;3.9319230957e+003;3.9452563477e+003;3.9580769043e+003;3.9457692871e+003;3.9519230957e+003;
3.2265625000e+000;3.9735898438e+003;3.9291025391e+003;3.9382050781e+003;3.9366667480e+003;3.9232050781e+003;3.9342307129e+003;3.9228205566e+003;3.9062819824e+003;3.9280769043e+003;3.9205129395e+003;3.9323076172e+003;3.9471794434e+003;3.9343588867e+003;3.9420512695e+003;
3.2343750000e+000;3.9373076172e+003;3.8912819824e+003;3.9035898438e+003;3.9019230957e+003;3.8825642090e+003;3.8973076172e+003;3.8847436523e+003;3.8716667480e+003;3.8926923828e+003;3.8817949219e+003;3.8920512695e+003;3.9088461914e+003;3.8955129395e+003;3.9037180176e+003;
3.2421875000e+000;3.9248718262e+003;3.8734614258e+003;3.8776923828e+003;3.8930769043e+003;3.8770512695e+003;3.8978205566e+003;3.8907692871e+003;3.8850000000e+003;3.9003845215e+003;3.8735898438e+003;3.8729487305e+003;3.8811538086e+003;3.8816667480e+003;3.8834614258e+003;
3.2500000000e+000;3.9087180176e+003;3.8579487305e+003;3.8619230957e+003;3.8785898438e+003;3.8641025391e+003;3.8867949219e+003;3.8776923828e+003;3.8741025391e+003;3.8860256348e+003;3.8557692871e+003;3.8566667480e+003;3.8628205566e+003;3.8644870605e+003;3.8683332520e+003;
3.2578125000e+000;3.9341025391e+003;3.8812819824e+003;3.8935898438e+003;3.8948718262e+003;3.8903845215e+003;3.9158974609e+003;3.9011538086e+003;3.9042307129e+003;3.9180769043e+003;3.8897436523e+003;3.8876923828e+003;3.8941025391e+003;3.8902563477e+003;3.8923076172e+003;
3.2656250000e+000;3.9117949219e+003;3.8583332520e+003;3.8716667480e+003;3.8761538086e+003;3.8743588867e+003;3.9037180176e+003;3.8901281738e+003;3.8819230957e+003;3.8996154785e+003;3.8656411133e+003;3.8647436523e+003;3.8689743652e+003;3.8724357910e+003;3.8629487305e+003;
3.2734375000e+000;3.9382050781e+003;3.8883332520e+003;3.8953845215e+003;3.9035898438e+003;3.9034614258e+003;3.9297436523e+003;3.9166667480e+003;3.9078205566e+003;3.9252563477e+003;3.8950000000e+003;3.8882050781e+003;3.8917949219e+003;3.8976923828e+003;3.8869230957e+003;
3.2812500000e+000;3.9200000000e+003;3.8765385742e+003;3.8808974609e+003;3.8906411133e+003;3.8844870605e+003;3.9124357910e+003;3.8961538086e+003;3.8771794434e+003;3.8974357910e+003;3.8808974609e+003;3.8657692871e+003;3.8744870605e+003;3.8747436523e+003;3.8720512695e+003;
3.2890625000e+000;3.9258974609e+003;3.8830769043e+003;3.8873076172e+003;3.8956411133e+003;3.8889743652e+003;3.9160256348e+003;3.8997436523e+003;3.8758974609e+003;3.8974357910e+003;3.8820512695e+003;3.8726923828e+003;3.8802563477e+003;3.8814101563e+003;3.8791025391e+003;
3.2968750000e+000;3.9482050781e+003;3.9038461914e+003;3.9079487305e+003;3.9151281738e+003;3.9062819824e+003;3.9335898438e+003;3.9164101563e+003;3.8929487305e+003;3.9128205566e+003;3.9017949219e+003;3.8996154785e+003;3.9069230957e+003;3.9065385742e+003;3.9048718262e+003;
3.3046875000e+000;3.9317949219e+003;3.8839743652e+003;3.8898718262e+003;3.8983332520e+003;3.8860256348e+003;3.9153845215e+003;3.8984614258e+003;3.8734614258e+003;3.8914101563e+003;3.8834614258e+003;3.8821794434e+003;3.8923076172e+003;3.8879487305e+003;3.8889743652e+003;
3.3125000000e+000;3.9201281738e+003;3.8684614258e+003;3.8747436523e+003;3.8852563477e+003;3.8702563477e+003;3.8987180176e+003;3.8837180176e+003;3.8539743652e+003;3.8710256348e+003;3.8657692871e+003;3.8662819824e+003;3.8784614258e+003;3.8715385742e+003;3.8751281738e+003;
3.3203125000e+000;3.9365385742e+003;3.8825642090e+003;3.8871794434e+003;3.8984614258e+003;3.8828205566e+003;3.9053845215e+003;3.8932050781e+003;3.8603845215e+003;3.8778205566e+003;3.8752563477e+003;3.8778205566e+003;3.8894870605e+003;3.8837180176e+003;3.8879487305e+003;
3.3281250000e+000;3.9478205566e+003;3.8957692871e+003;3.9051281738e+003;3.9106411133e+003;3.8861538086e+003;3.8946154785e+003;3.8855129395e+003;3.8653845215e+003;3.8889743652e+003;3.8907692871e+003;3.8912819824e+003;3.9048718262e+003;3.8946154785e+003;3.8973076172e+003;
3.3359375000e+000;3.9544870605e+003;3.8956411133e+003;3.9107692871e+003;3.9133332520e+003;3.8900000000e+003;3.9017949219e+003;3.8966667480e+003;3.8903845215e+003;3.9130769043e+003;3.9069230957e+003;3.8973076172e+003;3.9126923828e+003;3.9098718262e+003;3.9091025391e+003;
3.3437500000e+000;3.9273076172e+003;3.8710256348e+003;3.8855129395e+003;3.8903845215e+003;3.8684614258e+003;3.8829487305e+003;3.8761538086e+003;3.8703845215e+003;3.8892307129e+003;3.8776923828e+003;3.8689743652e+003;3.8885898438e+003;3.8853845215e+003;3.8815385742e+003;
3.3515625000e+000;3.9396154785e+003;3.8919230957e+003;3.8973076172e+003;3.9092307129e+003;3.8973076172e+003;3.9100000000e+003;3.9008974609e+003;3.8935898438e+003;3.9071794434e+003;3.8906411133e+003;3.8828205566e+003;3.9028205566e+003;3.9015385742e+003;3.8932050781e+003;
3.3593750000e+000;3.9507692871e+003;3.9051281738e+003;3.9076923828e+003;3.9202563477e+003;3.9130769043e+003;3.9269230957e+003;3.9161538086e+003;3.9111538086e+003;3.9238461914e+003;3.9069230957e+003;3.8971794434e+003;3.9150000000e+003;3.9135898438e+003;3.9061538086e+003;
3.3671875000e+000;3.8998718262e+003;3.8482050781e+003;3.8535898438e+003;3.8630769043e+003;3.8562819824e+003;3.8815385742e+003;3.8687180176e+003;3.8624357910e+003;3.8775642090e+003;3.8591025391e+003;3.8444870605e+003;3.8588461914e+003;3.8560256348e+003;3.8528205566e+003;
3.3750000000e+000;3.9193588867e+003;3.8669230957e+003;3.8716667480e+003;3.8817949219e+003;3.8743588867e+003;3.8973076172e+003;3.8853845215e+003;3.8787180176e+003;3.8962819824e+003;3.8785898438e+003;3.8629487305e+003;3.8760256348e+003;3.8757692871e+003;3.8716667480e+003;
3.3828125000e+000;3.9488461914e+003;3.8976923828e+003;3.9034614258e+003;3.9133332520e+003;3.9053845215e+003;3.9292307129e+003;3.9152563477e+003;3.9076923828e+003;3.9271794434e+003;3.9073076172e+003;3.8905129395e+003;3.9042307129e+003;3.9079487305e+003;3.9024357910e+003;
3.3906250000e+000;3.9612819824e+003;3.9105129395e+003;3.9156411133e+003;3.9226923828e+003;3.9180769043e+003;3.9414101563e+003;3.9282050781e+003;3.9151281738e+003;3.9352563477e+003;3.9157692871e+003;3.8993588867e+003;3.9130769043e+003;3.9173076172e+003;3.9119230957e+003;
3.3984375000e+000;4.0144870605e+003;3.9652563477e+003;3.9684614258e+003;3.9706411133e+003;3.9688461914e+003;3.9853845215e+003;3.9726923828e+003;3.9543588867e+003;3.9769230957e+003;3.9675642090e+003;3.9501281738e+003;3.9648718262e+003;3.9646154785e+003;3.9632050781e+003;
3.4062500000e+000;4.0120512695e+003;3.9628205566e+003;3.9671794434e+003;3.9694870605e+003;3.9628205566e+003;3.9785898438e+003;3.9644870605e+003;3.9461538086e+003;3.9674357910e+003;3.9638461914e+003;3.9482050781e+003;3.9655129395e+003;3.9603845215e+003;3.9619230957e+003;
3.4140625000e+000;4.0106411133e+003;3.9602563477e+003;3.9671794434e+003;3.9674357910e+003;3.9517949219e+003;3.9610256348e+003;3.9507692871e+003;3.9276923828e+003;3.9411538086e+003;3.9471794434e+003;3.9443588867e+003;3.9682050781e+003;3.9579487305e+003;3.9608974609e+003;
3.4218750000e+000;4.0337180176e+003;3.9834614258e+003;3.9903845215e+003;3.9891025391e+003;3.9737180176e+003;3.9773076172e+003;3.9698718262e+003;3.9491025391e+003;3.9614101563e+003;3.9688461914e+003;3.9684614258e+003;3.9934614258e+003;3.9816667480e+003;3.9851281738e+003;
3.4296875000e+000;4.0480769043e+003;3.9980769043e+003;4.0062819824e+003;4.0067949219e+003;3.9842307129e+003;3.9816667480e+003;3.9797436523e+003;3.9628205566e+003;3.9755129395e+003;3.9821794434e+003;3.9862819824e+003;4.0110256348e+003;3.9964101563e+003;4.0026923828e+003;
