Time (s),AF3,F7,F3,FC5,T7,P7,O1,O2,P8,T8,FC6,F4,F8,AF4,Sampling Rate
0.0000000000e+000,4.1753847656e+003,4.1875639648e+003,4.1982050781e+003,4.1869228516e+003,4.1703847656e+003,4.1747436523e+003,4.1834614258e+003,4.1784614258e+003,4.1608974609e+003,4.1853847656e+003,4.1764101563e+003,4.1901284180e+003,4.1561538086e+003,4.1544873047e+003,128
7.8125000000e-003,4.1762822266e+003,4.1906411133e+003,4.1979487305e+003,4.1871796875e+003,4.1702563477e+003,4.1733334961e+003,4.1853847656e+003,4.1815385742e+003,4.1637177734e+003,4.1844873047e+003,4.1805126953e+003,4.1919228516e+003,4.1548715820e+003,4.1547436523e+003,
1.5625000000e-002,4.1630771484e+003,4.1797436523e+003,4.1921796875e+003,4.1694873047e+003,4.1694873047e+003,4.1734614258e+003,4.1839741211e+003,4.1832050781e+003,4.1730771484e+003,4.1884614258e+003,4.1589741211e+003,4.1821796875e+003,4.1561538086e+003,4.1479487305e+003,
2.3437500000e-002,4.1594873047e+003,4.1742309570e+003,4.1908974609e+003,4.1676923828e+003,4.1701284180e+003,4.1725639648e+003,4.1843588867e+003,4.1876923828e+003,4.1778203125e+003,4.1908974609e+003,4.1541025391e+003,4.1802563477e+003,4.1589741211e+003,4.1474360352e+003,
3.1250000000e-002,4.1585898438e+003,4.1719228516e+003,4.1882050781e+003,4.1715385742e+003,4.1711538086e+003,4.1721796875e+003,4.1856411133e+003,4.1937177734e+003,4.1835898438e+003,4.1919228516e+003,4.1560258789e+003,4.1805126953e+003,4.1601284180e+003,4.1479487305e+003,
3.9062500000e-002,4.1592309570e+003,4.1724360352e+003,4.1837177734e+003,4.1769228516e+003,4.1715385742e+003,4.1739741211e+003,4.1867949219e+003,4.1983334961e+003,4.1891025391e+003,4.1911538086e+003,4.1624360352e+003,4.1819228516e+003,4.1582050781e+003,4.1487177734e+003,
4.6875000000e-002,4.1533334961e+003,4.1761538086e+003,4.1729487305e+003,4.1578203125e+003,4.1615385742e+003,4.1874360352e+003,4.1843588867e+003,4.2024360352e+003,4.1955126953e+003,4.1958974609e+003,4.1664101563e+003,4.1733334961e+003,4.1535898438e+003,4.1457690430e+003,
5.4687500000e-002,4.1511538086e+003,4.1755126953e+003,4.1742309570e+003,4.1570512695e+003,4.1534614258e+003,4.1853847656e+003,4.1857690430e+003,4.2019228516e+003,4.1944873047e+003,4.1950000000e+003,4.1655126953e+003,4.1721796875e+003,4.1493588867e+003,4.1453847656e+003,
6.2500000000e-002,4.1470512695e+003,4.1753847656e+003,4.1730771484e+003,4.1579487305e+003,4.1560258789e+003,4.1853847656e+003,4.1892309570e+003,4.1942309570e+003,4.1915385742e+003,4.1898715820e+003,4.1671796875e+003,4.1724360352e+003,4.1424360352e+003,4.1430771484e+003,
7.0312500000e-002,4.1606411133e+003,4.1776923828e+003,4.1875639648e+003,4.1611538086e+003,4.2002563477e+003,4.1925639648e+003,4.1930771484e+003,4.1988461914e+003,4.1960258789e+003,4.2030771484e+003,4.1639741211e+003,4.1782050781e+003,4.1667949219e+003,4.1550000000e+003,
7.8125000000e-002,4.1647436523e+003,4.1817949219e+003,4.1912822266e+003,4.1721796875e+003,4.1969228516e+003,4.1900000000e+003,4.1943588867e+003,4.1994873047e+003,4.1925639648e+003,4.2024360352e+003,4.1687177734e+003,4.1817949219e+003,4.1682050781e+003,4.1600000000e+003,
8.5937500000e-002,4.1597436523e+003,4.1901284180e+003,4.1811538086e+003,4.1798715820e+003,4.1657690430e+003,4.1741025391e+003,4.1806411133e+003,4.1752563477e+003,4.1682050781e+003,4.1882050781e+003,4.1721796875e+003,4.1752563477e+003,4.1611538086e+003,4.1543588867e+003,
9.3750000000e-002,4.1582050781e+003,4.1855126953e+003,4.1816665039e+003,4.1737177734e+003,4.1666665039e+003,4.1706411133e+003,4.1761538086e+003,4.1666665039e+003,4.1644873047e+003,4.1851284180e+003,4.1685898438e+003,4.1774360352e+003,4.1610258789e+003,4.1520512695e+003,
1.0156250000e-001,4.1650000000e+003,4.1769228516e+003,4.1921796875e+003,4.1765385742e+003,4.1796152344e+003,4.1696152344e+003,4.1791025391e+003,4.1692309570e+003,4.1739741211e+003,4.1898715820e+003,4.1698715820e+003,4.1928203125e+003,4.1630771484e+003,4.1541025391e+003,
1.0937500000e-001,4.1678203125e+003,4.1767949219e+003,4.1938461914e+003,4.1814101563e+003,4.1805126953e+003,4.1702563477e+003,4.1829487305e+003,4.1766665039e+003,4.1811538086e+003,4.1947436523e+003,4.1724360352e+003,4.1966665039e+003,4.1630771484e+003,4.1542309570e+003,
1.1718750000e-001,4.1666665039e+003,4.1784614258e+003,4.1898715820e+003,4.1816665039e+003,4.1748715820e+003,4.1710258789e+003,4.1851284180e+003,4.1826923828e+003,4.1843588867e+003,4.1973076172e+003,4.1726923828e+003,4.1937177734e+003,4.1625639648e+003,4.1515385742e+003,
1.2500000000e-001,4.1624360352e+003,4.1808974609e+003,4.1821796875e+003,4.1771796875e+003,4.1671796875e+003,4.1721796875e+003,4.1851284180e+003,4.1856411133e+003,4.1837177734e+003,4.1965385742e+003,4.1703847656e+003,4.1857690430e+003,4.1637177734e+003,4.1478203125e+003,
1.3281250000e-001,4.1512822266e+003,4.1848715820e+003,4.1746152344e+003,4.1764101563e+003,4.1821796875e+003,4.1864101563e+003,4.1933334961e+003,4.1975639648e+003,4.1926923828e+003,4.1976923828e+003,4.1730771484e+003,4.1758974609e+003,4.1776923828e+003,4.1476923828e+003,
1.4062500000e-001,4.1582050781e+003,4.1867949219e+003,4.1701284180e+003,4.1876923828e+003,4.1678203125e+003,4.2003847656e+003,4.2012822266e+003,4.2060258789e+003,4.1952563477e+003,4.2071796875e+003,4.1719228516e+003,4.1844873047e+003,4.1776923828e+003,4.1506411133e+003,
1.4843750000e-001,4.1565385742e+003,4.1923076172e+003,4.1644873047e+003,4.1842309570e+003,4.1596152344e+003,4.2017949219e+003,4.2020512695e+003,4.2056411133e+003,4.1970512695e+003,4.2089741211e+003,4.1796152344e+003,4.1821796875e+003,4.1816665039e+003,4.1506411133e+003,
1.5625000000e-001,4.1442309570e+003,4.1903847656e+003,4.1592309570e+003,4.1746152344e+003,4.1639741211e+003,4.1996152344e+003,4.2000000000e+003,4.2014101563e+003,4.1951284180e+003,4.1997436523e+003,4.1766665039e+003,4.1778203125e+003,4.1810258789e+003,4.1476923828e+003,
1.6406250000e-001,4.1607690430e+003,4.1882050781e+003,4.1719228516e+003,4.1869228516e+003,4.2132050781e+003,4.2076923828e+003,4.2051284180e+003,4.2028203125e+003,4.1962822266e+003,4.2033334961e+003,4.1766665039e+003,4.1914101563e+003,4.1898715820e+003,4.1612822266e+003,
1.7187500000e-001,4.1661538086e+003,4.1887177734e+003,4.1770512695e+003,4.1911538086e+003,4.2071796875e+003,4.2055126953e+003,4.2030771484e+003,4.1976923828e+003,4.1933334961e+003,4.2064101563e+003,4.1832050781e+003,4.1956411133e+003,4.1900000000e+003,4.1650000000e+003,
1.7968750000e-001,4.1580771484e+003,4.1884614258e+003,4.1783334961e+003,4.1684614258e+003,4.1823076172e+003,4.1869228516e+003,4.1832050781e+003,4.1756411133e+003,4.1715385742e+003,4.1960258789e+003,4.1737177734e+003,4.1938461914e+003,4.1860258789e+003,4.1635898438e+003,
1.8750000000e-001,4.1555126953e+003,4.1905126953e+003,4.1757690430e+003,4.1639741211e+003,4.1819228516e+003,4.1841025391e+003,4.1816665039e+003,4.1752563477e+003,4.1712822266e+003,4.1964101563e+003,4.1737177734e+003,4.1956411133e+003,4.1858974609e+003,4.1661538086e+003,
1.9531250000e-001,4.1603847656e+003,4.1933334961e+003,4.1758974609e+003,4.1705126953e+003,4.1837177734e+003,4.1812822266e+003,4.1817949219e+003,4.1826923828e+003,4.1812822266e+003,4.2061538086e+003,4.1870512695e+003,4.2038461914e+003,4.1833334961e+003,4.1728203125e+003,
2.0312500000e-001,4.1632050781e+003,4.1925639648e+003,4.1780771484e+003,4.1732050781e+003,4.1828203125e+003,4.1783334961e+003,4.1791025391e+003,4.1860258789e+003,4.1856411133e+003,4.2096152344e+003,4.1920512695e+003,4.2047436523e+003,4.1823076172e+003,4.1719228516e+003,
2.1093750000e-001,4.1357690430e+003,4.1875639648e+003,4.1866665039e+003,4.1680771484e+003,4.1712822266e+003,4.1658974609e+003,4.1755126953e+003,4.1903847656e+003,4.1885898438e+003,4.1955126953e+003,4.1703847656e+003,4.1969228516e+003,4.1789741211e+003,4.1616665039e+003,
2.1875000000e-001,4.1178203125e+003,4.1878203125e+003,4.1876923828e+003,4.1675639648e+003,4.1696152344e+003,4.1662822266e+003,4.1794873047e+003,4.1926923828e+003,4.1903847656e+003,4.1898715820e+003,4.1621796875e+003,4.1950000000e+003,4.1737177734e+003,4.1589741211e+003,
2.2656250000e-001,4.0883332520e+003,4.1907690430e+003,4.1817949219e+003,4.1693588867e+003,4.1780771484e+003,4.1764101563e+003,4.1888461914e+003,4.1975639648e+003,4.1934614258e+003,4.1898715820e+003,4.1610258789e+003,4.1905126953e+003,4.1624360352e+003,4.1516665039e+003,
2.3437500000e-001,4.0798718262e+003,4.1897436523e+003,4.1766665039e+003,4.1702563477e+003,4.1830771484e+003,4.1817949219e+003,4.1920512695e+003,4.1983334961e+003,4.1924360352e+003,4.1912822266e+003,4.1625639648e+003,4.1864101563e+003,4.1588461914e+003,4.1478203125e+003,
2.4218750000e-001,4.0746154785e+003,4.1856411133e+003,4.1720512695e+003,4.1708974609e+003,4.1835898438e+003,4.1846152344e+003,4.1943588867e+003,4.1979487305e+003,4.1902563477e+003,4.1905126953e+003,4.1612822266e+003,4.1811538086e+003,4.1564101563e+003,4.1448715820e+003,
2.5000000000e-001,4.0701281738e+003,4.1793588867e+003,4.1691025391e+003,4.1712822266e+003,4.1789741211e+003,4.1848715820e+003,4.1962822266e+003,4.1978203125e+003,4.1889741211e+003,4.1878203125e+003,4.1574360352e+003,4.1752563477e+003,4.1541025391e+003,4.1420512695e+003,
2.5781250000e-001,4.0587180176e+003,4.1785898438e+003,4.1732050781e+003,4.1729487305e+003,4.1832050781e+003,4.1976923828e+003,4.2015385742e+003,4.2011538086e+003,4.1958974609e+003,4.1900000000e+003,4.1614101563e+003,4.1738461914e+003,4.1561538086e+003,4.1361538086e+003,
2.6562500000e-001,4.0594870605e+003,4.1819228516e+003,4.1712822266e+003,4.1714101563e+003,4.1825639648e+003,4.2003847656e+003,4.2016665039e+003,4.1987177734e+003,4.1958974609e+003,4.1934614258e+003,4.1629487305e+003,4.1774360352e+003,4.1598715820e+003,4.1400000000e+003,
2.7343750000e-001,4.0580769043e+003,4.1701284180e+003,4.1658974609e+003,4.1639741211e+003,4.1570512695e+003,4.1906411133e+003,4.1952563477e+003,4.1857690430e+003,4.1842309570e+003,4.1906411133e+003,4.1544873047e+003,4.1803847656e+003,4.1593588867e+003,4.1470512695e+003,
2.8125000000e-001,4.0638461914e+003,4.1724360352e+003,4.1748715820e+003,4.1711538086e+003,4.1778203125e+003,4.1853847656e+003,4.1846152344e+003,4.1830771484e+003,4.1847436523e+003,4.1892309570e+003,4.1703847656e+003,4.1850000000e+003,4.1675639648e+003,4.1558974609e+003,
2.8906250000e-001,4.0682050781e+003,4.1805126953e+003,4.1755126953e+003,4.1760258789e+003,4.1833334961e+003,4.1858974609e+003,4.1847436523e+003,4.1850000000e+003,4.1891025391e+003,4.1958974609e+003,4.1807690430e+003,4.1907690430e+003,4.1724360352e+003,4.1616665039e+003,
2.9687500000e-001,4.0896154785e+003,4.1996152344e+003,4.1926923828e+003,4.1867949219e+003,4.1979487305e+003,4.1893588867e+003,4.1958974609e+003,4.1983334961e+003,4.1956411133e+003,4.2147436523e+003,4.2006411133e+003,4.2108974609e+003,4.1803847656e+003,4.1801284180e+003,
3.0468750000e-001,4.0932050781e+003,4.2028203125e+003,4.1976923828e+003,4.1878203125e+003,4.2073076172e+003,4.1893588867e+003,4.1970512695e+003,4.2038461914e+003,4.1985898438e+003,4.2171796875e+003,4.1962822266e+003,4.2080771484e+003,4.1853847656e+003,4.1797436523e+003,
3.1250000000e-001,4.0756411133e+003,4.1825639648e+003,4.1814101563e+003,4.1825639648e+003,4.1814101563e+003,4.1796152344e+003,4.1846152344e+003,4.2014101563e+003,4.1932050781e+003,4.1965385742e+003,4.1629487305e+003,4.1856411133e+003,4.1743588867e+003,4.1565385742e+003,
3.2031250000e-001,4.0746154785e+003,4.1771796875e+003,4.1793588867e+003,4.1880771484e+003,4.1743588867e+003,4.1828203125e+003,4.1960258789e+003,4.2000000000e+003,4.1898715820e+003,4.1926923828e+003,4.1762822266e+003,4.1912822266e+003,4.1629487305e+003,4.1598715820e+003,
3.2812500000e-001,4.0753845215e+003,4.1838461914e+003,4.1802563477e+003,4.1874360352e+003,4.1855126953e+003,4.1874360352e+003,4.2012822266e+003,4.2064101563e+003,4.1941025391e+003,4.1974360352e+003,4.1826923828e+003,4.1935898438e+003,4.1656411133e+003,4.1623076172e+003,
3.3593750000e-001,4.0725642090e+003,4.1870512695e+003,4.1783334961e+003,4.1815385742e+003,4.1896152344e+003,4.1901284180e+003,4.2029487305e+003,4.2115385742e+003,4.1967949219e+003,4.1993588867e+003,4.1837177734e+003,4.1935898438e+003,4.1662822266e+003,4.1619228516e+003,
3.4375000000e-001,4.0671794434e+003,4.1821796875e+003,4.1724360352e+003,4.1680771484e+003,4.1791025391e+003,4.1903847656e+003,4.2005126953e+003,4.2105126953e+003,4.1983334961e+003,4.1952563477e+003,4.1702563477e+003,4.1879487305e+003,4.1602563477e+003,4.1544873047e+003,
3.5156250000e-001,4.0701281738e+003,4.1758974609e+003,4.1771796875e+003,4.1847436523e+003,4.1811538086e+003,4.1937177734e+003,4.2002563477e+003,4.2006411133e+003,4.2019228516e+003,4.1946152344e+003,4.1556411133e+003,4.1794873047e+003,4.1561538086e+003,4.1464101563e+003,
3.5937500000e-001,4.0675642090e+003,4.1764101563e+003,4.1760258789e+003,4.1901284180e+003,4.1826923828e+003,4.1946152344e+003,4.1975639648e+003,4.1984614258e+003,4.2008974609e+003,4.1964101563e+003,4.1619228516e+003,4.1793588867e+003,4.1588461914e+003,4.1474360352e+003,
3.6718750000e-001,4.0644870605e+003,4.1766665039e+003,4.1717949219e+003,4.1905126953e+003,4.1789741211e+003,4.1935898438e+003,4.1930771484e+003,4.1957690430e+003,4.1988461914e+003,4.1978203125e+003,4.1701284180e+003,4.1791025391e+003,4.1610258789e+003,4.1480771484e+003,
3.7500000000e-001,4.0626923828e+003,4.1760258789e+003,4.1670512695e+003,4.1871796875e+003,4.1716665039e+003,4.1906411133e+003,4.1887177734e+003,4.1923076172e+003,4.1962822266e+003,4.1979487305e+003,4.1747436523e+003,4.1778203125e+003,4.1607690430e+003,4.1467949219e+003,
3.8281250000e-001,4.0751281738e+003,4.1864101563e+003,4.1798715820e+003,4.1843588867e+003,4.1757690430e+003,4.1816665039e+003,4.1825639648e+003,4.1778203125e+003,4.1857690430e+003,4.2048715820e+003,4.1706411133e+003,4.1820512695e+003,4.1729487305e+003,4.1506411133e+003,
3.9062500000e-001,4.0762819824e+003,4.1902563477e+003,4.1834614258e+003,4.1875639648e+003,4.1767949219e+003,4.1817949219e+003,4.1802563477e+003,4.1779487305e+003,4.1844873047e+003,4.2085898438e+003,4.1750000000e+003,4.1848715820e+003,4.1769228516e+003,4.1550000000e+003,
3.9843750000e-001,4.0762819824e+003,4.1921796875e+003,4.1842309570e+003,4.1996152344e+003,4.1728203125e+003,4.1752563477e+003,4.1720512695e+003,4.1752563477e+003,4.1728203125e+003,4.2006411133e+003,4.1762822266e+003,4.1934614258e+003,4.1669228516e+003,4.1588461914e+003,
4.0625000000e-001,4.0767949219e+003,4.1948715820e+003,4.1823076172e+003,4.2024360352e+003,4.1929487305e+003,4.1725639648e+003,4.1697436523e+003,4.1715385742e+003,4.1657690430e+003,4.1948715820e+003,4.1771796875e+003,4.1888461914e+003,4.1706411133e+003,4.1600000000e+003,
4.1406250000e-001,4.0737180176e+003,4.1903847656e+003,4.1820512695e+003,4.2006411133e+003,4.1908974609e+003,4.1734614258e+003,4.1734614258e+003,4.1739741211e+003,4.1680771484e+003,4.1950000000e+003,4.1744873047e+003,4.1864101563e+003,4.1710258789e+003,4.1603847656e+003,
4.2187500000e-001,4.0689743652e+003,4.1752563477e+003,4.1821796875e+003,4.1839741211e+003,4.1737177734e+003,4.1776923828e+003,4.1855126953e+003,4.1884614258e+003,4.1766665039e+003,4.1878203125e+003,4.1665385742e+003,4.1856411133e+003,4.1639741211e+003,4.1530771484e+003,
4.2968750000e-001,4.0679487305e+003,4.1721796875e+003,4.1806411133e+003,4.1757690430e+003,4.1730771484e+003,4.1802563477e+003,4.1882050781e+003,4.1924360352e+003,4.1769228516e+003,4.1841025391e+003,4.1656411133e+003,4.1829487305e+003,4.1598715820e+003,4.1497436523e+003,
4.3750000000e-001,4.0612819824e+003,4.1707690430e+003,4.1775639648e+003,4.1721796875e+003,4.1756411133e+003,4.1869228516e+003,4.2010258789e+003,4.1970512695e+003,4.1751284180e+003,4.1774360352e+003,4.1469228516e+003,4.1778203125e+003,4.1375639648e+003,4.1412822266e+003,
4.4531250000e-001,4.0589743652e+003,4.1732050781e+003,4.1721796875e+003,4.1755126953e+003,4.1832050781e+003,4.1908974609e+003,4.1967949219e+003,4.1869228516e+003,4.1797436523e+003,4.1853847656e+003,4.1573076172e+003,4.1688461914e+003,4.1464101563e+003,4.1352563477e+003,
4.5312500000e-001,4.0529487305e+003,4.1693588867e+003,4.1675639648e+003,4.1684614258e+003,4.1785898438e+003,4.1906411133e+003,4.1911538086e+003,4.1837177734e+003,4.1801284180e+003,4.1846152344e+003,4.1588461914e+003,4.1642309570e+003,4.1474360352e+003,4.1330771484e+003,
4.6093750000e-001,4.0473076172e+003,4.1648715820e+003,4.1652563477e+003,4.1606411133e+003,4.1721796875e+003,4.1905126953e+003,4.1871796875e+003,4.1829487305e+003,4.1800000000e+003,4.1832050781e+003,4.1571796875e+003,4.1619228516e+003,4.1442309570e+003,4.1314101563e+003,
4.6875000000e-001,4.0535898438e+003,4.1652563477e+003,4.1746152344e+003,4.1632050781e+003,4.1714101563e+003,4.1929487305e+003,4.1884614258e+003,4.1870512695e+003,4.1798715820e+003,4.1862822266e+003,4.1588461914e+003,4.1693588867e+003,4.1433334961e+003,4.1348715820e+003,
4.7656250000e-001,4.0758974609e+003,4.1830771484e+003,4.1829487305e+003,4.1979487305e+003,4.1825639648e+003,4.1864101563e+003,4.1855126953e+003,4.1793588867e+003,4.1819228516e+003,4.1930771484e+003,4.1688461914e+003,4.1875639648e+003,4.1643588867e+003,4.1541025391e+003,
4.8437500000e-001,4.0755129395e+003,4.1873076172e+003,4.1776923828e+003,4.1979487305e+003,4.1784614258e+003,4.1820512695e+003,4.1796152344e+003,4.1756411133e+003,4.1837177734e+003,4.1943588867e+003,4.1669228516e+003,4.1880771484e+003,4.1667949219e+003,4.1594873047e+003,
4.9218750000e-001,4.0744870605e+003,4.1908974609e+003,4.1756411133e+003,4.1924360352e+003,4.1728203125e+003,4.1794873047e+003,4.1739741211e+003,4.1742309570e+003,4.1838461914e+003,4.1956411133e+003,4.1661538086e+003,4.1888461914e+003,4.1670512695e+003,4.1630771484e+003,
5.0000000000e-001,4.0761538086e+003,4.1943588867e+003,4.1802563477e+003,4.1869228516e+003,4.1698715820e+003,4.1796152344e+003,4.1706411133e+003,4.1746152344e+003,4.1810258789e+003,4.1964101563e+003,4.1697436523e+003,4.1919228516e+003,4.1675639648e+003,4.1653847656e+003,
5.0781250000e-001,4.0907692871e+003,4.1976923828e+003,4.2000000000e+003,4.2020512695e+003,4.1920512695e+003,4.1774360352e+003,4.1719228516e+003,4.1735898438e+003,4.1737177734e+003,4.1979487305e+003,4.1911538086e+003,4.2017949219e+003,4.1732050781e+003,4.1676923828e+003,
5.1562500000e-001,4.0876923828e+003,4.1938461914e+003,4.1982050781e+003,4.2046152344e+003,4.1921796875e+003,4.1724360352e+003,4.1720512695e+003,4.1758974609e+003,4.1758974609e+003,4.1970512695e+003,4.1860258789e+003,4.2006411133e+003,4.1662822266e+003,4.1660258789e+003,
5.2343750000e-001,4.0837180176e+003,4.1807690430e+003,4.2012822266e+003,4.1987177734e+003,4.1783334961e+003,4.1691025391e+003,4.1712822266e+003,4.1811538086e+003,4.1701284180e+003,4.1871796875e+003,4.1733334961e+003,4.1969228516e+003,4.1539741211e+003,4.1596152344e+003,
5.3125000000e-001,4.0607692871e+003,4.1658974609e+003,4.1717949219e+003,4.1866665039e+003,4.1602563477e+003,4.1698715820e+003,4.1726923828e+003,4.1658974609e+003,4.1603847656e+003,4.1628203125e+003,4.1425639648e+003,4.1714101563e+003,4.1376923828e+003,4.1305126953e+003,
5.3906250000e-001,4.0578205566e+003,4.1643588867e+003,4.1687177734e+003,4.1852563477e+003,4.1652563477e+003,4.1734614258e+003,4.1801284180e+003,4.1693588867e+003,4.1644873047e+003,4.1638461914e+003,4.1406411133e+003,4.1656411133e+003,4.1324360352e+003,4.1279487305e+003,
5.4687500000e-001,4.0617949219e+003,4.1629487305e+003,4.1734614258e+003,4.1812822266e+003,4.1760258789e+003,4.1973076172e+003,4.1989741211e+003,4.1919228516e+003,4.1811538086e+003,4.1858974609e+003,4.1642309570e+003,4.1692309570e+003,4.1412822266e+003,4.1419228516e+003,
5.5468750000e-001,4.0593588867e+003,4.1616665039e+003,4.1705126953e+003,4.1732050781e+003,4.1661538086e+003,4.1988461914e+003,4.1979487305e+003,4.1889741211e+003,4.1802563477e+003,4.1851284180e+003,4.1647436523e+003,4.1712822266e+003,4.1439741211e+003,4.1448715820e+003,
5.6250000000e-001,4.0635898438e+003,4.1764101563e+003,4.1708974609e+003,4.1729487305e+003,4.1738461914e+003,4.1892309570e+003,4.1916665039e+003,4.1770512695e+003,4.1757690430e+003,4.1817949219e+003,4.1574360352e+003,4.1719228516e+003,4.1492309570e+003,4.1508974609e+003,
5.7031250000e-001,4.0700000000e+003,4.1832050781e+003,4.1765385742e+003,4.1806411133e+003,4.1916665039e+003,4.1905126953e+003,4.1915385742e+003,4.1798715820e+003,4.1782050781e+003,4.1885898438e+003,4.1623076172e+003,4.1780771484e+003,4.1539741211e+003,4.1552563477e+003,
5.7812500000e-001,4.0821794434e+003,4.1856411133e+003,4.1835898438e+003,4.1864101563e+003,4.2043588867e+003,4.1957690430e+003,4.1888461914e+003,4.1821796875e+003,4.1835898438e+003,4.2033334961e+003,4.1791025391e+003,4.1928203125e+003,4.1683334961e+003,4.1664101563e+003,
5.8593750000e-001,4.0847436523e+003,4.1844873047e+003,4.1824360352e+003,4.1860258789e+003,4.1951284180e+003,4.1950000000e+003,4.1856411133e+003,4.1792309570e+003,4.1852563477e+003,4.2070512695e+003,4.1856411133e+003,4.1926923828e+003,4.1744873047e+003,4.1684614258e+003,
5.9375000000e-001,4.0852563477e+003,4.1939741211e+003,4.1815385742e+003,4.1864101563e+003,4.1797436523e+003,4.1841025391e+003,4.1789741211e+003,4.1747436523e+003,4.1908974609e+003,4.2106411133e+003,4.1852563477e+003,4.1793588867e+003,4.1766665039e+003,4.1651284180e+003,
6.0156250000e-001,4.0912819824e+003,4.1970512695e+003,4.1873076172e+003,4.1691025391e+003,4.1964101563e+003,4.1856411133e+003,4.1811538086e+003,4.1929487305e+003,4.1996152344e+003,4.2161538086e+003,4.1898715820e+003,4.1915385742e+003,4.1825639648e+003,4.1755126953e+003,
6.0937500000e-001,4.0928205566e+003,4.1958974609e+003,4.1874360352e+003,4.1721796875e+003,4.1960258789e+003,4.1875639648e+003,4.1841025391e+003,4.1985898438e+003,4.2028203125e+003,4.2167949219e+003,4.1948715820e+003,4.1951284180e+003,4.1846152344e+003,4.1791025391e+003,
6.1718750000e-001,4.0925642090e+003,4.1942309570e+003,4.1871796875e+003,4.1796152344e+003,4.1917949219e+003,4.1875639648e+003,4.1862822266e+003,4.2015385742e+003,4.2042309570e+003,4.2151284180e+003,4.1964101563e+003,4.1962822266e+003,4.1830771484e+003,4.1806411133e+003,
6.2500000000e-001,4.0905129395e+003,4.1917949219e+003,4.1860258789e+003,4.1858974609e+003,4.1861538086e+003,4.1851284180e+003,4.1861538086e+003,4.2014101563e+003,4.2026923828e+003,4.2111538086e+003,4.1929487305e+003,4.1951284180e+003,4.1778203125e+003,4.1788461914e+003,
6.3281250000e-001,4.0856411133e+003,4.1850000000e+003,4.1807690430e+003,4.1653847656e+003,4.1824360352e+003,4.1738461914e+003,4.1829487305e+003,4.1873076172e+003,4.1792309570e+003,4.1925639648e+003,4.1705126953e+003,4.1861538086e+003,4.1582050781e+003,4.1657690430e+003,
6.4062500000e-001,4.0829487305e+003,4.1816665039e+003,4.1791025391e+003,4.1600000000e+003,4.1779487305e+003,4.1742309570e+003,4.1830771484e+003,4.1853847656e+003,4.1743588867e+003,4.1888461914e+003,4.1685898438e+003,4.1793588867e+003,4.1546152344e+003,4.1629487305e+003,
6.4843750000e-001,4.0755129395e+003,4.1716665039e+003,4.1675639648e+003,4.1579487305e+003,4.1750000000e+003,4.1796152344e+003,4.1844873047e+003,4.1884614258e+003,4.1723076172e+003,4.1879487305e+003,4.1694873047e+003,4.1629487305e+003,4.1480771484e+003,4.1474360352e+003,
6.5625000000e-001,4.0925642090e+003,4.1841025391e+003,4.1771796875e+003,4.1691025391e+003,4.1905126953e+003,4.1850000000e+003,4.1867949219e+003,4.1874360352e+003,4.1756411133e+003,4.1939741211e+003,4.1752563477e+003,4.1805126953e+003,4.1626923828e+003,4.1612822266e+003,
6.6406250000e-001,4.0951281738e+003,4.1832050781e+003,4.1793588867e+003,4.1700000000e+003,4.1852563477e+003,4.1865385742e+003,4.1850000000e+003,4.1860258789e+003,4.1766665039e+003,4.1961538086e+003,4.1764101563e+003,4.1815385742e+003,4.1669228516e+003,4.1671796875e+003,
6.7187500000e-001,4.0996152344e+003,4.1800000000e+003,4.1837177734e+003,4.1656411133e+003,4.1774360352e+003,4.1971796875e+003,4.1923076172e+003,4.1821796875e+003,4.1798715820e+003,4.2071796875e+003,4.1898715820e+003,4.1942309570e+003,4.1787177734e+003,4.1852563477e+003,
6.7968750000e-001,4.1067949219e+003,4.1906411133e+003,4.1884614258e+003,4.1685898438e+003,4.1873076172e+003,4.2008974609e+003,4.1969228516e+003,4.1819228516e+003,4.1829487305e+003,4.2139741211e+003,4.1993588867e+003,4.2032050781e+003,4.1871796875e+003,4.1929487305e+003,
6.8750000000e-001,4.1058974609e+003,4.1962822266e+003,4.1883334961e+003,4.1675639648e+003,4.1830771484e+003,4.1906411133e+003,4.1876923828e+003,4.1771796875e+003,4.1861538086e+003,4.2203847656e+003,4.2130771484e+003,4.1991025391e+003,4.1937177734e+003,4.1914101563e+003,
6.9531250000e-001,4.0983334961e+003,4.1864101563e+003,4.1851284180e+003,4.1644873047e+003,4.1753847656e+003,4.1851284180e+003,4.1834614258e+003,4.1784614258e+003,4.1893588867e+003,4.2182050781e+003,4.2076923828e+003,4.1938461914e+003,4.1882050781e+003,4.1857690430e+003,
7.0312500000e-001,4.0965385742e+003,4.1807690430e+003,4.1828203125e+003,4.1691025391e+003,4.1838461914e+003,4.1861538086e+003,4.1826923828e+003,4.1966665039e+003,4.2051284180e+003,4.2196152344e+003,4.1961538086e+003,4.1916665039e+003,4.1832050781e+003,4.1796152344e+003,
7.1093750000e-001,4.0998715820e+003,4.1838461914e+003,4.1821796875e+003,4.1717949219e+003,4.1871796875e+003,4.1878203125e+003,4.1820512695e+003,4.2082050781e+003,4.2094873047e+003,4.2189741211e+003,4.1924360352e+003,4.1896152344e+003,4.1824360352e+003,4.1760258789e+003,
7.1875000000e-001,4.0994873047e+003,4.1832050781e+003,4.1801284180e+003,4.1588461914e+003,4.1594873047e+003,4.1766665039e+003,4.1758974609e+003,4.2111538086e+003,4.1930771484e+003,4.2057690430e+003,4.1871796875e+003,4.1776923828e+003,4.1746152344e+003,4.1625639648e+003,
7.2656250000e-001,4.0991025391e+003,4.1856411133e+003,4.1814101563e+003,4.1557690430e+003,4.1619228516e+003,4.1762822266e+003,4.1782050781e+003,4.2073076172e+003,4.1921796875e+003,4.2066665039e+003,4.1884614258e+003,4.1802563477e+003,4.1735898438e+003,4.1634614258e+003,
7.3437500000e-001,4.1021796875e+003,4.1921796875e+003,4.1852563477e+003,4.1608974609e+003,4.1887177734e+003,4.1821796875e+003,4.1861538086e+003,4.2073076172e+003,4.1988461914e+003,4.2073076172e+003,4.1901284180e+003,4.1916665039e+003,4.1735898438e+003,4.1697436523e+003,
7.4218750000e-001,4.1035898438e+003,4.1902563477e+003,4.1862822266e+003,4.1655126953e+003,4.1993588867e+003,4.1832050781e+003,4.1883334961e+003,4.2091025391e+003,4.1979487305e+003,4.2032050781e+003,4.1887177734e+003,4.1938461914e+003,4.1744873047e+003,4.1720512695e+003,
7.5000000000e-001,4.1029487305e+003,4.1850000000e+003,4.1853847656e+003,4.1671796875e+003,4.2011538086e+003,4.1816665039e+003,4.1884614258e+003,4.2083334961e+003,4.1916665039e+003,4.1974360352e+003,4.1856411133e+003,4.1908974609e+003,4.1756411133e+003,4.1720512695e+003,
7.5781250000e-001,4.0908974609e+003,4.1757690430e+003,4.1758974609e+003,4.1500000000e+003,4.1630771484e+003,4.1850000000e+003,4.1921796875e+003,4.1778203125e+003,4.1555126953e+003,4.1726923828e+003,4.1767949219e+003,4.1842309570e+003,4.1641025391e+003,4.1578203125e+003,
7.6562500000e-001,4.0998715820e+003,4.1779487305e+003,4.1835898438e+003,4.1547436523e+003,4.1732050781e+003,4.1875639648e+003,4.1958974609e+003,4.1821796875e+003,4.1576923828e+003,4.1757690430e+003,4.1803847656e+003,4.1934614258e+003,4.1712822266e+003,4.1639741211e+003,
7.7343750000e-001,4.1139741211e+003,4.1802563477e+003,4.1996152344e+003,4.1710258789e+003,4.1998715820e+003,4.1958974609e+003,4.2029487305e+003,4.1837177734e+003,4.1588461914e+003,4.1865385742e+003,4.1806411133e+003,4.2121796875e+003,4.1901284180e+003,4.1833334961e+003,
7.8125000000e-001,4.1121796875e+003,4.1788461914e+003,4.1970512695e+003,4.1721796875e+003,4.1942309570e+003,4.1985898438e+003,4.2002563477e+003,4.1773076172e+003,4.1588461914e+003,4.1873076172e+003,4.1841025391e+003,4.2110258789e+003,4.1902563477e+003,4.1841025391e+003,
7.8906250000e-001,4.1116665039e+003,4.1797436523e+003,4.1884614258e+003,4.1684614258e+003,4.1823076172e+003,4.2003847656e+003,4.1912822266e+003,4.1728203125e+003,4.1738461914e+003,4.1982050781e+003,4.1965385742e+003,4.2061538086e+003,4.1923076172e+003,4.1824360352e+003,
7.9687500000e-001,4.1129487305e+003,4.1783334961e+003,4.1806411133e+003,4.1723076172e+003,4.1847436523e+003,4.1906411133e+003,4.1816665039e+003,4.2039741211e+003,4.2102563477e+003,4.2132050781e+003,4.1892309570e+003,4.2021796875e+003,4.1934614258e+003,4.1817949219e+003,
8.0468750000e-001,4.1108974609e+003,4.1762822266e+003,4.1782050781e+003,4.1689741211e+003,4.1783334961e+003,4.1866665039e+003,4.1803847656e+003,4.2062822266e+003,4.2116665039e+003,4.2093588867e+003,4.1887177734e+003,4.1966665039e+003,4.1923076172e+003,4.1782050781e+003,
8.1250000000e-001,4.1260258789e+003,4.1916665039e+003,4.1924360352e+003,4.1765385742e+003,4.1957690430e+003,4.1908974609e+003,4.1846152344e+003,4.2157690430e+003,4.2201284180e+003,4.2221796875e+003,4.1982050781e+003,4.2106411133e+003,4.1970512695e+003,4.1885898438e+003,
8.2031250000e-001,4.1303847656e+003,4.1966665039e+003,4.1966665039e+003,4.1844873047e+003,4.2019228516e+003,4.1926923828e+003,4.1847436523e+003,4.2215385742e+003,4.2219228516e+003,4.2269228516e+003,4.2011538086e+003,4.2164101563e+003,4.1975639648e+003,4.1923076172e+003,
8.2812500000e-001,4.1267949219e+003,4.1905126953e+003,4.1948715820e+003,4.1841025391e+003,4.1916665039e+003,4.1871796875e+003,4.1853847656e+003,4.2216665039e+003,4.2138461914e+003,4.2185898438e+003,4.1982050781e+003,4.2139741211e+003,4.1952563477e+003,4.1883334961e+003,
8.3593750000e-001,4.1235898438e+003,4.1844873047e+003,4.1929487305e+003,4.1769228516e+003,4.1823076172e+003,4.1834614258e+003,4.1878203125e+003,4.2146152344e+003,4.2051284180e+003,4.2088461914e+003,4.1926923828e+003,4.2105126953e+003,4.1925639648e+003,4.1848715820e+003,
8.4375000000e-001,4.1257690430e+003,4.1898715820e+003,4.1937177734e+003,4.1728203125e+003,4.1941025391e+003,4.1884614258e+003,4.2025639648e+003,4.2042309570e+003,4.1853847656e+003,4.1947436523e+003,4.1864101563e+003,4.2083334961e+003,4.1805126953e+003,4.1814101563e+003,
8.5156250000e-001,4.1251284180e+003,4.1889741211e+003,4.1944873047e+003,4.1744873047e+003,4.1946152344e+003,4.1896152344e+003,4.2057690430e+003,4.2033334961e+003,4.1775639648e+003,4.1902563477e+003,4.1846152344e+003,4.2062822266e+003,4.1766665039e+003,4.1796152344e+003,
8.5937500000e-001,4.1155126953e+003,4.1683334961e+003,4.1875639648e+003,4.1671796875e+003,4.1592309570e+003,4.1800000000e+003,4.2008974609e+003,4.1856411133e+003,4.1512822266e+003,4.1691025391e+003,4.1684614258e+003,4.1950000000e+003,4.1665385742e+003,4.1734614258e+003,
8.6718750000e-001,4.1110258789e+003,4.1603847656e+003,4.1816665039e+003,4.1621796875e+003,4.1430771484e+003,4.1757690430e+003,4.1962822266e+003,4.1724360352e+003,4.1392309570e+003,4.1610258789e+003,4.1616665039e+003,4.1902563477e+003,4.1620512695e+003,4.1705126953e+003,
8.7500000000e-001,4.1102563477e+003,4.1606411133e+003,4.1791025391e+003,4.1608974609e+003,4.1430771484e+003,4.1773076172e+003,4.1946152344e+003,4.1630771484e+003,4.1332050781e+003,4.1597436523e+003,4.1619228516e+003,4.1897436523e+003,4.1610258789e+003,4.1694873047e+003,
8.8281250000e-001,4.1256411133e+003,4.1776923828e+003,4.1835898438e+003,4.1679487305e+003,4.1967949219e+003,4.1932050781e+003,4.1975639648e+003,4.1683334961e+003,4.1582050781e+003,4.1805126953e+003,4.1780771484e+003,4.2016665039e+003,4.1755126953e+003,4.1770512695e+003,
8.9062500000e-001,4.1257690430e+003,4.1765385742e+003,4.1793588867e+003,4.1666665039e+003,4.1880771484e+003,4.1916665039e+003,4.1903847656e+003,4.1689741211e+003,4.1683334961e+003,4.1893588867e+003,4.1789741211e+003,4.1951284180e+003,4.1775639648e+003,4.1760258789e+003,
8.9843750000e-001,4.1370512695e+003,4.1885898438e+003,4.1926923828e+003,4.1751284180e+003,4.1994873047e+003,4.2015385742e+003,4.1887177734e+003,4.1998715820e+003,4.2182050781e+003,4.2280771484e+003,4.2105126953e+003,4.2051284180e+003,4.1991025391e+003,4.1893588867e+003,
9.0625000000e-001,4.1282050781e+003,4.1841025391e+003,4.1792309570e+003,4.1671796875e+003,4.1816665039e+003,4.1919228516e+003,4.1792309570e+003,4.2192309570e+003,4.2262822266e+003,4.2250000000e+003,4.1944873047e+003,4.1925639648e+003,4.1915385742e+003,4.1782050781e+003,
9.1406250000e-001,4.1252563477e+003,4.1825639648e+003,4.1766665039e+003,4.1669228516e+003,4.1756411133e+003,4.1883334961e+003,4.1738461914e+003,4.2169228516e+003,4.2230771484e+003,4.2200000000e+003,4.1858974609e+003,4.1860258789e+003,4.1864101563e+003,4.1746152344e+003,
9.2187500000e-001,4.1460258789e+003,4.1971796875e+003,4.2003847656e+003,4.1906411133e+003,4.2026923828e+003,4.1893588867e+003,4.1828203125e+003,4.2214101563e+003,4.2260258789e+003,4.2274360352e+003,4.2037177734e+003,4.2016665039e+003,4.1941025391e+003,4.1910258789e+003,
9.2968750000e-001,4.1482050781e+003,4.1975639648e+003,4.2033334961e+003,4.1935898438e+003,4.2060258789e+003,4.1884614258e+003,4.1869228516e+003,4.2225639648e+003,4.2200000000e+003,4.2250000000e+003,4.2070512695e+003,4.2065385742e+003,4.1924360352e+003,4.1923076172e+003,
9.3750000000e-001,4.1285898438e+003,4.1775639648e+003,4.1844873047e+003,4.1685898438e+003,4.1817949219e+003,4.1857690430e+003,4.1892309570e+003,4.2032050781e+003,4.1843588867e+003,4.1929487305e+003,4.1771796875e+003,4.1876923828e+003,4.1676923828e+003,4.1680771484e+003,
9.4531250000e-001,4.1238461914e+003,4.1715385742e+003,4.1801284180e+003,4.1664101563e+003,4.1776923828e+003,4.1858974609e+003,4.1934614258e+003,4.1964101563e+003,4.1756411133e+003,4.1834614258e+003,4.1678203125e+003,4.1829487305e+003,4.1621796875e+003,4.1625639648e+003,
9.5312500000e-001,4.1233334961e+003,4.1669228516e+003,4.1807690430e+003,4.1748715820e+003,4.1816665039e+003,4.1829487305e+003,4.2029487305e+003,4.1885898438e+003,4.1635898438e+003,4.1746152344e+003,4.1625639648e+003,4.1874360352e+003,4.1551284180e+003,4.1637177734e+003,
9.6093750000e-001,4.1226923828e+003,4.1653847656e+003,4.1811538086e+003,4.1732050781e+003,4.1815385742e+003,4.1806411133e+003,4.2014101563e+003,4.1821796875e+003,4.1562822266e+003,4.1714101563e+003,4.1621796875e+003,4.1878203125e+003,4.1514101563e+003,4.1633334961e+003,
9.6875000000e-001,4.1164101563e+003,4.1539741211e+003,4.1788461914e+003,4.1502563477e+003,4.1708974609e+003,4.1820512695e+003,4.1867949219e+003,4.1530771484e+003,4.1315385742e+003,4.1552563477e+003,4.1610258789e+003,4.1780771484e+003,4.1439741211e+003,4.1541025391e+003,
9.7656250000e-001,4.1214101563e+003,4.1550000000e+003,4.1811538086e+003,4.1542309570e+003,4.1733334961e+003,4.1825639648e+003,4.1865385742e+003,4.1491025391e+003,4.1291025391e+003,4.1555126953e+003,4.1665385742e+003,4.1839741211e+003,4.1474360352e+003,4.1592309570e+003,
9.8437500000e-001,4.1350000000e+003,4.1694873047e+003,4.1847436523e+003,4.1732050781e+003,4.1824360352e+003,4.1802563477e+003,4.1834614258e+003,4.1524360352e+003,4.1371796875e+003,4.1689741211e+003,4.1839741211e+003,4.2000000000e+003,4.1619228516e+003,4.1767949219e+003,
9.9218750000e-001,4.1387177734e+003,4.1767949219e+003,4.1850000000e+003,4.1765385742e+003,4.1829487305e+003,4.1800000000e+003,4.1794873047e+003,4.1552563477e+003,4.1448715820e+003,4.1771796875e+003,4.1893588867e+003,4.2025639648e+003,4.1689741211e+003,4.1815385742e+003,
1.0000000000e+000,4.1401284180e+003,4.1803847656e+003,4.1852563477e+003,4.1714101563e+003,4.1794873047e+003,4.1806411133e+003,4.1761538086e+003,4.1571796875e+003,4.1529487305e+003,4.1839741211e+003,4.1896152344e+003,4.2015385742e+003,4.1751284180e+003,4.1828203125e+003,
1.0078125000e+000,4.1405126953e+003,4.1802563477e+003,4.1858974609e+003,4.1612822266e+003,4.1751284180e+003,4.1806411133e+003,4.1742309570e+003,4.1592309570e+003,4.1617949219e+003,4.1900000000e+003,4.1862822266e+003,4.1998715820e+003,4.1806411133e+003,4.1829487305e+003,
1.0156250000e+000,4.1394873047e+003,4.1779487305e+003,4.1893588867e+003,4.1630771484e+003,4.1880771484e+003,4.1762822266e+003,4.1741025391e+003,4.1951284180e+003,4.2061538086e+003,4.2176923828e+003,4.2042309570e+003,4.2084614258e+003,4.1848715820e+003,4.1910258789e+003,
1.0234375000e+000,4.1284614258e+003,4.1756411133e+003,4.1832050781e+003,4.1639741211e+003,4.1824360352e+003,4.1780771484e+003,4.1725639648e+003,4.2079487305e+003,4.2085898438e+003,4.2125639648e+003,4.1912822266e+003,4.1893588867e+003,4.1861538086e+003,4.1750000000e+003,
1.0312500000e+000,4.1271796875e+003,4.1771796875e+003,4.1816665039e+003,4.1630771484e+003,4.1889741211e+003,4.1779487305e+003,4.1770512695e+003,4.2094873047e+003,4.2091025391e+003,4.2135898438e+003,4.1919228516e+003,4.1891025391e+003,4.1850000000e+003,4.1729487305e+003,
1.0390625000e+000,4.1269228516e+003,4.1796152344e+003,4.1815385742e+003,4.1637177734e+003,4.1912822266e+003,4.1825639648e+003,4.1841025391e+003,4.2130771484e+003,4.2069228516e+003,4.2170512695e+003,4.1994873047e+003,4.1957690430e+003,4.1788461914e+003,4.1737177734e+003,
1.0468750000e+000,4.1267949219e+003,4.1788461914e+003,4.1824360352e+003,4.1629487305e+003,4.1874360352e+003,4.1871796875e+003,4.1855126953e+003,4.2135898438e+003,4.2043588867e+003,4.2166665039e+003,4.1958974609e+003,4.1956411133e+003,4.1774360352e+003,4.1719228516e+003,
1.0546875000e+000,4.1198715820e+003,4.1625639648e+003,4.1780771484e+003,4.1451284180e+003,4.1856411133e+003,4.1893588867e+003,4.1915385742e+003,4.1992309570e+003,4.1853847656e+003,4.1929487305e+003,4.1653847656e+003,4.1770512695e+003,4.1673076172e+003,4.1543588867e+003,
1.0625000000e+000,4.1173076172e+003,4.1585898438e+003,4.1755126953e+003,4.1384614258e+003,4.1791025391e+003,4.1846152344e+003,4.1932050781e+003,4.1903847656e+003,4.1735898438e+003,4.1829487305e+003,4.1656411133e+003,4.1732050781e+003,4.1596152344e+003,4.1507690430e+003,
1.0703125000e+000,4.1192309570e+003,4.1598715820e+003,4.1737177734e+003,4.1385898438e+003,4.1365385742e+003,4.1767949219e+003,4.1906411133e+003,4.1688461914e+003,4.1452563477e+003,4.1721796875e+003,4.1783334961e+003,4.1796152344e+003,4.1517949219e+003,4.1584614258e+003,
1.0781250000e+000,4.1260258789e+003,4.1619228516e+003,4.1873076172e+003,4.1583334961e+003,4.1962822266e+003,4.1860258789e+003,4.1933334961e+003,4.1698715820e+003,4.1430771484e+003,4.1698715820e+003,4.1658974609e+003,4.1830771484e+003,4.1620512695e+003,4.1632050781e+003,
1.0859375000e+000,4.1328203125e+003,4.1724360352e+003,4.1924360352e+003,4.1658974609e+003,4.2183334961e+003,4.1894873047e+003,4.1962822266e+003,4.1726923828e+003,4.1487177734e+003,4.1769228516e+003,4.1720512695e+003,4.1875639648e+003,4.1673076172e+003,4.1673076172e+003,
1.0937500000e+000,4.1400000000e+003,4.1855126953e+003,4.1962822266e+003,4.1697436523e+003,4.2230771484e+003,4.1893588867e+003,4.1967949219e+003,4.1734614258e+003,4.1556411133e+003,4.1869228516e+003,4.1825639648e+003,4.1965385742e+003,4.1721796875e+003,4.1753847656e+003,
1.1015625000e+000,4.1456411133e+003,4.1952563477e+003,4.1988461914e+003,4.1687177734e+003,4.2128203125e+003,4.1852563477e+003,4.1929487305e+003,4.1717949219e+003,4.1624360352e+003,4.1965385742e+003,4.1926923828e+003,4.2070512695e+003,4.1765385742e+003,4.1851284180e+003,
1.1093750000e+000,4.1439741211e+003,4.1926923828e+003,4.1933334961e+003,4.1534614258e+003,4.1926923828e+003,4.1687177734e+003,4.1670512695e+003,4.1767949219e+003,4.1865385742e+003,4.2112822266e+003,4.1976923828e+003,4.2001284180e+003,4.1970512695e+003,4.1820512695e+003,
1.1171875000e+000,4.1432050781e+003,4.1948715820e+003,4.1928203125e+003,4.1558974609e+003,4.1953847656e+003,4.1698715820e+003,4.1674360352e+003,4.1832050781e+003,4.1925639648e+003,4.2126923828e+003,4.1964101563e+003,4.1971796875e+003,4.1965385742e+003,4.1789741211e+003,
1.1250000000e+000,4.1419228516e+003,4.1861538086e+003,4.1847436523e+003,4.1579487305e+003,4.1784614258e+003,4.1621796875e+003,4.1626923828e+003,4.1902563477e+003,4.1974360352e+003,4.2085898438e+003,4.1971796875e+003,4.1987177734e+003,4.1751284180e+003,4.1770512695e+003,
1.1328125000e+000,4.1243588867e+003,4.1707690430e+003,4.1794873047e+003,4.1376923828e+003,4.1806411133e+003,4.1602563477e+003,4.1570512695e+003,4.1905126953e+003,4.1920512695e+003,4.1982050781e+003,4.1752563477e+003,4.1841025391e+003,4.1620512695e+003,4.1629487305e+003,
1.1406250000e+000,4.1219228516e+003,4.1748715820e+003,4.1810258789e+003,4.1400000000e+003,4.1861538086e+003,4.1656411133e+003,4.1623076172e+003,4.1915385742e+003,4.1943588867e+003,4.1994873047e+003,4.1741025391e+003,4.1808974609e+003,4.1642309570e+003,4.1630771484e+003,
1.1484375000e+000,4.1182050781e+003,4.1762822266e+003,4.1728203125e+003,4.1591025391e+003,4.1826923828e+003,4.1756411133e+003,4.1780771484e+003,4.1865385742e+003,4.1842309570e+003,4.1916665039e+003,4.1738461914e+003,4.1733334961e+003,4.1551284180e+003,4.1562822266e+003,
1.1562500000e+000,4.1112822266e+003,4.1644873047e+003,4.1660258789e+003,4.1585898438e+003,4.1767949219e+003,4.1751284180e+003,4.1842309570e+003,4.1735898438e+003,4.1662822266e+003,4.1710258789e+003,4.1594873047e+003,4.1642309570e+003,4.1480771484e+003,4.1439741211e+003,
1.1640625000e+000,4.1101284180e+003,4.1628203125e+003,4.1661538086e+003,4.1596152344e+003,4.1774360352e+003,4.1730771484e+003,4.1861538086e+003,4.1717949219e+003,4.1633334961e+003,4.1696152344e+003,4.1570512695e+003,4.1632050781e+003,4.1505126953e+003,4.1423076172e+003,
1.1718750000e+000,4.1089741211e+003,4.1610258789e+003,4.1669228516e+003,4.1611538086e+003,4.1765385742e+003,4.1706411133e+003,4.1875639648e+003,4.1708974609e+003,4.1593588867e+003,4.1688461914e+003,4.1557690430e+003,4.1643588867e+003,4.1503847656e+003,4.1424360352e+003,
1.1796875000e+000,4.1070512695e+003,4.1561538086e+003,4.1666665039e+003,4.1543588867e+003,4.1684614258e+003,4.1688461914e+003,4.1883334961e+003,4.1674360352e+003,4.1525639648e+003,4.1643588867e+003,4.1543588867e+003,4.1669228516e+003,4.1419228516e+003,4.1447436523e+003,
1.1875000000e+000,4.1080771484e+003,4.1547436523e+003,4.1655126953e+003,4.1471796875e+003,4.1632050781e+003,4.1693588867e+003,4.1878203125e+003,4.1643588867e+003,4.1533334961e+003,4.1624360352e+003,4.1542309570e+003,4.1671796875e+003,4.1385898438e+003,4.1460258789e+003,
1.1953125000e+000,4.1324360352e+003,4.1679487305e+003,4.1811538086e+003,4.1593588867e+003,4.1721796875e+003,4.1660258789e+003,4.1860258789e+003,4.1603847656e+003,4.1665385742e+003,4.1741025391e+003,4.1755126953e+003,4.1880771484e+003,4.1562822266e+003,4.1665385742e+003,
1.2031250000e+000,4.1437177734e+003,4.1796152344e+003,4.1924360352e+003,4.1714101563e+003,4.1805126953e+003,4.1630771484e+003,4.1850000000e+003,4.1639741211e+003,4.1721796875e+003,4.1860258789e+003,4.1900000000e+003,4.2012822266e+003,4.1696152344e+003,4.1785898438e+003,
1.2109375000e+000,4.1570512695e+003,4.1992309570e+003,4.2064101563e+003,4.1779487305e+003,4.1764101563e+003,4.1564101563e+003,4.1787177734e+003,4.1750000000e+003,4.1843588867e+003,4.2093588867e+003,4.2112822266e+003,4.2201284180e+003,4.1952563477e+003,4.1992309570e+003,
1.2187500000e+000,4.1587177734e+003,4.2010258789e+003,4.2066665039e+003,4.1717949219e+003,4.1666665039e+003,4.1534614258e+003,4.1744873047e+003,4.1806411133e+003,4.1907690430e+003,4.2158974609e+003,4.2146152344e+003,4.2230771484e+003,4.2032050781e+003,4.2047436523e+003,
1.2265625000e+000,4.1592309570e+003,4.1983334961e+003,4.2050000000e+003,4.1641025391e+003,4.1624360352e+003,4.1524360352e+003,4.1721796875e+003,4.1874360352e+003,4.1980771484e+003,4.2201284180e+003,4.2147436523e+003,4.2229487305e+003,4.2071796875e+003,4.2066665039e+003,
1.2343750000e+000,4.1488461914e+003,4.1914101563e+003,4.1998715820e+003,4.1551284180e+003,4.1971796875e+003,4.1779487305e+003,4.1856411133e+003,4.2189741211e+003,4.2230771484e+003,4.2270512695e+003,4.2112822266e+003,4.2114101563e+003,4.1935898438e+003,4.1941025391e+003,
1.2421875000e+000,4.1414101563e+003,4.1853847656e+003,4.1908974609e+003,4.1497436523e+003,4.1842309570e+003,4.1755126953e+003,4.1820512695e+003,4.2128203125e+003,4.2188461914e+003,4.2179487305e+003,4.2024360352e+003,4.2017949219e+003,4.1866665039e+003,4.1856411133e+003,
1.2500000000e+000,4.1328203125e+003,4.1710258789e+003,4.1821796875e+003,4.1470512695e+003,4.1819228516e+003,4.1775639648e+003,4.1830771484e+003,4.2014101563e+003,4.2005126953e+003,4.1962822266e+003,4.1766665039e+003,4.1798715820e+003,4.1628203125e+003,4.1638461914e+003,
1.2578125000e+000,4.1292309570e+003,4.1716665039e+003,4.1793588867e+003,4.1587177734e+003,4.1734614258e+003,4.1820512695e+003,4.1876923828e+003,4.1900000000e+003,4.1808974609e+003,4.1883334961e+003,4.1730771484e+003,4.1766665039e+003,4.1548715820e+003,4.1583334961e+003,
1.2656250000e+000,4.1275639648e+003,4.1703847656e+003,4.1764101563e+003,4.1547436523e+003,4.1698715820e+003,4.1780771484e+003,4.1861538086e+003,4.1865385742e+003,4.1784614258e+003,4.1857690430e+003,4.1696152344e+003,4.1737177734e+003,4.1529487305e+003,4.1570512695e+003,
1.2734375000e+000,4.1403847656e+003,4.1680771484e+003,4.1897436523e+003,4.1544873047e+003,4.1865385742e+003,4.1730771484e+003,4.1887177734e+003,4.1796152344e+003,4.1742309570e+003,4.1816665039e+003,4.1664101563e+003,4.1783334961e+003,4.1500000000e+003,4.1596152344e+003,
1.2812500000e+000,4.1475639648e+003,4.1756411133e+003,4.1944873047e+003,4.1647436523e+003,4.1920512695e+003,4.1747436523e+003,4.1911538086e+003,4.1776923828e+003,4.1732050781e+003,4.1847436523e+003,4.1732050781e+003,4.1834614258e+003,4.1560258789e+003,4.1633334961e+003,
1.2890625000e+000,4.1520512695e+003,4.1873076172e+003,4.1933334961e+003,4.1726923828e+003,4.1866665039e+003,4.1742309570e+003,4.1914101563e+003,4.1702563477e+003,4.1678203125e+003,4.1874360352e+003,4.1823076172e+003,4.1897436523e+003,4.1655126953e+003,4.1683334961e+003,
1.2968750000e+000,4.1514101563e+003,4.1864101563e+003,4.1924360352e+003,4.1679487305e+003,4.1792309570e+003,4.1694873047e+003,4.1891025391e+003,4.1648715820e+003,4.1637177734e+003,4.1846152344e+003,4.1815385742e+003,4.1924360352e+003,4.1646152344e+003,4.1710258789e+003,
1.3046875000e+000,4.1528203125e+003,4.1853847656e+003,4.1950000000e+003,4.1643588867e+003,4.1752563477e+003,4.1637177734e+003,4.1860258789e+003,4.1607690430e+003,4.1617949219e+003,4.1820512695e+003,4.1821796875e+003,4.1966665039e+003,4.1629487305e+003,4.1750000000e+003,
1.3125000000e+000,4.1638461914e+003,4.1946152344e+003,4.2070512695e+003,4.1748715820e+003,4.1844873047e+003,4.1592309570e+003,4.1801284180e+003,4.1619228516e+003,4.1708974609e+003,4.1889741211e+003,4.1930771484e+003,4.2074360352e+003,4.1698715820e+003,4.1852563477e+003,
1.3203125000e+000,4.1691025391e+003,4.2020512695e+003,4.2117949219e+003,4.1833334961e+003,4.1917949219e+003,4.1610258789e+003,4.1774360352e+003,4.1669228516e+003,4.1794873047e+003,4.1965385742e+003,4.1975639648e+003,4.2107690430e+003,4.1775639648e+003,4.1897436523e+003,
1.3281250000e+000,4.1716665039e+003,4.2064101563e+003,4.2135898438e+003,4.1864101563e+003,4.1955126953e+003,4.1629487305e+003,4.1748715820e+003,4.1730771484e+003,4.1867949219e+003,4.2025639648e+003,4.1975639648e+003,4.2111538086e+003,4.1834614258e+003,4.1925639648e+003,
1.3359375000e+000,4.1712822266e+003,4.2057690430e+003,4.2121796875e+003,4.1820512695e+003,4.1943588867e+003,4.1638461914e+003,4.1723076172e+003,4.1791025391e+003,4.1917949219e+003,4.2057690430e+003,4.1944873047e+003,4.2075639648e+003,4.1846152344e+003,4.1923076172e+003,
1.3437500000e+000,4.1520512695e+003,4.1860258789e+003,4.1916665039e+003,4.1666665039e+003,4.1835898438e+003,4.1643588867e+003,4.1671796875e+003,4.1934614258e+003,4.2015385742e+003,4.2035898438e+003,4.1887177734e+003,4.1848715820e+003,4.1619228516e+003,4.1742309570e+003,
1.3515625000e+000,4.1520512695e+003,4.1860258789e+003,4.1916665039e+003,4.1666665039e+003,4.1835898438e+003,4.1643588867e+003,4.1671796875e+003,4.1934614258e+003,4.2015385742e+003,4.2035898438e+003,4.1887177734e+003,4.1848715820e+003,4.1619228516e+003,4.1742309570e+003,
1.3593750000e+000,4.1538461914e+003,4.1862822266e+003,4.1848715820e+003,4.1702563477e+003,4.1993588867e+003,4.1775639648e+003,4.1714101563e+003,4.1962822266e+003,4.2033334961e+003,4.2038461914e+003,4.1832050781e+003,4.1848715820e+003,4.1651284180e+003,4.1765385742e+003,
1.3671875000e+000,4.1419228516e+003,4.1733334961e+003,4.1723076172e+003,4.1384614258e+003,4.1676923828e+003,4.1730771484e+003,4.1732050781e+003,4.1893588867e+003,4.1851284180e+003,4.1896152344e+003,4.1739741211e+003,4.1719228516e+003,4.1584614258e+003,4.1610258789e+003,
1.3750000000e+000,4.1391025391e+003,4.1680771484e+003,4.1707690430e+003,4.1301284180e+003,4.1548715820e+003,4.1724360352e+003,4.1753847656e+003,4.1832050781e+003,4.1757690430e+003,4.1826923828e+003,4.1652563477e+003,4.1675639648e+003,4.1548715820e+003,4.1557690430e+003,
1.3828125000e+000,4.1493588867e+003,4.1712822266e+003,4.1771796875e+003,4.1362822266e+003,4.1842309570e+003,4.1817949219e+003,4.1876923828e+003,4.1742309570e+003,4.1625639648e+003,4.1769228516e+003,4.1600000000e+003,4.1752563477e+003,4.1571796875e+003,4.1592309570e+003,
1.3906250000e+000,4.1535898438e+003,4.1765385742e+003,4.1784614258e+003,4.1453847656e+003,4.1991025391e+003,4.1806411133e+003,4.1888461914e+003,4.1726923828e+003,4.1607690430e+003,4.1787177734e+003,4.1679487305e+003,4.1802563477e+003,4.1588461914e+003,4.1621796875e+003,
1.3984375000e+000,4.1516665039e+003,4.1783334961e+003,4.1752563477e+003,4.1555126953e+003,4.1979487305e+003,4.1730771484e+003,4.1860258789e+003,4.1635898438e+003,4.1544873047e+003,4.1752563477e+003,4.1739741211e+003,4.1770512695e+003,4.1574360352e+003,4.1579487305e+003,
1.4062500000e+000,4.1489741211e+003,4.1760258789e+003,4.1738461914e+003,4.1557690430e+003,4.1887177734e+003,4.1712822266e+003,4.1856411133e+003,4.1579487305e+003,4.1521796875e+003,4.1694873047e+003,4.1692309570e+003,4.1732050781e+003,4.1546152344e+003,4.1543588867e+003,
1.4140625000e+000,4.1575639648e+003,4.1841025391e+003,4.1803847656e+003,4.1528203125e+003,4.1910258789e+003,4.1714101563e+003,4.1894873047e+003,4.1587177734e+003,4.1625639648e+003,4.1714101563e+003,4.1657690430e+003,4.1816665039e+003,4.1610258789e+003,4.1633334961e+003,
1.4218750000e+000,4.1585898438e+003,4.1853847656e+003,4.1807690430e+003,4.1491025391e+003,4.1915385742e+003,4.1687177734e+003,4.1885898438e+003,4.1610258789e+003,4.1667949219e+003,4.1787177734e+003,4.1717949219e+003,4.1837177734e+003,4.1685898438e+003,4.1669228516e+003,
1.4296875000e+000,4.1523076172e+003,4.1787177734e+003,4.1812822266e+003,4.1389741211e+003,4.1755126953e+003,4.1620512695e+003,4.1832050781e+003,4.1624360352e+003,4.1734614258e+003,4.1824360352e+003,4.1774360352e+003,4.1857690430e+003,4.1755126953e+003,4.1661538086e+003,
1.4375000000e+000,4.1688461914e+003,4.2035898438e+003,4.1908974609e+003,4.1570512695e+003,4.1939741211e+003,4.1717949219e+003,4.1865385742e+003,4.1933334961e+003,4.2046152344e+003,4.2033334961e+003,4.1870512695e+003,4.1993588867e+003,4.1907690430e+003,4.1801284180e+003,
1.4453125000e+000,4.1733334961e+003,4.2053847656e+003,4.1934614258e+003,4.1601284180e+003,4.1906411133e+003,4.1757690430e+003,4.1867949219e+003,4.2012822266e+003,4.2111538086e+003,4.2135898438e+003,4.1953847656e+003,4.2015385742e+003,4.1984614258e+003,4.1852563477e+003,
1.4531250000e+000,4.1748715820e+003,4.2020512695e+003,4.1951284180e+003,4.1592309570e+003,4.1848715820e+003,4.1787177734e+003,4.1857690430e+003,4.2038461914e+003,4.2121796875e+003,4.2184614258e+003,4.2014101563e+003,4.2021796875e+003,4.2020512695e+003,4.1879487305e+003,
1.4609375000e+000,4.1738461914e+003,4.1979487305e+003,4.1950000000e+003,4.1555126953e+003,4.1835898438e+003,4.1801284180e+003,4.1843588867e+003,4.2019228516e+003,4.2091025391e+003,4.2169228516e+003,4.2015385742e+003,4.2020512695e+003,4.1998715820e+003,4.1875639648e+003,
1.4687500000e+000,4.1648715820e+003,4.1970512695e+003,4.1908974609e+003,4.1415385742e+003,4.2020512695e+003,4.1817949219e+003,4.1838461914e+003,4.1841025391e+003,4.1893588867e+003,4.1903847656e+003,4.1778203125e+003,4.1943588867e+003,4.1766665039e+003,4.1792309570e+003,
1.4765625000e+000,4.1523076172e+003,4.1820512695e+003,4.1738461914e+003,4.1338461914e+003,4.1829487305e+003,4.1730771484e+003,4.1841025391e+003,4.1696152344e+003,4.1684614258e+003,4.1841025391e+003,4.1725639648e+003,4.1789741211e+003,4.1710258789e+003,4.1669228516e+003,
1.4843750000e+000,4.1470512695e+003,4.1730771484e+003,4.1688461914e+003,4.1260258789e+003,4.1747436523e+003,4.1670512695e+003,4.1832050781e+003,4.1639741211e+003,4.1564101563e+003,4.1703847656e+003,4.1607690430e+003,4.1741025391e+003,4.1593588867e+003,4.1587177734e+003,
1.4921875000e+000,4.1391025391e+003,4.1635898438e+003,4.1625639648e+003,4.1241025391e+003,4.1644873047e+003,4.1662822266e+003,4.1833334961e+003,4.1571796875e+003,4.1424360352e+003,4.1517949219e+003,4.1493588867e+003,4.1667949219e+003,4.1473076172e+003,4.1497436523e+003,
1.5000000000e+000,4.1593588867e+003,4.1829487305e+003,4.1848715820e+003,4.1534614258e+003,4.1903847656e+003,4.1710258789e+003,4.2037177734e+003,4.1684614258e+003,4.1651284180e+003,4.1807690430e+003,4.1706411133e+003,4.1971796875e+003,4.1692309570e+003,4.1748715820e+003,
1.5078125000e+000,4.1608974609e+003,4.1829487305e+003,4.1858974609e+003,4.1476923828e+003,4.1864101563e+003,4.1694873047e+003,4.2039741211e+003,4.1694873047e+003,4.1697436523e+003,4.1837177734e+003,4.1742309570e+003,4.1933334961e+003,4.1719228516e+003,4.1714101563e+003,
1.5156250000e+000,4.1534614258e+003,4.1816665039e+003,4.1779487305e+003,4.1430771484e+003,4.1751284180e+003,4.1669228516e+003,4.1989741211e+003,4.1721796875e+003,4.1738461914e+003,4.1829487305e+003,4.1780771484e+003,4.1771796875e+003,4.1726923828e+003,4.1602563477e+003,
1.5234375000e+000,4.1512822266e+003,4.1834614258e+003,4.1760258789e+003,4.1488461914e+003,4.1751284180e+003,4.1657690430e+003,4.1967949219e+003,4.1757690430e+003,4.1769228516e+003,4.1841025391e+003,4.1775639648e+003,4.1761538086e+003,4.1726923828e+003,4.1610258789e+003,
1.5312500000e+000,4.1665385742e+003,4.1951284180e+003,4.1866665039e+003,4.1593588867e+003,4.1861538086e+003,4.1661538086e+003,4.1908974609e+003,4.1924360352e+003,4.1952563477e+003,4.2011538086e+003,4.1839741211e+003,4.1944873047e+003,4.1847436523e+003,4.1808974609e+003,
1.5390625000e+000,4.1688461914e+003,4.1971796875e+003,4.1883334961e+003,4.1558974609e+003,4.1851284180e+003,4.1667949219e+003,4.1878203125e+003,4.1953847656e+003,4.1987177734e+003,4.2042309570e+003,4.1889741211e+003,4.1970512695e+003,4.1892309570e+003,4.1848715820e+003,
1.5468750000e+000,4.1678203125e+003,4.1975639648e+003,4.1882050781e+003,4.1530771484e+003,4.1824360352e+003,4.1675639648e+003,4.1848715820e+003,4.1962822266e+003,4.1998715820e+003,4.2044873047e+003,4.1914101563e+003,4.1967949219e+003,4.1919228516e+003,4.1867949219e+003,
1.5546875000e+000,4.1642309570e+003,4.1950000000e+003,4.1891025391e+003,4.1529487305e+003,4.1807690430e+003,4.1703847656e+003,4.1825639648e+003,4.1947436523e+003,4.2001284180e+003,4.2032050781e+003,4.1865385742e+003,4.1947436523e+003,4.1920512695e+003,4.1876923828e+003,
1.5625000000e+000,4.1630771484e+003,4.1897436523e+003,4.1939741211e+003,4.1516665039e+003,4.1864101563e+003,4.1716665039e+003,4.1815385742e+003,4.1850000000e+003,4.1917949219e+003,4.1947436523e+003,4.1870512695e+003,4.1982050781e+003,4.1797436523e+003,4.1820512695e+003,
1.5703125000e+000,4.1616665039e+003,4.1911538086e+003,4.1907690430e+003,4.1546152344e+003,4.1896152344e+003,4.1711538086e+003,4.1815385742e+003,4.1820512695e+003,4.1875639648e+003,4.1914101563e+003,4.1894873047e+003,4.1980771484e+003,4.1765385742e+003,4.1788461914e+003,
1.5781250000e+000,4.1589741211e+003,4.1920512695e+003,4.1852563477e+003,4.1582050781e+003,4.1920512695e+003,4.1719228516e+003,4.1824360352e+003,4.1797436523e+003,4.1837177734e+003,4.1889741211e+003,4.1879487305e+003,4.1948715820e+003,4.1743588867e+003,4.1743588867e+003,
1.5859375000e+000,4.1544873047e+003,4.1894873047e+003,4.1796152344e+003,4.1584614258e+003,4.1914101563e+003,4.1739741211e+003,4.1837177734e+003,4.1765385742e+003,4.1792309570e+003,4.1864101563e+003,4.1814101563e+003,4.1885898438e+003,4.1711538086e+003,4.1683334961e+003,
1.5937500000e+000,4.1400000000e+003,4.1673076172e+003,4.1758974609e+003,4.1392309570e+003,4.1798715820e+003,4.1743588867e+003,4.1817949219e+003,4.1539741211e+003,4.1528203125e+003,4.1689741211e+003,4.1565385742e+003,4.1708974609e+003,4.1519228516e+003,4.1553847656e+003,
1.6015625000e+000,4.1401284180e+003,4.1665385742e+003,4.1757690430e+003,4.1401284180e+003,4.1789741211e+003,4.1710258789e+003,4.1814101563e+003,4.1515385742e+003,4.1520512695e+003,4.1678203125e+003,4.1565385742e+003,4.1717949219e+003,4.1511538086e+003,4.1569228516e+003,
1.6093750000e+000,4.1442309570e+003,4.1655126953e+003,4.1812822266e+003,4.1474360352e+003,4.1693588867e+003,4.1673076172e+003,4.1864101563e+003,4.1506411133e+003,4.1589741211e+003,4.1741025391e+003,4.1655126953e+003,4.1834614258e+003,4.1664101563e+003,4.1653847656e+003,
1.6171875000e+000,4.1603847656e+003,4.1839741211e+003,4.1885898438e+003,4.1698715820e+003,4.1871796875e+003,4.1666665039e+003,4.1912822266e+003,4.1588461914e+003,4.1703847656e+003,4.1875639648e+003,4.1823076172e+003,4.1916665039e+003,4.1737177734e+003,4.1746152344e+003,
1.6250000000e+000,4.1624360352e+003,4.1898715820e+003,4.1882050781e+003,4.1719228516e+003,4.1908974609e+003,4.1657690430e+003,4.1914101563e+003,4.1653847656e+003,4.1762822266e+003,4.1885898438e+003,4.1797436523e+003,4.1938461914e+003,4.1689741211e+003,4.1752563477e+003,
1.6328125000e+000,4.1596152344e+003,4.1900000000e+003,4.1873076172e+003,4.1552563477e+003,4.1842309570e+003,4.1676923828e+003,4.1875639648e+003,4.1873076172e+003,4.1925639648e+003,4.1917949219e+003,4.1750000000e+003,4.1851284180e+003,4.1629487305e+003,4.1662822266e+003,
1.6406250000e+000,4.1667949219e+003,4.1873076172e+003,4.1919228516e+003,4.1485898438e+003,4.1801284180e+003,4.1682050781e+003,4.1830771484e+003,4.1860258789e+003,4.1946152344e+003,4.1933334961e+003,4.1807690430e+003,4.1802563477e+003,4.1653847656e+003,4.1643588867e+003,
1.6484375000e+000,4.1687177734e+003,4.1914101563e+003,4.1902563477e+003,4.1483334961e+003,4.1825639648e+003,4.1669228516e+003,4.1821796875e+003,4.1851284180e+003,4.1953847656e+003,4.1928203125e+003,4.1776923828e+003,4.1833334961e+003,4.1669228516e+003,4.1670512695e+003,
1.6562500000e+000,4.1644873047e+003,4.1848715820e+003,4.1778203125e+003,4.1528203125e+003,4.1787177734e+003,4.1744873047e+003,4.1812822266e+003,4.1865385742e+003,4.1860258789e+003,4.1885898438e+003,4.1643588867e+003,4.1834614258e+003,4.1665385742e+003,4.1646152344e+003,
1.6640625000e+000,4.1614101563e+003,4.1780771484e+003,4.1758974609e+003,4.1519228516e+003,4.1747436523e+003,4.1798715820e+003,4.1820512695e+003,4.1828203125e+003,4.1792309570e+003,4.1857690430e+003,4.1661538086e+003,4.1832050781e+003,4.1633334961e+003,4.1634614258e+003,
1.6718750000e+000,4.1628203125e+003,4.1798715820e+003,4.1789741211e+003,4.1373076172e+003,4.1882050781e+003,4.1878203125e+003,4.1952563477e+003,4.1770512695e+003,4.1783334961e+003,4.1820512695e+003,4.1764101563e+003,4.1846152344e+003,4.1657690430e+003,4.1675639648e+003,
1.6796875000e+000,4.1651284180e+003,4.1803847656e+003,4.1807690430e+003,4.1367949219e+003,4.1934614258e+003,4.1873076172e+003,4.2003847656e+003,4.1791025391e+003,4.1784614258e+003,4.1797436523e+003,4.1726923828e+003,4.1839741211e+003,4.1661538086e+003,4.1683334961e+003,
1.6875000000e+000,4.1637177734e+003,4.1747436523e+003,4.1792309570e+003,4.1405126953e+003,4.1898715820e+003,4.1862822266e+003,4.2021796875e+003,4.1783334961e+003,4.1700000000e+003,4.1764101563e+003,4.1683334961e+003,4.1793588867e+003,4.1624360352e+003,4.1657690430e+003,
1.6953125000e+000,4.1603847656e+003,4.1734614258e+003,4.1750000000e+003,4.1405126953e+003,4.1853847656e+003,4.1873076172e+003,4.2000000000e+003,4.1760258789e+003,4.1657690430e+003,4.1791025391e+003,4.1714101563e+003,4.1767949219e+003,4.1629487305e+003,4.1647436523e+003,
1.7031250000e+000,4.1579487305e+003,4.1743588867e+003,4.1711538086e+003,4.1387177734e+003,4.1826923828e+003,4.1885898438e+003,4.1983334961e+003,4.1738461914e+003,4.1644873047e+003,4.1837177734e+003,4.1747436523e+003,4.1758974609e+003,4.1658974609e+003,4.1653847656e+003,
1.7109375000e+000,4.1585898438e+003,4.1760258789e+003,4.1703847656e+003,4.1367949219e+003,4.1823076172e+003,4.1885898438e+003,4.1983334961e+003,4.1725639648e+003,4.1664101563e+003,4.1874360352e+003,4.1758974609e+003,4.1775639648e+003,4.1692309570e+003,4.1679487305e+003,
1.7187500000e+000,4.1703847656e+003,4.1747436523e+003,4.1839741211e+003,4.1476923828e+003,4.1805126953e+003,4.1746152344e+003,4.1967949219e+003,4.1739741211e+003,4.1753847656e+003,4.1858974609e+003,4.1771796875e+003,4.1923076172e+003,4.1700000000e+003,4.1741025391e+003,
1.7265625000e+000,4.1682050781e+003,4.1751284180e+003,4.1825639648e+003,4.1507690430e+003,4.1770512695e+003,4.1725639648e+003,4.1928203125e+003,4.1753847656e+003,4.1764101563e+003,4.1882050781e+003,4.1791025391e+003,4.1929487305e+003,4.1708974609e+003,4.1733334961e+003,
1.7343750000e+000,4.1744873047e+003,4.1870512695e+003,4.1800000000e+003,4.1511538086e+003,4.1821796875e+003,4.1669228516e+003,4.1826923828e+003,4.1844873047e+003,4.1912822266e+003,4.1984614258e+003,4.1819228516e+003,4.1865385742e+003,4.1815385742e+003,4.1758974609e+003,
1.7421875000e+000,4.1801284180e+003,4.1946152344e+003,4.1901284180e+003,4.1741025391e+003,4.1908974609e+003,4.1648715820e+003,4.1753847656e+003,4.1943588867e+003,4.1974360352e+003,4.1961538086e+003,4.1900000000e+003,4.1944873047e+003,4.1842309570e+003,4.1887177734e+003,
1.7500000000e+000,4.1792309570e+003,4.1938461914e+003,4.1926923828e+003,4.1810258789e+003,4.1912822266e+003,4.1662822266e+003,4.1770512695e+003,4.1998715820e+003,4.2015385742e+003,4.1991025391e+003,4.1911538086e+003,4.1970512695e+003,4.1837177734e+003,4.1911538086e+003,
1.7578125000e+000,4.1747436523e+003,4.1930771484e+003,4.1819228516e+003,4.1706411133e+003,4.1916665039e+003,4.1791025391e+003,4.1865385742e+003,4.2066665039e+003,4.2114101563e+003,4.2089741211e+003,4.1837177734e+003,4.1911538086e+003,4.1802563477e+003,4.1861538086e+003,
1.7656250000e+000,4.1714101563e+003,4.1884614258e+003,4.1801284180e+003,4.1671796875e+003,4.1920512695e+003,4.1879487305e+003,4.1967949219e+003,4.1960258789e+003,4.1967949219e+003,4.2016665039e+003,4.1794873047e+003,4.1869228516e+003,4.1820512695e+003,4.1841025391e+003,
1.7734375000e+000,4.1697436523e+003,4.1858974609e+003,4.1830771484e+003,4.1680771484e+003,4.1911538086e+003,4.1900000000e+003,4.1969228516e+003,4.1939741211e+003,4.1915385742e+003,4.2000000000e+003,4.1767949219e+003,4.1848715820e+003,4.1792309570e+003,4.1820512695e+003,
1.7812500000e+000,4.1675639648e+003,4.1833334961e+003,4.1837177734e+003,4.1689741211e+003,4.1873076172e+003,4.1902563477e+003,4.1950000000e+003,4.1894873047e+003,4.1842309570e+003,4.1956411133e+003,4.1724360352e+003,4.1826923828e+003,4.1728203125e+003,4.1787177734e+003,
1.7890625000e+000,4.1633334961e+003,4.1800000000e+003,4.1739741211e+003,4.1734614258e+003,4.1694873047e+003,4.1832050781e+003,4.1882050781e+003,4.1710258789e+003,4.1647436523e+003,4.1794873047e+003,4.1623076172e+003,4.1767949219e+003,4.1576923828e+003,4.1707690430e+003,
1.7968750000e+000,4.1620512695e+003,4.1787177734e+003,4.1698715820e+003,4.1753847656e+003,4.1620512695e+003,4.1787177734e+003,4.1860258789e+003,4.1625639648e+003,4.1582050781e+003,4.1726923828e+003,4.1600000000e+003,4.1734614258e+003,4.1539741211e+003,4.1670512695e+003,
1.8046875000e+000,4.1673076172e+003,4.1792309570e+003,4.1875639648e+003,4.1703847656e+003,4.1850000000e+003,4.1808974609e+003,4.1887177734e+003,4.1612822266e+003,4.1614101563e+003,4.1748715820e+003,4.1671796875e+003,4.1832050781e+003,4.1639741211e+003,4.1719228516e+003,
1.8125000000e+000,4.1711538086e+003,4.1830771484e+003,4.1916665039e+003,4.1696152344e+003,4.1971796875e+003,4.1828203125e+003,4.1887177734e+003,4.1629487305e+003,4.1620512695e+003,4.1782050781e+003,4.1683334961e+003,4.1889741211e+003,4.1678203125e+003,4.1773076172e+003,
1.8203125000e+000,4.1729487305e+003,4.1898715820e+003,4.1832050781e+003,4.1746152344e+003,4.1985898438e+003,4.1766665039e+003,4.1862822266e+003,4.1602563477e+003,4.1571796875e+003,4.1778203125e+003,4.1678203125e+003,4.1907690430e+003,4.1647436523e+003,4.1812822266e+003,
1.8281250000e+000,4.1716665039e+003,4.1888461914e+003,4.1797436523e+003,4.1765385742e+003,4.1900000000e+003,4.1701284180e+003,4.1856411133e+003,4.1589741211e+003,4.1564101563e+003,4.1752563477e+003,4.1692309570e+003,4.1897436523e+003,4.1615385742e+003,4.1801284180e+003,
1.8359375000e+000,4.1721796875e+003,4.1851284180e+003,4.1820512695e+003,4.1758974609e+003,4.1814101563e+003,4.1648715820e+003,4.1844873047e+003,4.1605126953e+003,4.1597436523e+003,4.1743588867e+003,4.1725639648e+003,4.1902563477e+003,4.1611538086e+003,4.1794873047e+003,
1.8437500000e+000,4.1805126953e+003,4.1902563477e+003,4.1910258789e+003,4.1712822266e+003,4.1853847656e+003,4.1674360352e+003,4.1796152344e+003,4.1929487305e+003,4.1957690430e+003,4.2024360352e+003,4.1801284180e+003,4.1937177734e+003,4.1766665039e+003,4.1830771484e+003,
1.8515625000e+000,4.1797436523e+003,4.1947436523e+003,4.1912822266e+003,4.1698715820e+003,4.1911538086e+003,4.1691025391e+003,4.1817949219e+003,4.2010258789e+003,4.2019228516e+003,4.2078203125e+003,4.1756411133e+003,4.1946152344e+003,4.1775639648e+003,4.1858974609e+003,
1.8593750000e+000,4.1828203125e+003,4.1924360352e+003,4.1960258789e+003,4.1784614258e+003,4.1947436523e+003,4.1741025391e+003,4.1834614258e+003,4.2064101563e+003,4.2046152344e+003,4.2102563477e+003,4.1832050781e+003,4.1910258789e+003,4.1832050781e+003,4.1935898438e+003,
1.8671875000e+000,4.1797436523e+003,4.1951284180e+003,4.1900000000e+003,4.1784614258e+003,4.1953847656e+003,4.1856411133e+003,4.1866665039e+003,4.1925639648e+003,4.1889741211e+003,4.2006411133e+003,4.1826923828e+003,4.1900000000e+003,4.1788461914e+003,4.1929487305e+003,
1.8750000000e+000,4.1758974609e+003,4.1934614258e+003,4.1861538086e+003,4.1729487305e+003,4.1946152344e+003,4.1883334961e+003,4.1879487305e+003,4.1874360352e+003,4.1828203125e+003,4.1962822266e+003,4.1774360352e+003,4.1898715820e+003,4.1747436523e+003,4.1914101563e+003,
1.8828125000e+000,4.1616665039e+003,4.1728203125e+003,4.1721796875e+003,4.1558974609e+003,4.1773076172e+003,4.1853847656e+003,4.1852563477e+003,4.1623076172e+003,4.1556411133e+003,4.1729487305e+003,4.1670512695e+003,4.1742309570e+003,4.1600000000e+003,4.1791025391e+003,
1.8906250000e+000,4.1706411133e+003,4.1739741211e+003,4.1823076172e+003,4.1548715820e+003,4.1934614258e+003,4.1898715820e+003,4.1837177734e+003,4.1556411133e+003,4.1560258789e+003,4.1762822266e+003,4.1691025391e+003,4.1757690430e+003,4.1694873047e+003,4.1805126953e+003,
1.8984375000e+000,4.1737177734e+003,4.1766665039e+003,4.1883334961e+003,4.1610258789e+003,4.1970512695e+003,4.1893588867e+003,4.1839741211e+003,4.1574360352e+003,4.1600000000e+003,4.1811538086e+003,4.1719228516e+003,4.1825639648e+003,4.1737177734e+003,4.1850000000e+003,
1.9062500000e+000,4.1789741211e+003,4.1955126953e+003,4.1828203125e+003,4.1766665039e+003,4.1941025391e+003,4.1843588867e+003,4.1844873047e+003,4.1601284180e+003,4.1623076172e+003,4.1892309570e+003,4.1835898438e+003,4.1878203125e+003,4.1789741211e+003,4.1917949219e+003,
1.9140625000e+000,4.1812822266e+003,4.2015385742e+003,4.1823076172e+003,4.1743588867e+003,4.1941025391e+003,4.1848715820e+003,4.1846152344e+003,4.1651284180e+003,4.1658974609e+003,4.1924360352e+003,4.1842309570e+003,4.1885898438e+003,4.1819228516e+003,4.1919228516e+003,
1.9218750000e+000,4.1834614258e+003,4.2023076172e+003,4.1869228516e+003,4.1714101563e+003,4.1932050781e+003,4.1846152344e+003,4.1839741211e+003,4.1715385742e+003,4.1712822266e+003,4.1966665039e+003,4.1829487305e+003,4.1921796875e+003,4.1843588867e+003,4.1928203125e+003,
1.9296875000e+000,4.1867949219e+003,4.1920512695e+003,4.1992309570e+003,4.1779487305e+003,4.1861538086e+003,4.1771796875e+003,4.1815385742e+003,4.1816665039e+003,4.1835898438e+003,4.2052563477e+003,4.1839741211e+003,4.1991025391e+003,4.1858974609e+003,4.1953847656e+003,
1.9375000000e+000,4.1956411133e+003,4.1924360352e+003,4.2008974609e+003,4.1916665039e+003,4.1898715820e+003,4.1708974609e+003,4.1844873047e+003,4.1985898438e+003,4.2012822266e+003,4.2126923828e+003,4.1973076172e+003,4.1960258789e+003,4.1902563477e+003,4.2023076172e+003,
1.9453125000e+000,4.1965385742e+003,4.1947436523e+003,4.2023076172e+003,4.1876923828e+003,4.1956411133e+003,4.1748715820e+003,4.1846152344e+003,4.2060258789e+003,4.2062822266e+003,4.2150000000e+003,4.1978203125e+003,4.1980771484e+003,4.1915385742e+003,4.2044873047e+003,
1.9531250000e+000,4.1943588867e+003,4.1946152344e+003,4.2032050781e+003,4.1817949219e+003,4.2007690430e+003,4.1805126953e+003,4.1838461914e+003,4.2128203125e+003,4.2116665039e+003,4.2184614258e+003,4.1971796875e+003,4.2006411133e+003,4.1930771484e+003,4.2039741211e+003,
1.9609375000e+000,4.1893588867e+003,4.1930771484e+003,4.2006411133e+003,4.1767949219e+003,4.2029487305e+003,4.1862822266e+003,4.1842309570e+003,4.2175639648e+003,4.2164101563e+003,4.2223076172e+003,4.1966665039e+003,4.2012822266e+003,4.1947436523e+003,4.2010258789e+003,
1.9687500000e+000,4.1762822266e+003,4.1900000000e+003,4.1820512695e+003,4.1724360352e+003,4.1882050781e+003,4.1905126953e+003,4.1967949219e+003,4.2071796875e+003,4.2014101563e+003,4.2093588867e+003,4.1943588867e+003,4.1905126953e+003,4.1891025391e+003,4.1903847656e+003,
1.9765625000e+000,4.1784614258e+003,4.1882050781e+003,4.1866665039e+003,4.1714101563e+003,4.1930771484e+003,4.1898715820e+003,4.1943588867e+003,4.2024360352e+003,4.1938461914e+003,4.2041025391e+003,4.1888461914e+003,4.1880771484e+003,4.1871796875e+003,4.1879487305e+003,
1.9843750000e+000,4.1685898438e+003,4.1770512695e+003,4.1796152344e+003,4.1558974609e+003,4.1792309570e+003,4.1875639648e+003,4.1817949219e+003,4.1765385742e+003,4.1619228516e+003,4.1853847656e+003,4.1651284180e+003,4.1739741211e+003,4.1648715820e+003,4.1726923828e+003,
1.9921875000e+000,4.1660258789e+003,4.1812822266e+003,4.1726923828e+003,4.1528203125e+003,4.1764101563e+003,4.1893588867e+003,4.1864101563e+003,4.1646152344e+003,4.1583334961e+003,4.1830771484e+003,4.1701284180e+003,4.1739741211e+003,4.1696152344e+003,4.1771796875e+003,
2.0000000000e+000,4.1753847656e+003,4.1829487305e+003,4.1812822266e+003,4.1643588867e+003,4.1938461914e+003,4.1929487305e+003,4.1870512695e+003,4.1653847656e+003,4.1667949219e+003,4.1906411133e+003,4.1752563477e+003,4.1834614258e+003,4.1782050781e+003,4.1843588867e+003,
2.0078125000e+000,4.1914101563e+003,4.1894873047e+003,4.2002563477e+003,4.1746152344e+003,4.2093588867e+003,4.1887177734e+003,4.1823076172e+003,4.1624360352e+003,4.1792309570e+003,4.2007690430e+003,4.1852563477e+003,4.1978203125e+003,4.1880771484e+003,4.1969228516e+003,
2.0156250000e+000,4.1824360352e+003,4.1941025391e+003,4.1924360352e+003,4.1576923828e+003,4.1903847656e+003,4.1806411133e+003,4.1837177734e+003,4.1735898438e+003,4.1837177734e+003,4.1989741211e+003,4.1784614258e+003,4.1956411133e+003,4.1873076172e+003,4.1865385742e+003,
2.0234375000e+000,4.1838461914e+003,4.1915385742e+003,4.1921796875e+003,4.1600000000e+003,4.1901284180e+003,4.1806411133e+003,4.1858974609e+003,4.1844873047e+003,4.1880771484e+003,4.2021796875e+003,4.1797436523e+003,4.2003847656e+003,4.1900000000e+003,4.1866665039e+003,
2.0312500000e+000,4.1860258789e+003,4.1883334961e+003,4.1933334961e+003,4.1644873047e+003,4.1896152344e+003,4.1797436523e+003,4.1879487305e+003,4.1962822266e+003,4.1937177734e+003,4.2062822266e+003,4.1856411133e+003,4.2060258789e+003,4.1920512695e+003,4.1894873047e+003,
2.0390625000e+000,4.1857690430e+003,4.1851284180e+003,4.1971796875e+003,4.1752563477e+003,4.1887177734e+003,4.1758974609e+003,4.1894873047e+003,4.2135898438e+003,4.2051284180e+003,4.2107690430e+003,4.1974360352e+003,4.2124360352e+003,4.1934614258e+003,4.1955126953e+003,
2.0468750000e+000,4.1835898438e+003,4.1852563477e+003,4.1980771484e+003,4.1797436523e+003,4.1925639648e+003,4.1756411133e+003,4.1896152344e+003,4.2169228516e+003,4.2096152344e+003,4.2114101563e+003,4.1966665039e+003,4.2108974609e+003,4.1952563477e+003,4.1956411133e+003,
2.0546875000e+000,4.1723076172e+003,4.1757690430e+003,4.1828203125e+003,4.1720512695e+003,4.1969228516e+003,4.1808974609e+003,4.1852563477e+003,4.2082050781e+003,4.2028203125e+003,4.2079487305e+003,4.1803847656e+003,4.1937177734e+003,4.1939741211e+003,4.1816665039e+003,
2.0625000000e+000,4.1675639648e+003,4.1693588867e+003,4.1773076172e+003,4.1647436523e+003,4.1896152344e+003,4.1832050781e+003,4.1837177734e+003,4.2021796875e+003,4.1947436523e+003,4.2024360352e+003,4.1767949219e+003,4.1900000000e+003,4.1888461914e+003,4.1774360352e+003,
2.0703125000e+000,4.1650000000e+003,4.1696152344e+003,4.1770512695e+003,4.1624360352e+003,4.1876923828e+003,4.1930771484e+003,4.1867949219e+003,4.1952563477e+003,4.1876923828e+003,4.1965385742e+003,4.1750000000e+003,4.1911538086e+003,4.1873076172e+003,4.1774360352e+003,
2.0781250000e+000,4.1669228516e+003,4.1762822266e+003,4.1788461914e+003,4.1669228516e+003,4.1947436523e+003,4.1993588867e+003,4.1911538086e+003,4.1943588867e+003,4.1888461914e+003,4.1993588867e+003,4.1753847656e+003,4.1920512695e+003,4.1923076172e+003,4.1791025391e+003,
2.0859375000e+000,4.1687177734e+003,4.1819228516e+003,4.1797436523e+003,4.1701284180e+003,4.2003847656e+003,4.2037177734e+003,4.1960258789e+003,4.1924360352e+003,4.1880771484e+003,4.2033334961e+003,4.1760258789e+003,4.1921796875e+003,4.1973076172e+003,4.1805126953e+003,
2.0937500000e+000,4.1820512695e+003,4.1843588867e+003,4.1902563477e+003,4.1773076172e+003,4.1988461914e+003,4.2029487305e+003,4.1887177734e+003,4.1644873047e+003,4.1565385742e+003,4.1951284180e+003,4.1897436523e+003,4.2015385742e+003,4.1978203125e+003,4.1926923828e+003,
2.1015625000e+000,4.1821796875e+003,4.1892309570e+003,4.1907690430e+003,4.1823076172e+003,4.2048715820e+003,4.2021796875e+003,4.1851284180e+003,4.1614101563e+003,4.1567949219e+003,4.1942309570e+003,4.1850000000e+003,4.2002563477e+003,4.1998715820e+003,4.1908974609e+003,
2.1093750000e+000,4.1756411133e+003,4.1843588867e+003,4.1929487305e+003,4.1830771484e+003,4.1978203125e+003,4.1903847656e+003,4.1826923828e+003,4.1634614258e+003,4.1688461914e+003,4.1914101563e+003,4.1835898438e+003,4.2048715820e+003,4.2058974609e+003,4.1910258789e+003,
2.1171875000e+000,4.1852563477e+003,4.1865385742e+003,4.1976923828e+003,4.1911538086e+003,4.1932050781e+003,4.1852563477e+003,4.1839741211e+003,4.1782050781e+003,4.1826923828e+003,4.2061538086e+003,4.2011538086e+003,4.2117949219e+003,4.2002563477e+003,4.1953847656e+003,
2.1250000000e+000,4.1850000000e+003,4.1892309570e+003,4.1982050781e+003,4.1891025391e+003,4.1953847656e+003,4.1811538086e+003,4.1841025391e+003,4.1815385742e+003,4.1865385742e+003,4.2069228516e+003,4.1973076172e+003,4.2112822266e+003,4.1988461914e+003,4.1938461914e+003,
2.1328125000e+000,4.1700000000e+003,4.1847436523e+003,4.1873076172e+003,4.1717949219e+003,4.1858974609e+003,4.1706411133e+003,4.1856411133e+003,4.1958974609e+003,4.1928203125e+003,4.1958974609e+003,4.1825639648e+003,4.1987177734e+003,4.1983334961e+003,4.1838461914e+003,
2.1406250000e+000,4.1675639648e+003,4.1819228516e+003,4.1852563477e+003,4.1685898438e+003,4.1858974609e+003,4.1729487305e+003,4.1891025391e+003,4.2032050781e+003,4.1934614258e+003,4.1961538086e+003,4.1806411133e+003,4.1979487305e+003,4.1944873047e+003,4.1815385742e+003,
2.1484375000e+000,4.1674360352e+003,4.1802563477e+003,4.1858974609e+003,4.1671796875e+003,4.2011538086e+003,4.1842309570e+003,4.1985898438e+003,4.2162822266e+003,4.2006411133e+003,4.2079487305e+003,4.1775639648e+003,4.1973076172e+003,4.1862822266e+003,4.1779487305e+003,
2.1562500000e+000,4.1653847656e+003,4.1803847656e+003,4.1842309570e+003,4.1650000000e+003,4.2064101563e+003,4.1897436523e+003,4.2016665039e+003,4.2192309570e+003,4.2066665039e+003,4.2132050781e+003,4.1773076172e+003,4.1928203125e+003,4.1844873047e+003,4.1751284180e+003,
2.1640625000e+000,4.1546152344e+003,4.1805126953e+003,4.1753847656e+003,4.1535898438e+003,4.1879487305e+003,4.1982050781e+003,4.2010258789e+003,4.2139741211e+003,4.2056411133e+003,4.2039741211e+003,4.1802563477e+003,4.1816665039e+003,4.1850000000e+003,4.1726923828e+003,
2.1718750000e+000,4.1553847656e+003,4.1821796875e+003,4.1746152344e+003,4.1557690430e+003,4.1878203125e+003,4.2000000000e+003,4.2010258789e+003,4.2117949219e+003,4.2000000000e+003,4.2016665039e+003,4.1797436523e+003,4.1843588867e+003,4.1857690430e+003,4.1748715820e+003,
2.1796875000e+000,4.1608974609e+003,4.1774360352e+003,4.1769228516e+003,4.1637177734e+003,4.2032050781e+003,4.2017949219e+003,4.2008974609e+003,4.2014101563e+003,4.1885898438e+003,4.2016665039e+003,4.1797436523e+003,4.1939741211e+003,4.1817949219e+003,4.1741025391e+003,
2.1875000000e+000,4.1623076172e+003,4.1753847656e+003,4.1800000000e+003,4.1615385742e+003,4.2023076172e+003,4.2020512695e+003,4.2006411133e+003,4.1962822266e+003,4.1844873047e+003,4.1984614258e+003,4.1797436523e+003,4.1932050781e+003,4.1814101563e+003,4.1735898438e+003,
2.1953125000e+000,4.1655126953e+003,4.1800000000e+003,4.1825639648e+003,4.1587177734e+003,4.2067949219e+003,4.2053847656e+003,4.1992309570e+003,4.1889741211e+003,4.1761538086e+003,4.1937177734e+003,4.1765385742e+003,4.1908974609e+003,4.1889741211e+003,4.1762822266e+003,
2.2031250000e+000,4.1655126953e+003,4.1833334961e+003,4.1802563477e+003,4.1585898438e+003,4.2121796875e+003,4.2061538086e+003,4.1970512695e+003,4.1850000000e+003,4.1721796875e+003,4.1920512695e+003,4.1744873047e+003,4.1916665039e+003,4.1933334961e+003,4.1783334961e+003,
2.2109375000e+000,4.1641025391e+003,4.1846152344e+003,4.1776923828e+003,4.1582050781e+003,4.2138461914e+003,4.2042309570e+003,4.1934614258e+003,4.1792309570e+003,4.1676923828e+003,4.1898715820e+003,4.1742309570e+003,4.1939741211e+003,4.1941025391e+003,4.1805126953e+003,
2.2187500000e+000,4.1715385742e+003,4.1944873047e+003,4.1957690430e+003,4.1711538086e+003,4.2003847656e+003,4.1850000000e+003,4.1853847656e+003,4.1708974609e+003,4.1785898438e+003,4.2032050781e+003,4.1985898438e+003,4.2091025391e+003,4.1970512695e+003,4.1932050781e+003,
2.2265625000e+000,4.1743588867e+003,4.1943588867e+003,4.1976923828e+003,4.1755126953e+003,4.2048715820e+003,4.1857690430e+003,4.1874360352e+003,4.1770512695e+003,4.1888461914e+003,4.2067949219e+003,4.1982050781e+003,4.2139741211e+003,4.2001284180e+003,4.1950000000e+003,
2.2343750000e+000,4.1687177734e+003,4.1785898438e+003,4.1934614258e+003,4.1721796875e+003,4.1873076172e+003,4.1734614258e+003,4.1780771484e+003,4.1882050781e+003,4.1894873047e+003,4.1962822266e+003,4.1808974609e+003,4.2016665039e+003,4.1794873047e+003,4.1789741211e+003,
2.2421875000e+000,4.1560258789e+003,4.1733334961e+003,4.1812822266e+003,4.1712822266e+003,4.1847436523e+003,4.1760258789e+003,4.1805126953e+003,4.1991025391e+003,4.1824360352e+003,4.1855126953e+003,4.1611538086e+003,4.1819228516e+003,4.1698715820e+003,4.1621796875e+003,
2.2500000000e+000,4.1555126953e+003,4.1730771484e+003,4.1780771484e+003,4.1732050781e+003,4.1925639648e+003,4.1828203125e+003,4.1871796875e+003,4.2053847656e+003,4.1907690430e+003,4.1891025391e+003,4.1594873047e+003,4.1812822266e+003,4.1706411133e+003,4.1625639648e+003,
2.2578125000e+000,4.1502563477e+003,4.1571796875e+003,4.1756411133e+003,4.1592309570e+003,4.1900000000e+003,4.1924360352e+003,4.1997436523e+003,4.2102563477e+003,4.1960258789e+003,4.1906411133e+003,4.1598715820e+003,4.1803847656e+003,4.1589741211e+003,4.1588461914e+003,
2.2656250000e+000,4.1455126953e+003,4.1516665039e+003,4.1717949219e+003,4.1493588867e+003,4.1846152344e+003,4.1934614258e+003,4.1985898438e+003,4.2066665039e+003,4.1900000000e+003,4.1870512695e+003,4.1583334961e+003,4.1766665039e+003,4.1570512695e+003,4.1541025391e+003,
2.2734375000e+000,4.1393588867e+003,4.1508974609e+003,4.1632050781e+003,4.1355126953e+003,4.1860258789e+003,4.2006411133e+003,4.1989741211e+003,4.2011538086e+003,4.1823076172e+003,4.1839741211e+003,4.1551284180e+003,4.1698715820e+003,4.1630771484e+003,4.1455126953e+003,
2.2812500000e+000,4.1392309570e+003,4.1521796875e+003,4.1624360352e+003,4.1323076172e+003,4.1878203125e+003,4.2034614258e+003,4.2017949219e+003,4.2001284180e+003,4.1800000000e+003,4.1834614258e+003,4.1561538086e+003,4.1706411133e+003,4.1639741211e+003,4.1441025391e+003,
2.2890625000e+000,4.1384614258e+003,4.1550000000e+003,4.1597436523e+003,4.1210258789e+003,4.1776923828e+003,4.1969228516e+003,4.1971796875e+003,4.1857690430e+003,4.1683334961e+003,4.1803847656e+003,4.1671796875e+003,4.1743588867e+003,4.1567949219e+003,4.1439741211e+003,
2.2968750000e+000,4.1401284180e+003,4.1610258789e+003,4.1587177734e+003,4.1220512695e+003,4.1821796875e+003,4.1966665039e+003,4.1925639648e+003,4.1778203125e+003,4.1660258789e+003,4.1814101563e+003,4.1683334961e+003,4.1735898438e+003,4.1625639648e+003,4.1460258789e+003,
2.3046875000e+000,4.1580771484e+003,4.1724360352e+003,4.1739741211e+003,4.1415385742e+003,4.1907690430e+003,4.1961538086e+003,4.1865385742e+003,4.1635898438e+003,4.1610258789e+003,4.1820512695e+003,4.1617949219e+003,4.1789741211e+003,4.1801284180e+003,4.1610258789e+003,
2.3125000000e+000,4.1624360352e+003,4.1683334961e+003,4.1793588867e+003,4.1416665039e+003,4.1802563477e+003,4.1911538086e+003,4.1837177734e+003,4.1610258789e+003,4.1598715820e+003,4.1808974609e+003,4.1621796875e+003,4.1820512695e+003,4.1779487305e+003,4.1623076172e+003,
2.3203125000e+000,4.1673076172e+003,4.1660258789e+003,4.1852563477e+003,4.1360258789e+003,4.1710258789e+003,4.1839741211e+003,4.1778203125e+003,4.1578203125e+003,4.1664101563e+003,4.1824360352e+003,4.1675639648e+003,4.1897436523e+003,4.1726923828e+003,4.1653847656e+003,
2.3281250000e+000,4.1702563477e+003,4.1732050781e+003,4.1875639648e+003,4.1371796875e+003,4.1833334961e+003,4.1841025391e+003,4.1771796875e+003,4.1596152344e+003,4.1728203125e+003,4.1857690430e+003,4.1706411133e+003,4.1938461914e+003,4.1750000000e+003,4.1715385742e+003,
2.3359375000e+000,4.1738461914e+003,4.1834614258e+003,4.1893588867e+003,4.1412822266e+003,4.2020512695e+003,4.1850000000e+003,4.1788461914e+003,4.1655126953e+003,4.1793588867e+003,4.1898715820e+003,4.1744873047e+003,4.1969228516e+003,4.1803847656e+003,4.1788461914e+003,
2.3437500000e+000,4.1762822266e+003,4.1906411133e+003,4.1896152344e+003,4.1455126953e+003,4.2158974609e+003,4.1844873047e+003,4.1815385742e+003,4.1741025391e+003,4.1842309570e+003,4.1933334961e+003,4.1785898438e+003,4.1979487305e+003,4.1853847656e+003,4.1828203125e+003,
2.3515625000e+000,4.1591025391e+003,4.1684614258e+003,4.1783334961e+003,4.1346152344e+003,4.1762822266e+003,4.1767949219e+003,4.1828203125e+003,4.1960258789e+003,4.1866665039e+003,4.1887177734e+003,4.1682050781e+003,4.1878203125e+003,4.1700000000e+003,4.1626923828e+003,
2.3593750000e+000,4.1682050781e+003,4.1841025391e+003,4.1857690430e+003,4.1602563477e+003,4.2097436523e+003,4.1947436523e+003,4.1892309570e+003,4.2019228516e+003,4.1997436523e+003,4.1978203125e+003,4.1817949219e+003,4.1826923828e+003,4.1789741211e+003,4.1688461914e+003,
2.3671875000e+000,4.1691025391e+003,4.1850000000e+003,4.1847436523e+003,4.1703847656e+003,4.2064101563e+003,4.1965385742e+003,4.1910258789e+003,4.2033334961e+003,4.1985898438e+003,4.1955126953e+003,4.1752563477e+003,4.1783334961e+003,4.1773076172e+003,4.1632050781e+003,
2.3750000000e+000,4.1612822266e+003,4.1834614258e+003,4.1770512695e+003,4.1753847656e+003,4.1941025391e+003,4.1978203125e+003,4.1926923828e+003,4.1997436523e+003,4.1934614258e+003,4.1882050781e+003,4.1530771484e+003,4.1644873047e+003,4.1697436523e+003,4.1491025391e+003,
2.3828125000e+000,4.1544873047e+003,4.1802563477e+003,4.1730771484e+003,4.1702563477e+003,4.1891025391e+003,4.1973076172e+003,4.1912822266e+003,4.1930771484e+003,4.1879487305e+003,4.1839741211e+003,4.1475639648e+003,4.1600000000e+003,4.1650000000e+003,4.1462822266e+003,
2.3906250000e+000,4.1556411133e+003,4.1741025391e+003,4.1743588867e+003,4.1687177734e+003,4.1923076172e+003,4.1994873047e+003,4.1900000000e+003,4.1808974609e+003,4.1717949219e+003,4.1833334961e+003,4.1706411133e+003,4.1714101563e+003,4.1688461914e+003,4.1583334961e+003,
2.3984375000e+000,4.1665385742e+003,4.1780771484e+003,4.1771796875e+003,4.1729487305e+003,4.1888461914e+003,4.2039741211e+003,4.1916665039e+003,4.1825639648e+003,4.1705126953e+003,4.1814101563e+003,4.1703847656e+003,4.1817949219e+003,4.1734614258e+003,4.1628203125e+003,
2.4062500000e+000,4.1607690430e+003,4.1755126953e+003,4.1758974609e+003,4.1634614258e+003,4.1835898438e+003,4.2010258789e+003,4.1884614258e+003,4.1739741211e+003,4.1680771484e+003,4.1757690430e+003,4.1630771484e+003,4.1788461914e+003,4.1698715820e+003,4.1598715820e+003,
2.4140625000e+000,4.1557690430e+003,4.1766665039e+003,4.1752563477e+003,4.1574360352e+003,4.1925639648e+003,4.1892309570e+003,4.1814101563e+003,4.1592309570e+003,4.1710258789e+003,4.1825639648e+003,4.1675639648e+003,4.1748715820e+003,4.1755126953e+003,4.1611538086e+003,
2.4218750000e+000,4.1642309570e+003,4.1812822266e+003,4.1791025391e+003,4.1619228516e+003,4.1991025391e+003,4.1865385742e+003,4.1794873047e+003,4.1621796875e+003,4.1757690430e+003,4.1888461914e+003,4.1726923828e+003,4.1819228516e+003,4.1776923828e+003,4.1665385742e+003,
2.4296875000e+000,4.1725639648e+003,4.1856411133e+003,4.1835898438e+003,4.1630771484e+003,4.2005126953e+003,4.1847436523e+003,4.1762822266e+003,4.1652563477e+003,4.1815385742e+003,4.1930771484e+003,4.1765385742e+003,4.1905126953e+003,4.1782050781e+003,4.1725639648e+003,
2.4375000000e+000,4.1764101563e+003,4.1884614258e+003,4.1866665039e+003,4.1605126953e+003,4.1948715820e+003,4.1835898438e+003,4.1724360352e+003,4.1675639648e+003,4.1879487305e+003,4.1960258789e+003,4.1798715820e+003,4.1964101563e+003,4.1791025391e+003,4.1776923828e+003,
2.4453125000e+000,4.1698715820e+003,4.1787177734e+003,4.1907690430e+003,4.1719228516e+003,4.1716665039e+003,4.1662822266e+003,4.1734614258e+003,4.1961538086e+003,4.2065385742e+003,4.2074360352e+003,4.1961538086e+003,4.1946152344e+003,4.1942309570e+003,4.1825639648e+003,
2.4531250000e+000,4.1742309570e+003,4.1803847656e+003,4.1947436523e+003,4.1737177734e+003,4.1814101563e+003,4.1653847656e+003,4.1769228516e+003,4.2042309570e+003,4.2066665039e+003,4.2056411133e+003,4.1960258789e+003,4.1971796875e+003,4.1930771484e+003,4.1833334961e+003,
2.4609375000e+000,4.1762822266e+003,4.1837177734e+003,4.1964101563e+003,4.1547436523e+003,4.1950000000e+003,4.1828203125e+003,4.1866665039e+003,4.2053847656e+003,4.1987177734e+003,4.1943588867e+003,4.1853847656e+003,4.1996152344e+003,4.1870512695e+003,4.1824360352e+003,
2.4687500000e+000,4.1615385742e+003,4.1696152344e+003,4.1820512695e+003,4.1556411133e+003,4.1775639648e+003,4.1847436523e+003,4.1833334961e+003,4.2046152344e+003,4.1926923828e+003,4.1939741211e+003,4.1757690430e+003,4.1861538086e+003,4.1789741211e+003,4.1735898438e+003,
2.4765625000e+000,4.1600000000e+003,4.1669228516e+003,4.1810258789e+003,4.1551284180e+003,4.1825639648e+003,4.1882050781e+003,4.1857690430e+003,4.2050000000e+003,4.1923076172e+003,4.1907690430e+003,4.1733334961e+003,4.1819228516e+003,4.1757690430e+003,4.1687177734e+003,
2.4843750000e+000,4.1573076172e+003,4.1592309570e+003,4.1766665039e+003,4.1567949219e+003,4.1983334961e+003,4.2052563477e+003,4.2023076172e+003,4.1937177734e+003,4.1817949219e+003,4.1824360352e+003,4.1691025391e+003,4.1758974609e+003,4.1683334961e+003,4.1582050781e+003,
2.4921875000e+000,4.1528203125e+003,4.1596152344e+003,4.1647436523e+003,4.1458974609e+003,4.1891025391e+003,4.2033334961e+003,4.1915385742e+003,4.1750000000e+003,4.1716665039e+003,4.1798715820e+003,4.1562822266e+003,4.1737177734e+003,4.1562822266e+003,4.1523076172e+003,
2.5000000000e+000,4.1548715820e+003,4.1594873047e+003,4.1684614258e+003,4.1467949219e+003,4.1879487305e+003,4.2016665039e+003,4.1871796875e+003,4.1692309570e+003,4.1703847656e+003,4.1764101563e+003,4.1570512695e+003,4.1737177734e+003,4.1578203125e+003,4.1548715820e+003,
2.5078125000e+000,4.1594873047e+003,4.1603847656e+003,4.1737177734e+003,4.1548715820e+003,4.1893588867e+003,4.2011538086e+003,4.1851284180e+003,4.1638461914e+003,4.1689741211e+003,4.1758974609e+003,4.1624360352e+003,4.1726923828e+003,4.1637177734e+003,4.1597436523e+003,
2.5156250000e+000,4.1725639648e+003,4.1707690430e+003,4.1785898438e+003,4.1762822266e+003,4.1957690430e+003,4.2026923828e+003,4.1851284180e+003,4.1575639648e+003,4.1666665039e+003,4.1880771484e+003,4.1771796875e+003,4.1751284180e+003,4.1817949219e+003,4.1738461914e+003,
2.5234375000e+000,4.1851284180e+003,4.1835898438e+003,4.1829487305e+003,4.1732050781e+003,4.1901284180e+003,4.1976923828e+003,4.1751284180e+003,4.1625639648e+003,4.1830771484e+003,4.2087177734e+003,4.1921796875e+003,4.1944873047e+003,4.1988461914e+003,4.1905126953e+003,
2.5312500000e+000,4.1856411133e+003,4.1825639648e+003,4.1843588867e+003,4.1721796875e+003,4.1883334961e+003,4.1916665039e+003,4.1696152344e+003,4.1670512695e+003,4.1917949219e+003,4.2102563477e+003,4.1946152344e+003,4.1956411133e+003,4.1992309570e+003,4.1900000000e+003,
2.5390625000e+000,4.1842309570e+003,4.1817949219e+003,4.1833334961e+003,4.1748715820e+003,4.1885898438e+003,4.1847436523e+003,4.1657690430e+003,4.1723076172e+003,4.1973076172e+003,4.2098715820e+003,4.1938461914e+003,4.1934614258e+003,4.1967949219e+003,4.1875639648e+003,
2.5468750000e+000,4.1830771484e+003,4.1871796875e+003,4.1803847656e+003,4.1821796875e+003,4.1941025391e+003,4.1779487305e+003,4.1656411133e+003,4.1864101563e+003,4.1979487305e+003,4.2084614258e+003,4.1873076172e+003,4.1906411133e+003,4.1908974609e+003,4.1858974609e+003,
2.5546875000e+000,4.1856411133e+003,4.1902563477e+003,4.1820512695e+003,4.1837177734e+003,4.1974360352e+003,4.1792309570e+003,4.1673076172e+003,4.1944873047e+003,4.1988461914e+003,4.2092309570e+003,4.1867949219e+003,4.1920512695e+003,4.1920512695e+003,4.1867949219e+003,
2.5625000000e+000,4.1891025391e+003,4.1905126953e+003,4.1848715820e+003,4.1842309570e+003,4.1987177734e+003,4.1820512695e+003,4.1683334961e+003,4.2011538086e+003,4.2021796875e+003,4.2105126953e+003,4.1887177734e+003,4.1942309570e+003,4.1955126953e+003,4.1866665039e+003,
2.5703125000e+000,4.1837177734e+003,4.1739741211e+003,4.1819228516e+003,4.1702563477e+003,4.1839741211e+003,4.1841025391e+003,4.1816665039e+003,4.2044873047e+003,4.2030771484e+003,4.2048715820e+003,4.1805126953e+003,4.1924360352e+003,4.1847436523e+003,4.1808974609e+003,
2.5781250000e+000,4.1821796875e+003,4.1721796875e+003,4.1819228516e+003,4.1679487305e+003,4.1857690430e+003,4.1853847656e+003,4.1866665039e+003,4.2065385742e+003,4.2019228516e+003,4.2033334961e+003,4.1825639648e+003,4.1880771484e+003,4.1832050781e+003,4.1793588867e+003,
2.5859375000e+000,4.1741025391e+003,4.1738461914e+003,4.1830771484e+003,4.1626923828e+003,4.1889741211e+003,4.1957690430e+003,4.1889741211e+003,4.2002563477e+003,4.1862822266e+003,4.1905126953e+003,4.1784614258e+003,4.1910258789e+003,4.1723076172e+003,4.1733334961e+003,
2.5937500000e+000,4.1735898438e+003,4.1732050781e+003,4.1820512695e+003,4.1574360352e+003,4.1884614258e+003,4.1987177734e+003,4.1878203125e+003,4.1957690430e+003,4.1779487305e+003,4.1894873047e+003,4.1747436523e+003,4.1925639648e+003,4.1719228516e+003,4.1739741211e+003,
2.6015625000e+000,4.1751284180e+003,4.1650000000e+003,4.1791025391e+003,4.1538461914e+003,4.1870512695e+003,4.1979487305e+003,4.1880771484e+003,4.1848715820e+003,4.1639741211e+003,4.1919228516e+003,4.1761538086e+003,4.1891025391e+003,4.1783334961e+003,4.1747436523e+003,
2.6093750000e+000,4.1776923828e+003,4.1788461914e+003,4.1857690430e+003,4.1717949219e+003,4.1975639648e+003,4.1958974609e+003,4.1825639648e+003,4.1512822266e+003,4.1524360352e+003,4.1857690430e+003,4.1876923828e+003,4.2020512695e+003,4.1788461914e+003,4.1847436523e+003,
2.6171875000e+000,4.1810258789e+003,4.1825639648e+003,4.1883334961e+003,4.1691025391e+003,4.1973076172e+003,4.1987177734e+003,4.1789741211e+003,4.1501284180e+003,4.1553847656e+003,4.1883334961e+003,4.1891025391e+003,4.2050000000e+003,4.1833334961e+003,4.1889741211e+003,
2.6250000000e+000,4.1894873047e+003,4.1810258789e+003,4.1951284180e+003,4.1661538086e+003,4.1960258789e+003,4.1983334961e+003,4.1764101563e+003,4.1597436523e+003,4.1728203125e+003,4.2002563477e+003,4.1964101563e+003,4.2066665039e+003,4.1983334961e+003,4.1953847656e+003,
2.6328125000e+000,4.1903847656e+003,4.1820512695e+003,4.1970512695e+003,4.1684614258e+003,4.1980771484e+003,4.1948715820e+003,4.1757690430e+003,4.1661538086e+003,4.1837177734e+003,4.2074360352e+003,4.2017949219e+003,4.2071796875e+003,4.2035898438e+003,4.1962822266e+003,
2.6406250000e+000,4.1825639648e+003,4.1832050781e+003,4.1952563477e+003,4.1700000000e+003,4.1947436523e+003,4.1865385742e+003,4.1729487305e+003,4.1817949219e+003,4.1962822266e+003,4.2119228516e+003,4.2000000000e+003,4.2134614258e+003,4.1960258789e+003,4.1965385742e+003,
2.6484375000e+000,4.1843588867e+003,4.1771796875e+003,4.1961538086e+003,4.1694873047e+003,4.1906411133e+003,4.1860258789e+003,4.1755126953e+003,4.1885898438e+003,4.1982050781e+003,4.2100000000e+003,4.1943588867e+003,4.2148715820e+003,4.1930771484e+003,4.1973076172e+003,
2.6562500000e+000,4.1891025391e+003,4.1753847656e+003,4.1984614258e+003,4.1780771484e+003,4.1920512695e+003,4.1889741211e+003,4.1834614258e+003,4.2058974609e+003,4.2088461914e+003,4.2156411133e+003,4.1941025391e+003,4.2110258789e+003,4.1989741211e+003,4.1956411133e+003,
2.6640625000e+000,4.1882050781e+003,4.1824360352e+003,4.1976923828e+003,4.1850000000e+003,4.1969228516e+003,4.1924360352e+003,4.1864101563e+003,4.2133334961e+003,4.2144873047e+003,4.2210258789e+003,4.1993588867e+003,4.2078203125e+003,4.2044873047e+003,4.1943588867e+003,
2.6718750000e+000,4.1853847656e+003,4.1930771484e+003,4.1912822266e+003,4.1837177734e+003,4.2071796875e+003,4.2039741211e+003,4.1897436523e+003,4.2201284180e+003,4.2143588867e+003,4.2197436523e+003,4.2021796875e+003,4.2037177734e+003,4.2014101563e+003,4.1919228516e+003,
2.6796875000e+000,4.1846152344e+003,4.1878203125e+003,4.1871796875e+003,4.1779487305e+003,4.2038461914e+003,4.2052563477e+003,4.1920512695e+003,4.2178203125e+003,4.2106411133e+003,4.2151284180e+003,4.1957690430e+003,4.2005126953e+003,4.1953847656e+003,4.1870512695e+003,
2.6875000000e+000,4.1821796875e+003,4.1811538086e+003,4.1823076172e+003,4.1741025391e+003,4.1985898438e+003,4.2056411133e+003,4.1950000000e+003,4.2133334961e+003,4.2066665039e+003,4.2112822266e+003,4.1893588867e+003,4.1961538086e+003,4.1914101563e+003,4.1808974609e+003,
2.6953125000e+000,4.1653847656e+003,4.1643588867e+003,4.1698715820e+003,4.1673076172e+003,4.1992309570e+003,4.2079487305e+003,4.1862822266e+003,4.1885898438e+003,4.1757690430e+003,4.1935898438e+003,4.1779487305e+003,4.1834614258e+003,4.1902563477e+003,4.1726923828e+003,
2.7031250000e+000,4.1658974609e+003,4.1610258789e+003,4.1725639648e+003,4.1641025391e+003,4.1961538086e+003,4.2051284180e+003,4.1856411133e+003,4.1820512695e+003,4.1678203125e+003,4.1871796875e+003,4.1750000000e+003,4.1837177734e+003,4.1876923828e+003,4.1732050781e+003,
2.7109375000e+000,4.1830771484e+003,4.1805126953e+003,4.1829487305e+003,4.1737177734e+003,4.2043588867e+003,4.2021796875e+003,4.1825639648e+003,4.1620512695e+003,4.1588461914e+003,4.1935898438e+003,4.1883334961e+003,4.2014101563e+003,4.2088461914e+003,4.1837177734e+003,
2.7187500000e+000,4.1997436523e+003,4.1970512695e+003,4.1950000000e+003,4.1865385742e+003,4.2120512695e+003,4.1971796875e+003,4.1782050781e+003,4.1619228516e+003,4.1574360352e+003,4.1984614258e+003,4.1955126953e+003,4.2196152344e+003,4.2150000000e+003,4.1941025391e+003,
2.7265625000e+000,4.2034614258e+003,4.1997436523e+003,4.1985898438e+003,4.1891025391e+003,4.2097436523e+003,4.1965385742e+003,4.1791025391e+003,4.1648715820e+003,4.1656411133e+003,4.2025639648e+003,4.1992309570e+003,4.2238461914e+003,4.2187177734e+003,4.2008974609e+003,
2.7343750000e+000,4.2008974609e+003,4.1953847656e+003,4.1980771484e+003,4.1815385742e+003,4.1992309570e+003,4.1978203125e+003,4.1756411133e+003,4.1851284180e+003,4.2088461914e+003,4.2260258789e+003,4.2153847656e+003,4.2252563477e+003,4.2333334961e+003,4.2058974609e+003,
2.7421875000e+000,4.1967949219e+003,4.1916665039e+003,4.1975639648e+003,4.1787177734e+003,4.1971796875e+003,4.1969228516e+003,4.1738461914e+003,4.1943588867e+003,4.2162822266e+003,4.2266665039e+003,4.2124360352e+003,4.2230771484e+003,4.2291025391e+003,4.2002563477e+003,
2.7500000000e+000,4.1934614258e+003,4.1906411133e+003,4.1939741211e+003,4.1816665039e+003,4.1973076172e+003,4.1985898438e+003,4.1785898438e+003,4.2066665039e+003,4.2161538086e+003,4.2196152344e+003,4.1983334961e+003,4.2155126953e+003,4.2170512695e+003,4.1917949219e+003,
2.7578125000e+000,4.1917949219e+003,4.1897436523e+003,4.1892309570e+003,4.1830771484e+003,4.1971796875e+003,4.2008974609e+003,4.1829487305e+003,4.2070512695e+003,4.2117949219e+003,4.2148715820e+003,4.1906411133e+003,4.2108974609e+003,4.2121796875e+003,4.1889741211e+003,
2.7656250000e+000,4.1721796875e+003,4.1689741211e+003,4.1741025391e+003,4.1735898438e+003,4.1906411133e+003,4.2010258789e+003,4.1815385742e+003,4.2034614258e+003,4.1992309570e+003,4.1971796875e+003,4.1724360352e+003,4.1953847656e+003,4.1892309570e+003,4.1685898438e+003,
2.7734375000e+000,4.1673076172e+003,4.1630771484e+003,4.1706411133e+003,4.1751284180e+003,4.1911538086e+003,4.2003847656e+003,4.1802563477e+003,4.2042309570e+003,4.1982050781e+003,4.1935898438e+003,4.1703847656e+003,4.1888461914e+003,4.1819228516e+003,4.1600000000e+003,
2.7812500000e+000,4.1650000000e+003,4.1617949219e+003,4.1657690430e+003,4.1894873047e+003,4.1958974609e+003,4.2023076172e+003,4.1856411133e+003,4.2034614258e+003,4.1987177734e+003,4.1906411133e+003,4.1664101563e+003,4.1815385742e+003,4.1737177734e+003,4.1529487305e+003,
2.7890625000e+000,4.1642309570e+003,4.1628203125e+003,4.1633334961e+003,4.1943588867e+003,4.1965385742e+003,4.2032050781e+003,4.1897436523e+003,4.2020512695e+003,4.1987177734e+003,4.1901284180e+003,4.1620512695e+003,4.1812822266e+003,4.1716665039e+003,4.1533334961e+003,
2.7968750000e+000,4.1664101563e+003,4.1706411133e+003,4.1637177734e+003,4.1830771484e+003,4.1973076172e+003,4.2023076172e+003,4.1929487305e+003,4.2044873047e+003,4.1930771484e+003,4.1925639648e+003,4.1610258789e+003,4.1848715820e+003,4.1820512695e+003,4.1589741211e+003,
2.8046875000e+000,4.1725639648e+003,4.1750000000e+003,4.1702563477e+003,4.1828203125e+003,4.1983334961e+003,4.2026923828e+003,4.1919228516e+003,4.2039741211e+003,4.1888461914e+003,4.1924360352e+003,4.1683334961e+003,4.1896152344e+003,4.1892309570e+003,4.1652563477e+003,
2.8125000000e+000,4.1798715820e+003,4.1775639648e+003,4.1785898438e+003,4.1883334961e+003,4.1971796875e+003,4.2028203125e+003,4.1905126953e+003,4.1996152344e+003,4.1826923828e+003,4.1908974609e+003,4.1767949219e+003,4.1956411133e+003,4.1943588867e+003,4.1733334961e+003,
2.8203125000e+000,4.1862822266e+003,4.1778203125e+003,4.1860258789e+003,4.1975639648e+003,4.1934614258e+003,4.2015385742e+003,4.1892309570e+003,4.1920512695e+003,4.1753847656e+003,4.1891025391e+003,4.1837177734e+003,4.2017949219e+003,4.1967949219e+003,4.1810258789e+003,
2.8281250000e+000,4.2003847656e+003,4.1888461914e+003,4.2057690430e+003,4.2269228516e+003,4.1943588867e+003,4.1843588867e+003,4.1784614258e+003,4.1620512695e+003,4.1494873047e+003,4.1834614258e+003,4.1973076172e+003,4.2238461914e+003,4.2065385742e+003,4.2019228516e+003,
2.8359375000e+000,4.2043588867e+003,4.1966665039e+003,4.2089741211e+003,4.2303847656e+003,4.1982050781e+003,4.1830771484e+003,4.1723076172e+003,4.1565385742e+003,4.1450000000e+003,4.1821796875e+003,4.2007690430e+003,4.2251284180e+003,4.2112822266e+003,4.2066665039e+003,
2.8437500000e+000,4.2098715820e+003,4.1965385742e+003,4.2125639648e+003,4.2320512695e+003,4.1974360352e+003,4.1817949219e+003,4.1657690430e+003,4.1469228516e+003,4.1465385742e+003,4.1808974609e+003,4.1898715820e+003,4.2198715820e+003,4.2080771484e+003,4.2041025391e+003,
2.8515625000e+000,4.2053847656e+003,4.1916665039e+003,4.2126923828e+003,4.2316665039e+003,4.1969228516e+003,4.1778203125e+003,4.1652563477e+003,4.1612822266e+003,4.1701284180e+003,4.1915385742e+003,4.1970512695e+003,4.2250000000e+003,4.2080771484e+003,4.1996152344e+003,
2.8593750000e+000,4.2012822266e+003,4.1960258789e+003,4.2088461914e+003,4.2311538086e+003,4.1955126953e+003,4.1793588867e+003,4.1657690430e+003,4.1752563477e+003,4.1823076172e+003,4.1983334961e+003,4.2020512695e+003,4.2228203125e+003,4.2111538086e+003,4.2003847656e+003,
2.8671875000e+000,4.1941025391e+003,4.1910258789e+003,4.2056411133e+003,4.2230771484e+003,4.1991025391e+003,4.1928203125e+003,4.1783334961e+003,4.2061538086e+003,4.2126923828e+003,4.2139741211e+003,4.1987177734e+003,4.2173076172e+003,4.2032050781e+003,4.1970512695e+003,
2.8750000000e+000,4.1814101563e+003,4.1801284180e+003,4.1856411133e+003,4.2180771484e+003,4.2035898438e+003,4.2057690430e+003,4.1896152344e+003,4.2111538086e+003,4.2197436523e+003,4.2125639648e+003,4.1948715820e+003,4.2033334961e+003,4.1933334961e+003,4.1775639648e+003,
2.8828125000e+000,4.1714101563e+003,4.1720512695e+003,4.1757690430e+003,4.2132050781e+003,4.1957690430e+003,4.2079487305e+003,4.1926923828e+003,4.2139741211e+003,4.2164101563e+003,4.2078203125e+003,4.1844873047e+003,4.1939741211e+003,4.1902563477e+003,4.1712822266e+003,
2.8906250000e+000,4.1583334961e+003,4.1610258789e+003,4.1661538086e+003,4.1994873047e+003,4.1956411133e+003,4.2161538086e+003,4.2029487305e+003,4.2161538086e+003,4.2120512695e+003,4.2000000000e+003,4.1670512695e+003,4.1765385742e+003,4.1805126953e+003,4.1641025391e+003,
2.8984375000e+000,4.1579487305e+003,4.1626923828e+003,4.1653847656e+003,4.2023076172e+003,4.1984614258e+003,4.2192309570e+003,4.2048715820e+003,4.2120512695e+003,4.2098715820e+003,4.1966665039e+003,4.1714101563e+003,4.1758974609e+003,4.1746152344e+003,4.1611538086e+003,
2.9062500000e+000,4.1552563477e+003,4.1626923828e+003,4.1610258789e+003,4.2042309570e+003,4.1897436523e+003,4.2166665039e+003,4.2037177734e+003,4.2003847656e+003,4.1941025391e+003,4.1833334961e+003,4.1703847656e+003,4.1728203125e+003,4.1658974609e+003,4.1535898438e+003,
2.9140625000e+000,4.1564101563e+003,4.1607690430e+003,4.1607690430e+003,4.1980771484e+003,4.1862822266e+003,4.2108974609e+003,4.2012822266e+003,4.1943588867e+003,4.1839741211e+003,4.1784614258e+003,4.1638461914e+003,4.1698715820e+003,4.1675639648e+003,4.1521796875e+003,
2.9218750000e+000,4.1779487305e+003,4.1701284180e+003,4.1797436523e+003,4.1901284180e+003,4.2071796875e+003,4.2006411133e+003,4.1961538086e+003,4.1830771484e+003,4.1712822266e+003,4.1834614258e+003,4.1710258789e+003,4.1819228516e+003,4.1879487305e+003,4.1684614258e+003,
2.9296875000e+000,4.1850000000e+003,4.1788461914e+003,4.1842309570e+003,4.1969228516e+003,4.2115385742e+003,4.2010258789e+003,4.1939741211e+003,4.1812822266e+003,4.1739741211e+003,4.1865385742e+003,4.1805126953e+003,4.1917949219e+003,4.1947436523e+003,4.1769228516e+003,
2.9375000000e+000,4.1887177734e+003,4.1858974609e+003,4.1841025391e+003,4.2020512695e+003,4.2101284180e+003,4.2016665039e+003,4.1906411133e+003,4.1794873047e+003,4.1773076172e+003,4.1896152344e+003,4.1860258789e+003,4.1988461914e+003,4.2002563477e+003,4.1829487305e+003,
2.9453125000e+000,4.1889741211e+003,4.1889741211e+003,4.1817949219e+003,4.2007690430e+003,4.2058974609e+003,4.2014101563e+003,4.1867949219e+003,4.1771796875e+003,4.1791025391e+003,4.1935898438e+003,4.1876923828e+003,4.2020512695e+003,4.2033334961e+003,4.1861538086e+003,
2.9531250000e+000,4.1930771484e+003,4.1865385742e+003,4.2014101563e+003,4.1876923828e+003,4.2028203125e+003,4.1923076172e+003,4.1810258789e+003,4.1769228516e+003,4.1850000000e+003,4.2091025391e+003,4.2076923828e+003,4.2115385742e+003,4.2037177734e+003,4.1951284180e+003,
2.9609375000e+000,4.1925639648e+003,4.1896152344e+003,4.1907690430e+003,4.1961538086e+003,4.2010258789e+003,4.2037177734e+003,4.1871796875e+003,4.2046152344e+003,4.2129487305e+003,4.2171796875e+003,4.1993588867e+003,4.2137177734e+003,4.2139741211e+003,4.1947436523e+003,
2.9687500000e+000,4.1920512695e+003,4.1926923828e+003,4.1915385742e+003,4.1900000000e+003,4.2062822266e+003,4.2062822266e+003,4.1932050781e+003,4.2105126953e+003,4.2137177734e+003,4.2191025391e+003,4.1993588867e+003,4.2139741211e+003,4.2129487305e+003,4.1962822266e+003,
2.9765625000e+000,4.1910258789e+003,4.1902563477e+003,4.1948715820e+003,4.1832050781e+003,4.2088461914e+003,4.2110258789e+003,4.2011538086e+003,4.2152563477e+003,4.2126923828e+003,4.2166665039e+003,4.2028203125e+003,4.2084614258e+003,4.2050000000e+003,4.1903847656e+003,
2.9843750000e+000,4.1720512695e+003,4.1637177734e+003,4.1742309570e+003,4.1693588867e+003,4.1978203125e+003,4.2125639648e+003,4.1967949219e+003,4.2098715820e+003,4.1967949219e+003,4.1919228516e+003,4.1688461914e+003,4.1773076172e+003,4.1788461914e+003,4.1600000000e+003,
2.9921875000e+000,4.1678203125e+003,4.1630771484e+003,4.1684614258e+003,4.1646152344e+003,4.1987177734e+003,4.2112822266e+003,4.1948715820e+003,4.2052563477e+003,4.1892309570e+003,4.1838461914e+003,4.1629487305e+003,4.1685898438e+003,4.1701284180e+003,4.1529487305e+003,
3.0000000000e+000,4.1621796875e+003,4.1642309570e+003,4.1603847656e+003,4.1611538086e+003,4.1943588867e+003,4.2069228516e+003,4.1896152344e+003,4.1903847656e+003,4.1743588867e+003,4.1694873047e+003,4.1611538086e+003,4.1594873047e+003,4.1546152344e+003,4.1424360352e+003,
3.0078125000e+000,4.1587177734e+003,4.1644873047e+003,4.1575639648e+003,4.1653847656e+003,4.1912822266e+003,4.2050000000e+003,4.1870512695e+003,4.1839741211e+003,4.1708974609e+003,4.1670512695e+003,4.1594873047e+003,4.1584614258e+003,4.1519228516e+003,4.1402563477e+003,
3.0156250000e+000,4.1621796875e+003,4.1747436523e+003,4.1633334961e+003,4.1820512695e+003,4.1984614258e+003,4.2055126953e+003,4.1870512695e+003,4.1816665039e+003,4.1756411133e+003,4.1806411133e+003,4.1589741211e+003,4.1689741211e+003,4.1737177734e+003,4.1570512695e+003,
3.0234375000e+000,4.1721796875e+003,4.1775639648e+003,4.1705126953e+003,4.1823076172e+003,4.2020512695e+003,4.2066665039e+003,4.1874360352e+003,4.1835898438e+003,4.1766665039e+003,4.1862822266e+003,4.1687177734e+003,4.1764101563e+003,4.1839741211e+003,4.1674360352e+003,
3.0312500000e+000,4.1906411133e+003,4.1779487305e+003,4.1833334961e+003,4.1785898438e+003,4.2014101563e+003,4.2051284180e+003,4.1830771484e+003,4.1857690430e+003,4.1807690430e+003,4.1941025391e+003,4.1915385742e+003,4.1888461914e+003,4.1975639648e+003,4.1798715820e+003,
3.0390625000e+000,4.1937177734e+003,4.1792309570e+003,4.1864101563e+003,4.1780771484e+003,4.1976923828e+003,4.2024360352e+003,4.1792309570e+003,4.1850000000e+003,4.1837177734e+003,4.1961538086e+003,4.1950000000e+003,4.1934614258e+003,4.2005126953e+003,4.1814101563e+003,
3.0468750000e+000,4.1978203125e+003,4.1961538086e+003,4.1933334961e+003,4.1811538086e+003,4.1973076172e+003,4.1987177734e+003,4.1707690430e+003,4.1802563477e+003,4.1894873047e+003,4.2051284180e+003,4.1966665039e+003,4.2080771484e+003,4.2082050781e+003,4.1905126953e+003,
3.0546875000e+000,4.2007690430e+003,4.2007690430e+003,4.1956411133e+003,4.1773076172e+003,4.2025639648e+003,4.2002563477e+003,4.1705126953e+003,4.1806411133e+003,4.1933334961e+003,4.2102563477e+003,4.2061538086e+003,4.2117949219e+003,4.2130771484e+003,4.1960258789e+003,
3.0625000000e+000,4.2014101563e+003,4.2006411133e+003,4.1964101563e+003,4.1691025391e+003,4.2044873047e+003,4.2011538086e+003,4.1706411133e+003,4.1811538086e+003,4.1966665039e+003,4.2132050781e+003,4.2147436523e+003,4.2138461914e+003,4.2160258789e+003,4.1996152344e+003,
3.0703125000e+000,4.1988461914e+003,4.1953847656e+003,4.1957690430e+003,4.1588461914e+003,4.2000000000e+003,4.2000000000e+003,4.1698715820e+003,4.1808974609e+003,4.1975639648e+003,4.2117949219e+003,4.2167949219e+003,4.2137177734e+003,4.2155126953e+003,4.2000000000e+003,
3.0781250000e+000,4.1987177734e+003,4.1844873047e+003,4.1971796875e+003,4.1620512695e+003,4.1933334961e+003,4.2007690430e+003,4.1753847656e+003,4.1975639648e+003,4.1993588867e+003,4.2071796875e+003,4.2050000000e+003,4.2066665039e+003,4.2055126953e+003,4.1935898438e+003,
3.0859375000e+000,4.2008974609e+003,4.1898715820e+003,4.1982050781e+003,4.1673076172e+003,4.2011538086e+003,4.2057690430e+003,4.1832050781e+003,4.2062822266e+003,4.2034614258e+003,4.2097436523e+003,4.2029487305e+003,4.2062822266e+003,4.2047436523e+003,4.1925639648e+003,
3.0937500000e+000,4.1884614258e+003,4.1852563477e+003,4.1858974609e+003,4.1528203125e+003,4.1997436523e+003,4.2157690430e+003,4.1947436523e+003,4.2106411133e+003,4.2021796875e+003,4.2006411133e+003,4.1808974609e+003,4.1969228516e+003,4.1967949219e+003,4.1776923828e+003,
3.1015625000e+000,4.1765385742e+003,4.1665385742e+003,4.1780771484e+003,4.1373076172e+003,4.1923076172e+003,4.2167949219e+003,4.1891025391e+003,4.1951284180e+003,4.1861538086e+003,4.1857690430e+003,4.1803847656e+003,4.1792309570e+003,4.1770512695e+003,4.1642309570e+003,
3.1093750000e+000,4.1747436523e+003,4.1626923828e+003,4.1788461914e+003,4.1350000000e+003,4.1914101563e+003,4.2164101563e+003,4.1875639648e+003,4.1907690430e+003,4.1800000000e+003,4.1812822266e+003,4.1788461914e+003,4.1753847656e+003,4.1744873047e+003,4.1625639648e+003,
3.1171875000e+000,4.1735898438e+003,4.1647436523e+003,4.1758974609e+003,4.1316665039e+003,4.1987177734e+003,4.2169228516e+003,4.1862822266e+003,4.1837177734e+003,4.1678203125e+003,4.1793588867e+003,4.1733334961e+003,4.1760258789e+003,4.1776923828e+003,4.1612822266e+003,
3.1250000000e+000,4.1891025391e+003,4.1787177734e+003,4.1871796875e+003,4.1447436523e+003,4.2007690430e+003,4.2082050781e+003,4.1857690430e+003,4.1758974609e+003,4.1734614258e+003,4.1874360352e+003,4.1834614258e+003,4.1956411133e+003,4.1838461914e+003,4.1792309570e+003,
3.1328125000e+000,4.1928203125e+003,4.1806411133e+003,4.1892309570e+003,4.1519228516e+003,4.1966665039e+003,4.2046152344e+003,4.1834614258e+003,4.1765385742e+003,4.1762822266e+003,4.1908974609e+003,4.1860258789e+003,4.2000000000e+003,4.1893588867e+003,4.1843588867e+003,
3.1406250000e+000,4.2006411133e+003,4.1773076172e+003,4.2017949219e+003,4.1734614258e+003,4.1939741211e+003,4.2026923828e+003,4.1825639648e+003,4.1891025391e+003,4.1933334961e+003,4.2084614258e+003,4.1978203125e+003,4.2146152344e+003,4.2041025391e+003,4.1956411133e+003,
3.1484375000e+000,4.2047436523e+003,4.1784614258e+003,4.2091025391e+003,4.1737177734e+003,4.1948715820e+003,4.2028203125e+003,4.1830771484e+003,4.1929487305e+003,4.2033334961e+003,4.2165385742e+003,4.2055126953e+003,4.2185898438e+003,4.2053847656e+003,4.1973076172e+003,
3.1562500000e+000,4.2101284180e+003,4.1805126953e+003,4.2175639648e+003,4.1685898438e+003,4.1919228516e+003,4.1992309570e+003,4.1789741211e+003,4.1966665039e+003,4.2147436523e+003,4.2242309570e+003,4.2164101563e+003,4.2200000000e+003,4.2085898438e+003,4.2003847656e+003,
3.1640625000e+000,4.2092309570e+003,4.1805126953e+003,4.2171796875e+003,4.1683334961e+003,4.1910258789e+003,4.1978203125e+003,4.1752563477e+003,4.1969228516e+003,4.2125639648e+003,4.2229487305e+003,4.2173076172e+003,4.2193588867e+003,4.2103847656e+003,4.2041025391e+003,
3.1718750000e+000,4.1935898438e+003,4.1782050781e+003,4.2000000000e+003,4.1605126953e+003,4.1900000000e+003,4.1985898438e+003,4.1678203125e+003,4.1891025391e+003,4.1926923828e+003,4.2121796875e+003,4.2043588867e+003,4.2064101563e+003,4.2014101563e+003,4.1996152344e+003,
3.1796875000e+000,4.1871796875e+003,4.1723076172e+003,4.1928203125e+003,4.1517949219e+003,4.1860258789e+003,4.1992309570e+003,4.1693588867e+003,4.1846152344e+003,4.1864101563e+003,4.2047436523e+003,4.1974360352e+003,4.1997436523e+003,4.1943588867e+003,4.1903847656e+003,
3.1875000000e+000,4.1821796875e+003,4.1648715820e+003,4.1867949219e+003,4.1433334961e+003,4.1835898438e+003,4.2008974609e+003,4.1730771484e+003,4.1820512695e+003,4.1815385742e+003,4.1969228516e+003,4.1915385742e+003,4.1947436523e+003,4.1880771484e+003,4.1823076172e+003,
3.1953125000e+000,4.1787177734e+003,4.1591025391e+003,4.1816665039e+003,4.1374360352e+003,4.1857690430e+003,4.2042309570e+003,4.1779487305e+003,4.1828203125e+003,4.1788461914e+003,4.1916665039e+003,4.1874360352e+003,4.1910258789e+003,4.1844873047e+003,4.1779487305e+003,
3.2031250000e+000,4.1671796875e+003,4.1648715820e+003,4.1707690430e+003,4.1402563477e+003,4.1987177734e+003,4.2211538086e+003,4.1917949219e+003,4.1992309570e+003,4.1903847656e+003,4.1942309570e+003,4.1775639648e+003,4.1794873047e+003,4.1787177734e+003,4.1739741211e+003,
3.2109375000e+000,4.1665385742e+003,4.1670512695e+003,4.1730771484e+003,4.1373076172e+003,4.1971796875e+003,4.2215385742e+003,4.1957690430e+003,4.1997436523e+003,4.1911538086e+003,4.1926923828e+003,4.1744873047e+003,4.1784614258e+003,4.1744873047e+003,4.1708974609e+003,
3.2187500000e+000,4.1776923828e+003,4.1678203125e+003,4.1850000000e+003,4.1282050781e+003,4.2033334961e+003,4.2211538086e+003,4.2019228516e+003,4.1943588867e+003,4.1784614258e+003,4.1921796875e+003,4.1755126953e+003,4.1801284180e+003,4.1788461914e+003,4.1670512695e+003,
3.2265625000e+000,4.1861538086e+003,4.1812822266e+003,4.1891025391e+003,4.1360258789e+003,4.1885898438e+003,4.2125639648e+003,4.1832050781e+003,4.1717949219e+003,4.1588461914e+003,4.1765385742e+003,4.1761538086e+003,4.1879487305e+003,4.1789741211e+003,4.1767949219e+003,
3.2343750000e+000,4.1910258789e+003,4.1897436523e+003,4.1920512695e+003,4.1376923828e+003,4.1878203125e+003,4.2067949219e+003,4.1785898438e+003,4.1680771484e+003,4.1570512695e+003,4.1757690430e+003,4.1792309570e+003,4.1908974609e+003,4.1791025391e+003,4.1807690430e+003,
3.2421875000e+000,4.2178203125e+003,4.2071796875e+003,4.2093588867e+003,4.1578203125e+003,4.2044873047e+003,4.1983334961e+003,4.1741025391e+003,4.1760258789e+003,4.1710258789e+003,4.1998715820e+003,4.1993588867e+003,4.2133334961e+003,4.2014101563e+003,4.2020512695e+003,
3.2500000000e+000,4.2207690430e+003,4.2091025391e+003,4.2137177734e+003,4.1576923828e+003,4.2010258789e+003,4.1952563477e+003,4.1670512695e+003,4.1720512695e+003,4.1819228516e+003,4.2057690430e+003,4.2137177734e+003,4.2233334961e+003,4.2121796875e+003,4.2143588867e+003,
3.2578125000e+000,4.2164101563e+003,4.2102563477e+003,4.2130771484e+003,4.1591025391e+003,4.2014101563e+003,4.1951284180e+003,4.1658974609e+003,4.1720512695e+003,4.1825639648e+003,4.2039741211e+003,4.2139741211e+003,4.2205126953e+003,4.2088461914e+003,4.2087177734e+003,
3.2656250000e+000,4.2088461914e+003,4.2097436523e+003,4.2082050781e+003,4.1815385742e+003,4.2114101563e+003,4.2001284180e+003,4.1655126953e+003,4.1830771484e+003,4.1937177734e+003,4.2098715820e+003,4.2066665039e+003,4.2052563477e+003,4.2020512695e+003,4.1921796875e+003,
3.2734375000e+000,4.2008974609e+003,4.2003847656e+003,4.2006411133e+003,4.1765385742e+003,4.2061538086e+003,4.2021796875e+003,4.1647436523e+003,4.1834614258e+003,4.1925639648e+003,4.2057690430e+003,4.1985898438e+003,4.1957690430e+003,4.1915385742e+003,4.1865385742e+003,
3.2812500000e+000,4.1776923828e+003,4.1758974609e+003,4.1817949219e+003,4.1526923828e+003,4.1920512695e+003,4.2060258789e+003,4.1671796875e+003,4.1771796875e+003,4.1789741211e+003,4.1865385742e+003,4.1765385742e+003,4.1738461914e+003,4.1657690430e+003,4.1682050781e+003,
3.2890625000e+000,4.1702563477e+003,4.1721796875e+003,4.1755126953e+003,4.1479487305e+003,4.1938461914e+003,4.2100000000e+003,4.1719228516e+003,4.1769228516e+003,4.1765385742e+003,4.1821796875e+003,4.1685898438e+003,4.1653847656e+003,4.1625639648e+003,4.1592309570e+003,
3.2968750000e+000,4.1674360352e+003,4.1757690430e+003,4.1720512695e+003,4.1493588867e+003,4.2017949219e+003,4.2157690430e+003,4.1778203125e+003,4.1806411133e+003,4.1805126953e+003,4.1847436523e+003,4.1635898438e+003,4.1598715820e+003,4.1671796875e+003,4.1534614258e+003,
3.3046875000e+000,4.1666665039e+003,4.1837177734e+003,4.1684614258e+003,4.1496152344e+003,4.2141025391e+003,4.2265385742e+003,4.1876923828e+003,4.1892309570e+003,4.1924360352e+003,4.1917949219e+003,4.1561538086e+003,4.1533334961e+003,4.1742309570e+003,4.1519228516e+003,
3.3125000000e+000,4.1662822266e+003,4.1812822266e+003,4.1657690430e+003,4.1437177734e+003,4.2129487305e+003,4.2289741211e+003,4.1917949219e+003,4.1900000000e+003,4.1935898438e+003,4.1898715820e+003,4.1548715820e+003,4.1515385742e+003,4.1700000000e+003,4.1530771484e+003,
3.3203125000e+000,4.1670512695e+003,4.1782050781e+003,4.1626923828e+003,4.1380771484e+003,4.2111538086e+003,4.2306411133e+003,4.1958974609e+003,4.1897436523e+003,4.1924360352e+003,4.1871796875e+003,4.1583334961e+003,4.1519228516e+003,4.1653847656e+003,4.1543588867e+003,
3.3281250000e+000,4.1733334961e+003,4.1757690430e+003,4.1774360352e+003,4.1391025391e+003,4.1983334961e+003,4.2226923828e+003,4.1893588867e+003,4.1805126953e+003,4.1762822266e+003,4.1861538086e+003,4.1829487305e+003,4.1771796875e+003,4.1921796875e+003,4.1747436523e+003,
3.3359375000e+000,4.1752563477e+003,4.1716665039e+003,4.1819228516e+003,4.1362822266e+003,4.1902563477e+003,4.2148715820e+003,4.1842309570e+003,4.1748715820e+003,4.1696152344e+003,4.1797436523e+003,4.1802563477e+003,4.1805126953e+003,4.1907690430e+003,4.1758974609e+003,
3.3437500000e+000,4.1937177734e+003,4.1900000000e+003,4.1925639648e+003,4.1478203125e+003,4.1979487305e+003,4.2003847656e+003,4.1855126953e+003,4.1760258789e+003,4.1719228516e+003,4.1928203125e+003,4.1970512695e+003,4.2083334961e+003,4.2055126953e+003,4.1882050781e+003,
3.3515625000e+000,4.1929487305e+003,4.1957690430e+003,4.1920512695e+003,4.1478203125e+003,4.1971796875e+003,4.1934614258e+003,4.1791025391e+003,4.1887177734e+003,4.1946152344e+003,4.2082050781e+003,4.2102563477e+003,4.2120512695e+003,4.2216665039e+003,4.2007690430e+003,
3.3593750000e+000,4.1911538086e+003,4.1874360352e+003,4.1896152344e+003,4.1410258789e+003,4.1914101563e+003,4.1937177734e+003,4.1746152344e+003,4.1879487305e+003,4.1971796875e+003,4.2043588867e+003,4.2042309570e+003,4.2064101563e+003,4.2161538086e+003,4.1976923828e+003,
3.3671875000e+000,4.1898715820e+003,4.1837177734e+003,4.1862822266e+003,4.1373076172e+003,4.1919228516e+003,4.1976923828e+003,4.1671796875e+003,4.1870512695e+003,4.1953847656e+003,4.1970512695e+003,4.1879487305e+003,4.1998715820e+003,4.2058974609e+003,4.1862822266e+003,
3.3750000000e+000,4.1847436523e+003,4.1921796875e+003,4.1810258789e+003,4.1394873047e+003,4.1955126953e+003,4.2065385742e+003,4.1694873047e+003,4.1974360352e+003,4.2007690430e+003,4.1950000000e+003,4.1942309570e+003,4.1953847656e+003,4.2128203125e+003,4.1861538086e+003,
3.3828125000e+000,4.1826923828e+003,4.1864101563e+003,4.1815385742e+003,4.1400000000e+003,4.1939741211e+003,4.2123076172e+003,4.1730771484e+003,4.1997436523e+003,4.2019228516e+003,4.1925639648e+003,4.1916665039e+003,4.1948715820e+003,4.2083334961e+003,4.1862822266e+003,
3.3906250000e+000,4.1806411133e+003,4.1828203125e+003,4.1807690430e+003,4.1433334961e+003,4.1953847656e+003,4.2171796875e+003,4.1770512695e+003,4.2010258789e+003,4.2030771484e+003,4.1911538086e+003,4.1870512695e+003,4.1942309570e+003,4.2032050781e+003,4.1848715820e+003,
3.3984375000e+000,4.1784614258e+003,4.1901284180e+003,4.1762822266e+003,4.1543588867e+003,4.2052563477e+003,4.2193588867e+003,4.1850000000e+003,4.1991025391e+003,4.2035898438e+003,4.1896152344e+003,4.1806411133e+003,4.1914101563e+003,4.1984614258e+003,4.1798715820e+003,
3.4062500000e+000,4.1832050781e+003,4.1947436523e+003,4.1811538086e+003,4.1514101563e+003,4.2029487305e+003,4.2205126953e+003,4.1952563477e+003,4.1952563477e+003,4.1917949219e+003,4.1828203125e+003,4.1816665039e+003,4.1952563477e+003,4.1932050781e+003,4.1815385742e+003,
3.4140625000e+000,4.1821796875e+003,4.1866665039e+003,4.1826923828e+003,4.1461538086e+003,4.1957690430e+003,4.2215385742e+003,4.1965385742e+003,4.1921796875e+003,4.1843588867e+003,4.1758974609e+003,4.1774360352e+003,4.1969228516e+003,4.1860258789e+003,4.1792309570e+003,
3.4218750000e+000,4.1808974609e+003,4.1785898438e+003,4.1825639648e+003,4.1396152344e+003,4.1903847656e+003,4.2211538086e+003,4.1955126953e+003,4.1864101563e+003,4.1757690430e+003,4.1674360352e+003,4.1719228516e+003,4.1978203125e+003,4.1785898438e+003,4.1752563477e+003,
3.4296875000e+000,4.1850000000e+003,4.1800000000e+003,4.1842309570e+003,4.1264101563e+003,4.1937177734e+003,4.2176923828e+003,4.1908974609e+003,4.1714101563e+003,4.1607690430e+003,4.1580771484e+003,4.1696152344e+003,4.1994873047e+003,4.1787177734e+003,4.1746152344e+003,
