Time (s),AF3,F7,F3,FC5,T7,P7,O1,O2,P8,T8,FC6,F4,F8,AF4,Sampling Rate
0.0000000000e+000,7.2592309570e+003,7.5225639648e+003,7.4351284180e+003,7.3197436523e+003,7.5637177734e+003,7.4060258789e+003,7.3742309570e+003,7.3992309570e+003,7.3720512695e+003,7.4643588867e+003,7.4806411133e+003,7.4191025391e+003,7.4488461914e+003,7.4092309570e+003,128
7.8125000000e-003,7.3952563477e+003,7.6360258789e+003,7.5483334961e+003,7.4535898438e+003,7.6741025391e+003,7.5229487305e+003,7.4894873047e+003,7.5279487305e+003,7.4997436523e+003,7.5907690430e+003,7.5998715820e+003,7.5379487305e+003,7.5698715820e+003,7.5267949219e+003,
1.5625000000e-002,7.2353847656e+003,7.5369228516e+003,7.4611538086e+003,7.3398715820e+003,7.5561538086e+003,7.4233334961e+003,7.3888461914e+003,7.4287177734e+003,7.3744873047e+003,7.4873076172e+003,7.5062822266e+003,7.4506411133e+003,7.4739741211e+003,7.4271796875e+003,
2.3437500000e-002,7.3119228516e+003,7.5979487305e+003,7.5266665039e+003,7.4160258789e+003,7.6085898438e+003,7.4933334961e+003,7.4621796875e+003,7.4947436523e+003,7.4451284180e+003,7.5471796875e+003,7.5714101563e+003,7.5157690430e+003,7.5375639648e+003,7.4976923828e+003,
3.1250000000e-002,7.4643588867e+003,7.6215385742e+003,7.6006411133e+003,7.5389741211e+003,7.6252563477e+003,7.5837177734e+003,7.5703847656e+003,7.5842309570e+003,7.5587177734e+003,7.6037177734e+003,7.6175639648e+003,7.6000000000e+003,7.5982050781e+003,7.5898715820e+003,
3.9062500000e-002,7.4344873047e+003,7.5724360352e+003,7.5725639648e+003,7.5085898438e+003,7.5808974609e+003,7.5564101563e+003,7.5479487305e+003,7.5578203125e+003,7.5334614258e+003,7.5673076172e+003,7.5743588867e+003,7.5751284180e+003,7.5624360352e+003,7.5632050781e+003,
4.6875000000e-002,7.1158974609e+003,7.5100000000e+003,7.4421796875e+003,7.2792309570e+003,7.5464101563e+003,7.4102563477e+003,7.3712822266e+003,7.4217949219e+003,7.3530771484e+003,7.4688461914e+003,7.4862822266e+003,7.4342309570e+003,7.4492309570e+003,7.4105126953e+003,
5.4687500000e-002,7.0551284180e+003,7.4921796875e+003,7.4066665039e+003,7.2371796875e+003,7.5329487305e+003,7.3758974609e+003,7.3298715820e+003,7.3870512695e+003,7.3174360352e+003,7.4421796875e+003,7.4638461914e+003,7.3951284180e+003,7.4185898438e+003,7.3730771484e+003,
6.2500000000e-002,6.9292309570e+003,7.3587177734e+003,7.2957690430e+003,7.1265385742e+003,7.4076923828e+003,7.2651284180e+003,7.2194873047e+003,7.2642309570e+003,7.2147436523e+003,7.3133334961e+003,7.3361538086e+003,7.2761538086e+003,7.2898715820e+003,7.2591025391e+003,
7.0312500000e-002,6.8241025391e+003,7.3194873047e+003,7.2384614258e+003,7.0391025391e+003,7.3771796875e+003,7.2021796875e+003,7.1501284180e+003,7.2067949219e+003,7.1491025391e+003,7.2670512695e+003,7.2920512695e+003,7.2151284180e+003,7.2375639648e+003,7.1961538086e+003,
7.8125000000e-002,6.6851284180e+003,7.2624360352e+003,7.1525639648e+003,6.9192309570e+003,7.3316665039e+003,7.1103847656e+003,7.0498715820e+003,7.1246152344e+003,7.0561538086e+003,7.2011538086e+003,7.2288461914e+003,7.1253847656e+003,7.1621796875e+003,7.1046152344e+003,
8.5937500000e-002,6.4514101563e+003,6.9715385742e+003,6.8948715820e+003,6.7046152344e+003,7.0534614258e+003,6.8562822266e+003,6.8014101563e+003,6.8447436523e+003,6.8076923828e+003,6.8951284180e+003,6.9326923828e+003,6.8519228516e+003,6.8896152344e+003,6.8484614258e+003,
9.3750000000e-002,6.6200000000e+003,7.1371796875e+003,7.0569228516e+003,6.8817949219e+003,7.2083334961e+003,7.0250000000e+003,6.9750000000e+003,7.0158974609e+003,6.9767949219e+003,7.0588461914e+003,7.0973076172e+003,7.0210258789e+003,7.0585898438e+003,7.0200000000e+003,
1.0156250000e-001,6.9382050781e+003,7.4260258789e+003,7.3461538086e+003,7.1935898438e+003,7.4783334961e+003,7.3201284180e+003,7.2805126953e+003,7.3342309570e+003,7.2902563477e+003,7.3721796875e+003,7.4048715820e+003,7.3301284180e+003,7.3597436523e+003,7.3242309570e+003,
1.0937500000e-001,7.0443588867e+003,7.4257690430e+003,7.3721796875e+003,7.2511538086e+003,7.4738461914e+003,7.3339741211e+003,7.2933334961e+003,7.3450000000e+003,7.2920512695e+003,7.3728203125e+003,7.4155126953e+003,7.3446152344e+003,7.3730771484e+003,7.3424360352e+003,
1.1718750000e-001,7.1766665039e+003,7.5144873047e+003,7.4632050781e+003,7.3669228516e+003,7.5464101563e+003,7.4375639648e+003,7.4012822266e+003,7.4455126953e+003,7.3956411133e+003,7.4655126953e+003,7.5025639648e+003,7.4421796875e+003,7.4683334961e+003,7.4420512695e+003,
1.2500000000e-001,7.4560258789e+003,7.6285898438e+003,7.6143588867e+003,7.5705126953e+003,7.6285898438e+003,7.6110258789e+003,7.5966665039e+003,7.6156411133e+003,7.5873076172e+003,7.6208974609e+003,7.6287177734e+003,7.6193588867e+003,7.6164101563e+003,7.6142309570e+003,
1.3281250000e-001,7.5435898438e+003,7.6180771484e+003,7.6251284180e+003,7.6023076172e+003,7.6130771484e+003,7.6244873047e+003,7.6208974609e+003,7.6251284180e+003,7.6117949219e+003,7.6269228516e+003,7.6229487305e+003,7.6352563477e+003,7.6208974609e+003,7.6296152344e+003,
1.4062500000e-001,7.6521796875e+003,7.6129487305e+003,7.6116665039e+003,7.6261538086e+003,7.6120512695e+003,7.6150000000e+003,7.6158974609e+003,7.6137177734e+003,7.6201284180e+003,7.6170512695e+003,7.6117949219e+003,7.6120512695e+003,7.6156411133e+003,7.6155126953e+003,
1.4843750000e-001,7.6315385742e+003,7.6139741211e+003,7.6080771484e+003,7.6185898438e+003,7.6125639648e+003,7.6110258789e+003,7.6108974609e+003,7.6125639648e+003,7.6138461914e+003,7.6138461914e+003,7.6128203125e+003,7.6089741211e+003,7.6121796875e+003,7.6101284180e+003,
1.5625000000e-001,7.5958974609e+003,7.5982050781e+003,7.6006411133e+003,7.5996152344e+003,7.5952563477e+003,7.6002563477e+003,7.6021796875e+003,7.6003847656e+003,7.5980771484e+003,7.5979487305e+003,7.5991025391e+003,7.6037177734e+003,7.5973076172e+003,7.6000000000e+003,
1.6406250000e-001,7.6107690430e+003,7.6024360352e+003,7.6070512695e+003,7.6082050781e+003,7.5994873047e+003,7.6070512695e+003,7.6098715820e+003,7.6061538086e+003,7.6071796875e+003,7.6046152344e+003,7.6033334961e+003,7.6097436523e+003,7.6041025391e+003,7.6071796875e+003,
1.7187500000e-001,7.6070512695e+003,7.5984614258e+003,7.5988461914e+003,7.6023076172e+003,7.5988461914e+003,7.5980771484e+003,7.5988461914e+003,7.5989741211e+003,7.6007690430e+003,7.5992309570e+003,7.5992309570e+003,7.5997436523e+003,7.5971796875e+003,7.5985898438e+003,
1.7968750000e-001,7.5970512695e+003,7.5958974609e+003,7.5957690430e+003,7.5960258789e+003,7.5956411133e+003,7.5944873047e+003,7.5950000000e+003,7.5950000000e+003,7.5950000000e+003,7.5947436523e+003,7.5964101563e+003,7.5966665039e+003,7.5938461914e+003,7.5947436523e+003,
1.8750000000e-001,7.6001284180e+003,7.5994873047e+003,7.5987177734e+003,7.5980771484e+003,7.5980771484e+003,7.5979487305e+003,7.5985898438e+003,7.5983334961e+003,7.5979487305e+003,7.5980771484e+003,7.5996152344e+003,7.6000000000e+003,7.5980771484e+003,7.5976923828e+003,
1.9531250000e-001,7.5932050781e+003,7.6000000000e+003,7.6002563477e+003,7.6000000000e+003,7.5994873047e+003,7.5991025391e+003,7.5996152344e+003,7.6002563477e+003,7.6003847656e+003,7.5998715820e+003,7.6011538086e+003,7.6003847656e+003,7.5984614258e+003,7.5997436523e+003,
2.0312500000e-001,7.5984614258e+003,7.6010258789e+003,7.6007690430e+003,7.6007690430e+003,7.5998715820e+003,7.5996152344e+003,7.6007690430e+003,7.6015385742e+003,7.6012822266e+003,7.6014101563e+003,7.6023076172e+003,7.6001284180e+003,7.5993588867e+003,7.6000000000e+003,
2.1093750000e-001,7.5958974609e+003,7.6008974609e+003,7.6008974609e+003,7.6007690430e+003,7.5997436523e+003,7.5988461914e+003,7.6008974609e+003,7.5989741211e+003,7.6006411133e+003,7.5987177734e+003,7.6001284180e+003,7.5982050781e+003,7.5987177734e+003,7.5984614258e+003,
2.1875000000e-001,7.4417949219e+003,7.5998715820e+003,7.6001284180e+003,7.6001284180e+003,7.5998715820e+003,7.5998715820e+003,7.5998715820e+003,7.5998715820e+003,7.6000000000e+003,7.6002563477e+003,7.6000000000e+003,7.5988461914e+003,7.5989741211e+003,7.5998715820e+003,
2.2656250000e-001,7.4246152344e+003,7.5997436523e+003,7.5996152344e+003,7.5996152344e+003,7.5997436523e+003,7.5998715820e+003,7.5997436523e+003,7.6007690430e+003,7.5997436523e+003,7.6012822266e+003,7.6001284180e+003,7.5985898438e+003,7.5991025391e+003,7.5996152344e+003,
2.3437500000e-001,7.4651284180e+003,7.6002563477e+003,7.6003847656e+003,7.6003847656e+003,7.6000000000e+003,7.5998715820e+003,7.6003847656e+003,7.6007690430e+003,7.6003847656e+003,7.5989741211e+003,7.6001284180e+003,7.5988461914e+003,7.5992309570e+003,7.5991025391e+003,
2.4218750000e-001,7.4830771484e+003,7.6001284180e+003,7.6002563477e+003,7.6002563477e+003,7.5998715820e+003,7.5998715820e+003,7.6001284180e+003,7.5998715820e+003,7.6001284180e+003,7.5980771484e+003,7.6000000000e+003,7.5988461914e+003,7.5992309570e+003,7.5989741211e+003,
2.5000000000e-001,7.5437177734e+003,7.6001284180e+003,7.6000000000e+003,7.6003847656e+003,7.6000000000e+003,7.6000000000e+003,7.6001284180e+003,7.6000000000e+003,7.6001284180e+003,7.6006411133e+003,7.6001284180e+003,7.5988461914e+003,7.5993588867e+003,7.5992309570e+003,
2.5781250000e-001,7.5861538086e+003,7.6001284180e+003,7.6001284180e+003,7.6011538086e+003,7.5998715820e+003,7.6000000000e+003,7.6002563477e+003,7.6002563477e+003,7.6002563477e+003,7.6019228516e+003,7.6001284180e+003,7.5988461914e+003,7.5993588867e+003,7.5992309570e+003,
2.6562500000e-001,7.6229487305e+003,7.6001284180e+003,7.6001284180e+003,7.5996152344e+003,7.6000000000e+003,7.6000000000e+003,7.6001284180e+003,7.6001284180e+003,7.6001284180e+003,7.5985898438e+003,7.6001284180e+003,7.5988461914e+003,7.5992309570e+003,7.5991025391e+003,
2.7343750000e-001,7.5874360352e+003,7.6001284180e+003,7.6001284180e+003,7.5967949219e+003,7.5998715820e+003,7.5998715820e+003,7.5998715820e+003,7.6000000000e+003,7.5997436523e+003,7.5982050781e+003,7.6001284180e+003,7.5988461914e+003,7.5992309570e+003,7.5991025391e+003,
2.8125000000e-001,7.5651284180e+003,7.6001284180e+003,7.6001284180e+003,7.6014101563e+003,7.6000000000e+003,7.5998715820e+003,7.6002563477e+003,7.6001284180e+003,7.6003847656e+003,7.6007690430e+003,7.6001284180e+003,7.5988461914e+003,7.5992309570e+003,7.5991025391e+003,
2.8906250000e-001,7.5907690430e+003,7.6001284180e+003,7.6001284180e+003,7.6061538086e+003,7.6000000000e+003,7.6000000000e+003,7.6007690430e+003,7.6001284180e+003,7.6008974609e+003,7.6016665039e+003,7.6001284180e+003,7.5988461914e+003,7.5992309570e+003,7.5991025391e+003,
2.9687500000e-001,7.4701284180e+003,7.6001284180e+003,7.6001284180e+003,7.5794873047e+003,7.6000000000e+003,7.6000000000e+003,7.5987177734e+003,7.6001284180e+003,7.5980771484e+003,7.5992309570e+003,7.6001284180e+003,7.5988461914e+003,7.5992309570e+003,7.5991025391e+003,
3.0468750000e-001,7.3848715820e+003,7.6001284180e+003,7.6001284180e+003,7.5702563477e+003,7.5998715820e+003,7.6000000000e+003,7.5983334961e+003,7.6002563477e+003,7.5976923828e+003,7.5993588867e+003,7.6001284180e+003,7.5992309570e+003,7.5993588867e+003,7.5991025391e+003,
3.1250000000e-001,7.3488461914e+003,7.6001284180e+003,7.6001284180e+003,7.5723076172e+003,7.5998715820e+003,7.6000000000e+003,7.5992309570e+003,7.6003847656e+003,7.5985898438e+003,7.6007690430e+003,7.6001284180e+003,7.6000000000e+003,7.5994873047e+003,7.5992309570e+003,
3.2031250000e-001,7.3762822266e+003,7.6001284180e+003,7.6001284180e+003,7.5826923828e+003,7.5998715820e+003,7.6001284180e+003,7.6002563477e+003,7.6003847656e+003,7.5997436523e+003,7.6017949219e+003,7.6001284180e+003,7.6006411133e+003,7.5994873047e+003,7.5992309570e+003,
3.2812500000e-001,7.5361538086e+003,7.6055126953e+003,7.6057690430e+003,7.6183334961e+003,7.6039741211e+003,7.6058974609e+003,7.6092309570e+003,7.6067949219e+003,7.6112822266e+003,7.6110258789e+003,7.6052563477e+003,7.6055126953e+003,7.6062822266e+003,7.6051284180e+003,
3.3593750000e-001,7.4874360352e+003,7.6041025391e+003,7.6047436523e+003,7.6192309570e+003,7.6028203125e+003,7.6052563477e+003,7.6123076172e+003,7.6062822266e+003,7.6151284180e+003,7.6144873047e+003,7.6039741211e+003,7.6092309570e+003,7.6055126953e+003,7.6041025391e+003,
3.4375000000e-001,7.2835898438e+003,7.6041025391e+003,7.6033334961e+003,7.5324360352e+003,7.6033334961e+003,7.6016665039e+003,7.5792309570e+003,7.6007690430e+003,7.5758974609e+003,7.5820512695e+003,7.6029487305e+003,7.5924360352e+003,7.5996152344e+003,7.6021796875e+003,
3.5156250000e-001,7.3497436523e+003,7.6051284180e+003,7.6071796875e+003,7.5302563477e+003,7.6042309570e+003,7.6034614258e+003,7.5778203125e+003,7.6067949219e+003,7.5737177734e+003,7.5844873047e+003,7.6064101563e+003,7.5874360352e+003,7.6048715820e+003,7.6051284180e+003,
3.5937500000e-001,7.3276923828e+003,7.5626923828e+003,7.5673076172e+003,7.5023076172e+003,7.5707690430e+003,7.5605126953e+003,7.5408974609e+003,7.5607690430e+003,7.5352563477e+003,7.5394873047e+003,7.5656411133e+003,7.5498715820e+003,7.5573076172e+003,7.5634614258e+003,
3.6718750000e-001,7.1771796875e+003,7.5539741211e+003,7.5423076172e+003,7.4251284180e+003,7.5701284180e+003,7.5343588867e+003,7.4800000000e+003,7.5242309570e+003,7.4861538086e+003,7.4823076172e+003,7.5537177734e+003,7.5011538086e+003,7.5212822266e+003,7.5338461914e+003,
3.7500000000e-001,6.9110258789e+003,7.4301284180e+003,7.4307690430e+003,7.2206411133e+003,7.4650000000e+003,7.4244873047e+003,7.3452563477e+003,7.4119228516e+003,7.3447436523e+003,7.3261538086e+003,7.4493588867e+003,7.3483334961e+003,7.4079487305e+003,7.4201284180e+003,
3.8281250000e-001,6.8202563477e+003,7.3587177734e+003,7.3633334961e+003,7.1461538086e+003,7.4034614258e+003,7.3583334961e+003,7.2823076172e+003,7.3397436523e+003,7.2728203125e+003,7.2441025391e+003,7.3797436523e+003,7.2733334961e+003,7.3391025391e+003,7.3542309570e+003,
3.9062500000e-001,6.9438461914e+003,7.4405126953e+003,7.4261538086e+003,7.2683334961e+003,7.4678203125e+003,7.4392309570e+003,7.3678203125e+003,7.4214101563e+003,7.3696152344e+003,7.3362822266e+003,7.4450000000e+003,7.3511538086e+003,7.4105126953e+003,7.4202563477e+003,
3.9843750000e-001,7.0326923828e+003,7.4843588867e+003,7.4694873047e+003,7.3285898438e+003,7.5093588867e+003,7.4850000000e+003,7.4173076172e+003,7.4728203125e+003,7.4244873047e+003,7.3950000000e+003,7.4887177734e+003,7.4019228516e+003,7.4523076172e+003,7.4607690430e+003,
4.0625000000e-001,7.0534614258e+003,7.4684614258e+003,7.4628203125e+003,7.3215385742e+003,7.5112822266e+003,7.4732050781e+003,7.4142309570e+003,7.4679487305e+003,7.4179487305e+003,7.3935898438e+003,7.4828203125e+003,7.3957690430e+003,7.4442309570e+003,7.4512822266e+003,
4.1406250000e-001,6.9875639648e+003,7.4267949219e+003,7.4251284180e+003,7.2679487305e+003,7.4770512695e+003,7.4320512695e+003,7.3726923828e+003,7.4271796875e+003,7.3703847656e+003,7.3424360352e+003,7.4450000000e+003,7.3511538086e+003,7.4085898438e+003,7.4158974609e+003,
4.2187500000e-001,6.9582050781e+003,7.4093588867e+003,7.4076923828e+003,7.2253847656e+003,7.4435898438e+003,7.4143588867e+003,7.3517949219e+003,7.4061538086e+003,7.3429487305e+003,7.2916665039e+003,7.4188461914e+003,7.3298715820e+003,7.3855126953e+003,7.4042309570e+003,
4.2968750000e-001,7.0210258789e+003,7.4429487305e+003,7.4379487305e+003,7.2707690430e+003,7.4730771484e+003,7.4456411133e+003,7.3851284180e+003,7.4379487305e+003,7.3821796875e+003,7.3343588867e+003,7.4517949219e+003,7.3714101563e+003,7.4120512695e+003,7.4351284180e+003,
4.3750000000e-001,7.0507690430e+003,7.4574360352e+003,7.4519228516e+003,7.2994873047e+003,7.4907690430e+003,7.4567949219e+003,7.3969228516e+003,7.4506411133e+003,7.3998715820e+003,7.3603847656e+003,7.4710258789e+003,7.3924360352e+003,7.4225639648e+003,7.4491025391e+003,
4.4531250000e-001,7.0258974609e+003,7.4367949219e+003,7.4366665039e+003,7.2860258789e+003,7.4788461914e+003,7.4337177734e+003,7.3712822266e+003,7.4291025391e+003,7.3757690430e+003,7.3429487305e+003,7.4588461914e+003,7.3724360352e+003,7.4025639648e+003,7.4324360352e+003,
4.5312500000e-001,6.8682050781e+003,7.3161538086e+003,7.3373076172e+003,7.1043588867e+003,7.3678203125e+003,7.3151284180e+003,7.2441025391e+003,7.3119228516e+003,7.2224360352e+003,7.1734614258e+003,7.3378203125e+003,7.2180771484e+003,7.2935898438e+003,7.3265385742e+003,
4.6093750000e-001,6.9146152344e+003,7.3603847656e+003,7.3712822266e+003,7.1551284180e+003,7.4043588867e+003,7.3585898438e+003,7.2926923828e+003,7.3556411133e+003,7.2766665039e+003,7.2294873047e+003,7.3758974609e+003,7.2655126953e+003,7.3385898438e+003,7.3650000000e+003,
4.6875000000e-001,7.1987177734e+003,7.4773076172e+003,7.4888461914e+003,7.3819228516e+003,7.5058974609e+003,7.4823076172e+003,7.4420512695e+003,7.4785898438e+003,7.4360258789e+003,7.4084614258e+003,7.4982050781e+003,7.4352563477e+003,7.4675639648e+003,7.4841025391e+003,
4.7656250000e-001,7.5543588867e+003,7.5952563477e+003,7.6007690430e+003,7.5814101563e+003,7.5953847656e+003,7.5967949219e+003,7.6014101563e+003,7.5946152344e+003,7.5917949219e+003,7.5923076172e+003,7.5935898438e+003,7.6003847656e+003,7.5962822266e+003,7.5978203125e+003,
4.8437500000e-001,7.6074360352e+003,7.6430771484e+003,7.6362822266e+003,7.6441025391e+003,7.6339741211e+003,7.6402563477e+003,7.6524360352e+003,7.6424360352e+003,7.6524360352e+003,7.6623076172e+003,7.6348715820e+003,7.6543588867e+003,7.6461538086e+003,7.6393588867e+003,
4.9218750000e-001,7.4843588867e+003,7.5984614258e+003,7.6000000000e+003,7.5948715820e+003,7.5982050781e+003,7.5994873047e+003,7.5984614258e+003,7.5993588867e+003,7.5978203125e+003,7.5970512695e+003,7.5992309570e+003,7.6021796875e+003,7.5971796875e+003,7.6001284180e+003,
5.0000000000e-001,7.5883334961e+003,7.6380771484e+003,7.6335898438e+003,7.6238461914e+003,7.6307690430e+003,7.6361538086e+003,7.6446152344e+003,7.6362822266e+003,7.6482050781e+003,7.6538461914e+003,7.6360258789e+003,7.6465385742e+003,7.6403847656e+003,7.6325639648e+003,
5.0781250000e-001,7.5710258789e+003,7.6321796875e+003,7.6279487305e+003,7.6116665039e+003,7.6264101563e+003,7.6333334961e+003,7.6393588867e+003,7.6338461914e+003,7.6442309570e+003,7.6483334961e+003,7.6325639648e+003,7.6429487305e+003,7.6355126953e+003,7.6287177734e+003,
5.1562500000e-001,7.3126923828e+003,7.5684614258e+003,7.5787177734e+003,7.4791025391e+003,7.5874360352e+003,7.5728203125e+003,7.5351284180e+003,7.5696152344e+003,7.5311538086e+003,7.5074360352e+003,7.5735898438e+003,7.5296152344e+003,7.5592309570e+003,7.5710258789e+003,
5.2343750000e-001,7.1928203125e+003,7.5412822266e+003,7.5478203125e+003,7.4117949219e+003,7.5712822266e+003,7.5451284180e+003,7.4862822266e+003,7.5434614258e+003,7.4892309570e+003,7.4589741211e+003,7.5498715820e+003,7.4746152344e+003,7.5288461914e+003,7.5382050781e+003,
5.3125000000e-001,6.8666665039e+003,7.3293588867e+003,7.3432050781e+003,7.1385898438e+003,7.3884614258e+003,7.3555126953e+003,7.2637177734e+003,7.3488461914e+003,7.2702563477e+003,7.2115385742e+003,7.3617949219e+003,7.2371796875e+003,7.3180771484e+003,7.3357690430e+003,
5.3906250000e-001,6.7387177734e+003,7.1982050781e+003,7.2258974609e+003,7.0010258789e+003,7.2680771484e+003,7.2389741211e+003,7.1434614258e+003,7.2229487305e+003,7.1361538086e+003,7.0555126953e+003,7.2405126953e+003,7.1078203125e+003,7.1875639648e+003,7.2187177734e+003,
5.4687500000e-001,6.7492309570e+003,7.1948715820e+003,7.2241025391e+003,6.9944873047e+003,7.2675639648e+003,7.2226923828e+003,7.1310258789e+003,7.2073076172e+003,7.1114101563e+003,7.0062822266e+003,7.2188461914e+003,7.0815385742e+003,7.1834614258e+003,7.2112822266e+003,
5.5468750000e-001,6.6774360352e+003,7.1338461914e+003,7.1637177734e+003,6.9337177734e+003,7.2062822266e+003,7.1615385742e+003,7.0660258789e+003,7.1594873047e+003,7.0608974609e+003,6.9561538086e+003,7.1558974609e+003,7.0200000000e+003,7.1284614258e+003,7.1510258789e+003,
5.6250000000e-001,6.4976923828e+003,6.9467949219e+003,6.9903847656e+003,6.7562822266e+003,7.0214101563e+003,6.9893588867e+003,6.8910258789e+003,6.9958974609e+003,6.8950000000e+003,6.7817949219e+003,6.9775639648e+003,6.8450000000e+003,6.9514101563e+003,6.9802563477e+003,
5.7031250000e-001,6.2730771484e+003,6.6996152344e+003,6.7638461914e+003,6.5233334961e+003,6.7783334961e+003,6.7656411133e+003,6.6666665039e+003,6.7712822266e+003,6.6707690430e+003,6.5388461914e+003,6.7466665039e+003,6.6128203125e+003,6.7156411133e+003,6.7588461914e+003,
5.7812500000e-001,5.8653847656e+003,6.2208974609e+003,6.3083334961e+003,6.0850000000e+003,6.3220512695e+003,6.3314101563e+003,6.2338461914e+003,6.3252563477e+003,6.2514101563e+003,6.0584614258e+003,6.2961538086e+003,6.1525639648e+003,6.2655126953e+003,6.3219228516e+003,
5.8593750000e-001,5.7805126953e+003,6.1057690430e+003,6.2007690430e+003,5.9870512695e+003,6.2123076172e+003,6.2274360352e+003,6.1302563477e+003,6.2221796875e+003,6.1503847656e+003,5.9501284180e+003,6.1737177734e+003,6.0482050781e+003,6.1534614258e+003,6.2117949219e+003,
5.9375000000e-001,5.7301284180e+003,6.0106411133e+003,6.1173076172e+003,5.9053847656e+003,6.1241025391e+003,6.1569228516e+003,6.0665385742e+003,6.1387177734e+003,6.0629487305e+003,5.8429487305e+003,6.0747436523e+003,5.9548715820e+003,6.0585898438e+003,6.1311538086e+003,
6.0156250000e-001,5.9676923828e+003,6.2142309570e+003,6.3142309570e+003,6.1180771484e+003,6.3151284180e+003,6.3414101563e+003,6.2558974609e+003,6.3392309570e+003,6.2682050781e+003,6.0655126953e+003,6.2929487305e+003,6.1556411133e+003,6.2648715820e+003,6.3266665039e+003,
6.0937500000e-001,5.8842309570e+003,6.1193588867e+003,6.2237177734e+003,6.0317949219e+003,6.2198715820e+003,6.2489741211e+003,6.1615385742e+003,6.2526923828e+003,6.1812822266e+003,5.9734614258e+003,6.1934614258e+003,6.0629487305e+003,6.1721796875e+003,6.2350000000e+003,
6.1718750000e-001,5.4262822266e+003,5.6112822266e+003,5.7466665039e+003,5.5582050781e+003,5.7288461914e+003,5.7833334961e+003,5.6939741211e+003,5.7653847656e+003,5.6932050781e+003,5.4444873047e+003,5.6707690430e+003,5.5773076172e+003,5.6656411133e+003,5.7523076172e+003,
6.2500000000e-001,5.3103847656e+003,5.4532050781e+003,5.5987177734e+003,5.4165385742e+003,5.5669228516e+003,5.6189741211e+003,5.5408974609e+003,5.5926923828e+003,5.5205126953e+003,5.2814101563e+003,5.5302563477e+003,5.4296152344e+003,5.5069228516e+003,5.6051284180e+003,
6.3281250000e-001,5.2821796875e+003,5.4112822266e+003,5.5597436523e+003,5.3828203125e+003,5.5150000000e+003,5.5723076172e+003,5.4993588867e+003,5.5475639648e+003,5.4769228516e+003,5.2428203125e+003,5.4893588867e+003,5.3902563477e+003,5.4706411133e+003,5.5696152344e+003,
6.4062500000e-001,5.2257690430e+003,5.3402563477e+003,5.4934614258e+003,5.3200000000e+003,5.4371796875e+003,5.5025639648e+003,5.4332050781e+003,5.4785898438e+003,5.4098715820e+003,5.1729487305e+003,5.4162822266e+003,5.3221796875e+003,5.4074360352e+003,5.5060258789e+003,
6.4843750000e-001,5.0344873047e+003,5.1155126953e+003,5.2855126953e+003,5.1178203125e+003,5.2148715820e+003,5.2947436523e+003,5.2328203125e+003,5.2752563477e+003,5.2079487305e+003,4.9439741211e+003,5.1892309570e+003,5.1120512695e+003,5.1955126953e+003,5.2965385742e+003,
6.5625000000e-001,4.8516665039e+003,4.8834614258e+003,5.0683334961e+003,4.9423076172e+003,5.0037177734e+003,5.0724360352e+003,5.0233334961e+003,5.0612822266e+003,4.9969228516e+003,4.7096152344e+003,4.9633334961e+003,4.8989741211e+003,4.9606411133e+003,5.0789741211e+003,
6.6406250000e-001,4.8580771484e+003,4.8810258789e+003,5.0594873047e+003,4.9483334961e+003,5.0225639648e+003,5.0679487305e+003,5.0153847656e+003,5.0537177734e+003,4.9937177734e+003,4.7075639648e+003,4.9634614258e+003,4.8923076172e+003,4.9552563477e+003,5.0758974609e+003,
6.7187500000e-001,4.8680771484e+003,4.8852563477e+003,5.0562822266e+003,4.9526923828e+003,5.0561538086e+003,5.0714101563e+003,5.0119228516e+003,5.0524360352e+003,4.9969228516e+003,4.7123076172e+003,4.9701284180e+003,4.8910258789e+003,4.9583334961e+003,5.0778203125e+003,
6.7968750000e-001,4.8643588867e+003,4.8682050781e+003,5.0333334961e+003,4.9285898438e+003,5.0901284180e+003,5.0548715820e+003,4.9858974609e+003,5.0323076172e+003,4.9801284180e+003,4.6970512695e+003,4.9496152344e+003,4.8684614258e+003,4.9457690430e+003,5.0564101563e+003,
6.8750000000e-001,4.8757690430e+003,4.8691025391e+003,5.0356411133e+003,4.9315385742e+003,5.1002563477e+003,5.0553847656e+003,4.9867949219e+003,5.0360258789e+003,4.9841025391e+003,4.7015385742e+003,4.9437177734e+003,4.8692309570e+003,4.9508974609e+003,5.0573076172e+003,
6.9531250000e-001,4.9088461914e+003,4.8898715820e+003,5.0582050781e+003,4.9596152344e+003,5.1205126953e+003,5.0762822266e+003,5.0098715820e+003,5.0614101563e+003,5.0110258789e+003,4.7284614258e+003,4.9592309570e+003,4.8910258789e+003,4.9753847656e+003,5.0801284180e+003,
7.0312500000e-001,4.9006411133e+003,4.8467949219e+003,5.0092309570e+003,4.9378203125e+003,5.0539741211e+003,5.0491025391e+003,4.9839741211e+003,5.0276923828e+003,4.9955126953e+003,4.7050000000e+003,4.9406411133e+003,4.8450000000e+003,4.9355126953e+003,5.0419228516e+003,
7.1093750000e-001,4.8976923828e+003,4.8365385742e+003,4.9985898438e+003,4.9311538086e+003,5.0461538086e+003,5.0429487305e+003,4.9785898438e+003,5.0176923828e+003,4.9853847656e+003,4.6943588867e+003,4.9269228516e+003,4.8325639648e+003,4.9269228516e+003,5.0300000000e+003,
7.1875000000e-001,5.1120512695e+003,5.0271796875e+003,5.1875639648e+003,5.1150000000e+003,5.2410258789e+003,5.2224360352e+003,5.1625639648e+003,5.1946152344e+003,5.1575639648e+003,4.8757690430e+003,5.0915385742e+003,5.0139741211e+003,5.1094873047e+003,5.2107690430e+003,
7.2656250000e-001,5.1658974609e+003,5.0847436523e+003,5.2341025391e+003,5.1573076172e+003,5.2766665039e+003,5.2615385742e+003,5.1997436523e+003,5.2398715820e+003,5.1975639648e+003,4.9300000000e+003,5.1628203125e+003,5.0642309570e+003,5.1579487305e+003,5.2584614258e+003,
7.3437500000e-001,5.1217949219e+003,5.0389741211e+003,5.1873076172e+003,5.1160258789e+003,5.2319228516e+003,5.2166665039e+003,5.1564101563e+003,5.1932050781e+003,5.1483334961e+003,4.8841025391e+003,5.1210258789e+003,5.0200000000e+003,5.1123076172e+003,5.2123076172e+003,
7.4218750000e-001,5.3051284180e+003,5.2162822266e+003,5.3564101563e+003,5.2833334961e+003,5.4137177734e+003,5.3806411133e+003,5.3298715820e+003,5.3516665039e+003,5.2921796875e+003,5.0460258789e+003,5.2678203125e+003,5.1801284180e+003,5.2784614258e+003,5.3717949219e+003,
7.5000000000e-001,5.4483334961e+003,5.3600000000e+003,5.4979487305e+003,5.4188461914e+003,5.5500000000e+003,5.5161538086e+003,5.4656411133e+003,5.4900000000e+003,5.4252563477e+003,5.1874360352e+003,5.4056411133e+003,5.3176923828e+003,5.4206411133e+003,5.5084614258e+003,
7.5781250000e-001,5.6421796875e+003,5.5519228516e+003,5.6889741211e+003,5.6132050781e+003,5.7364101563e+003,5.7006411133e+003,5.6458974609e+003,5.6843588867e+003,5.6142309570e+003,5.3880771484e+003,5.6152563477e+003,5.5112822266e+003,5.6171796875e+003,5.6991025391e+003,
7.6562500000e-001,5.6747436523e+003,5.5850000000e+003,5.7178203125e+003,5.6517949219e+003,5.7738461914e+003,5.7324360352e+003,5.6746152344e+003,5.7197436523e+003,5.6489741211e+003,5.4276923828e+003,5.6608974609e+003,5.5473076172e+003,5.6498715820e+003,5.7337177734e+003,
7.7343750000e-001,5.6716665039e+003,5.5958974609e+003,5.7148715820e+003,5.6548715820e+003,5.7766665039e+003,5.7355126953e+003,5.6687177734e+003,5.7248715820e+003,5.6607690430e+003,5.4497436523e+003,5.6762822266e+003,5.5574360352e+003,5.6534614258e+003,5.7379487305e+003,
7.8125000000e-001,5.6578203125e+003,5.5838461914e+003,5.7046152344e+003,5.6397436523e+003,5.7558974609e+003,5.7238461914e+003,5.6521796875e+003,5.7133334961e+003,5.6542309570e+003,5.4407690430e+003,5.6624360352e+003,5.5455126953e+003,5.6461538086e+003,5.7229487305e+003,
7.8906250000e-001,5.6160258789e+003,5.5405126953e+003,5.6632050781e+003,5.5992309570e+003,5.7135898438e+003,5.6861538086e+003,5.6058974609e+003,5.6769228516e+003,5.6242309570e+003,5.4043588867e+003,5.6169228516e+003,5.5046152344e+003,5.6158974609e+003,5.6793588867e+003,
7.9687500000e-001,5.6016665039e+003,5.5269228516e+003,5.6473076172e+003,5.5869228516e+003,5.7056411133e+003,5.6750000000e+003,5.5933334961e+003,5.6658974609e+003,5.6128203125e+003,5.3921796875e+003,5.5998715820e+003,5.4911538086e+003,5.6030771484e+003,5.6684614258e+003,
8.0468750000e-001,5.6167949219e+003,5.5535898438e+003,5.6655126953e+003,5.6001284180e+003,5.7080771484e+003,5.7008974609e+003,5.6196152344e+003,5.6847436523e+003,5.6374360352e+003,5.4160258789e+003,5.6246152344e+003,5.5043588867e+003,5.6144873047e+003,5.6906411133e+003,
8.1250000000e-001,5.6051284180e+003,5.5417949219e+003,5.6555126953e+003,5.5871796875e+003,5.6864101563e+003,5.6924360352e+003,5.6096152344e+003,5.6738461914e+003,5.6323076172e+003,5.4069228516e+003,5.6202563477e+003,5.4900000000e+003,5.6025639648e+003,5.6743588867e+003,
8.2031250000e-001,5.5787177734e+003,5.5121796875e+003,5.6296152344e+003,5.5629487305e+003,5.6593588867e+003,5.6688461914e+003,5.5852563477e+003,5.6487177734e+003,5.6108974609e+003,5.3800000000e+003,5.5951284180e+003,5.4602563477e+003,5.5750000000e+003,5.6416665039e+003,
8.2812500000e-001,5.5619228516e+003,5.4917949219e+003,5.6112822266e+003,5.5521796875e+003,5.6544873047e+003,5.6537177734e+003,5.5712822266e+003,5.6320512695e+003,5.5943588867e+003,5.3592309570e+003,5.5701284180e+003,5.4388461914e+003,5.5548715820e+003,5.6189741211e+003,
8.3593750000e-001,5.7671796875e+003,5.7053847656e+003,5.8044873047e+003,5.7658974609e+003,5.9016665039e+003,5.8532050781e+003,5.7774360352e+003,5.8389741211e+003,5.7820512695e+003,5.5661538086e+003,5.7537177734e+003,5.6384614258e+003,5.7510258789e+003,5.8188461914e+003,
8.4375000000e-001,5.8155126953e+003,5.7607690430e+003,5.8702563477e+003,5.8156411133e+003,5.9269228516e+003,5.8951284180e+003,5.8355126953e+003,5.8967949219e+003,5.8160258789e+003,5.6119228516e+003,5.8311538086e+003,5.7051284180e+003,5.8079487305e+003,5.8741025391e+003,
8.5156250000e-001,5.8291025391e+003,5.7802563477e+003,5.8843588867e+003,5.8338461914e+003,5.9434614258e+003,5.9083334961e+003,5.8458974609e+003,5.9112822266e+003,5.8266665039e+003,5.6312822266e+003,5.8408974609e+003,5.7207690430e+003,5.8244873047e+003,5.8925639648e+003,
8.5937500000e-001,5.7307690430e+003,5.6824360352e+003,5.7910258789e+003,5.7400000000e+003,5.8355126953e+003,5.8143588867e+003,5.7428203125e+003,5.8141025391e+003,5.7260258789e+003,5.5375639648e+003,5.7401284180e+003,5.6298715820e+003,5.7305126953e+003,5.8053847656e+003,
8.6718750000e-001,5.3779487305e+003,5.3079487305e+003,5.4478203125e+003,5.3856411133e+003,5.4574360352e+003,5.4507690430e+003,5.3787177734e+003,5.4441025391e+003,5.3685898438e+003,5.1678203125e+003,5.3961538086e+003,5.2847436523e+003,5.3701284180e+003,5.4521796875e+003,
8.7500000000e-001,5.1814101563e+003,5.1060258789e+003,5.2515385742e+003,5.1910258789e+003,5.2496152344e+003,5.2528203125e+003,5.1775639648e+003,5.2442309570e+003,5.1796152344e+003,4.9687177734e+003,5.1893588867e+003,5.0874360352e+003,5.1685898438e+003,5.2584614258e+003,
8.8281250000e-001,4.6124360352e+003,4.5093588867e+003,4.6780771484e+003,4.6276923828e+003,4.6446152344e+003,4.6907690430e+003,4.6119228516e+003,4.6733334961e+003,4.6378203125e+003,4.3821796875e+003,4.5856411133e+003,4.5057690430e+003,4.5901284180e+003,4.6929487305e+003,
8.9062500000e-001,4.3206411133e+003,4.1957690430e+003,4.3808974609e+003,4.3380771484e+003,4.3353847656e+003,4.4034614258e+003,4.3279487305e+003,4.3796152344e+003,4.3574360352e+003,4.0734614258e+003,4.2747436523e+003,4.2050000000e+003,4.2898715820e+003,4.3978203125e+003,
8.9843750000e-001,3.9948718262e+003,3.8115385742e+003,4.0187180176e+003,3.9961538086e+003,3.9917949219e+003,4.0691025391e+003,4.0066667480e+003,4.0151281738e+003,4.0166667480e+003,3.6856411133e+003,3.8988461914e+003,3.8387180176e+003,3.9188461914e+003,4.0401281738e+003,
9.0625000000e-001,4.0993588867e+003,3.9060256348e+003,4.1075639648e+003,4.0910256348e+003,4.0950000000e+003,4.1632050781e+003,4.1019228516e+003,4.1056411133e+003,4.1089741211e+003,3.7775642090e+003,3.9917949219e+003,3.9262819824e+003,4.0107692871e+003,4.1321796875e+003,
9.1406250000e-001,4.2323076172e+003,4.0332050781e+003,4.2265385742e+003,4.2160258789e+003,4.2228203125e+003,4.2843588867e+003,4.2246152344e+003,4.2325639648e+003,4.2334614258e+003,3.9047436523e+003,4.1170512695e+003,4.0453845215e+003,4.1351284180e+003,4.2548715820e+003,
9.2187500000e-001,4.3266665039e+003,4.1234614258e+003,4.3089741211e+003,4.3034614258e+003,4.3069228516e+003,4.3669228516e+003,4.3096152344e+003,4.3285898438e+003,4.3239741211e+003,3.9982050781e+003,4.2062822266e+003,4.1303847656e+003,4.2230771484e+003,4.3408974609e+003,
9.2968750000e-001,4.0948718262e+003,3.8524357910e+003,4.0428205566e+003,4.0525642090e+003,4.0194870605e+003,4.1042309570e+003,4.0573076172e+003,4.0973076172e+003,4.0723076172e+003,3.7447436523e+003,3.9310256348e+003,3.8674357910e+003,3.9544870605e+003,4.0705129395e+003,
9.3750000000e-001,3.9887180176e+003,3.7056411133e+003,3.9156411133e+003,3.9246154785e+003,3.8779487305e+003,3.9553845215e+003,3.9350000000e+003,3.9673076172e+003,3.9321794434e+003,3.6041025391e+003,3.7978205566e+003,3.7382050781e+003,3.8244870605e+003,3.9430769043e+003,
9.4531250000e-001,3.9179487305e+003,3.6258974609e+003,3.8369230957e+003,3.8446154785e+003,3.7958974609e+003,3.8742307129e+003,3.8561538086e+003,3.8906411133e+003,3.8547436523e+003,3.5270512695e+003,3.7221794434e+003,3.6651281738e+003,3.7470512695e+003,3.8706411133e+003,
9.5312500000e-001,3.7570512695e+003,3.4396154785e+003,3.6596154785e+003,3.6688461914e+003,3.5944870605e+003,3.6976923828e+003,3.6767949219e+003,3.7008974609e+003,3.6658974609e+003,3.3373076172e+003,3.5389743652e+003,3.4956411133e+003,3.5624357910e+003,3.7003845215e+003,
9.6093750000e-001,3.6938461914e+003,3.3310256348e+003,3.5593588867e+003,3.5723076172e+003,3.4874357910e+003,3.5721794434e+003,3.5535898438e+003,3.5687180176e+003,3.5403845215e+003,3.2212819824e+003,3.4407692871e+003,3.4002563477e+003,3.4684614258e+003,3.6073076172e+003,
9.6875000000e-001,3.6676923828e+003,3.2956411133e+003,3.5253845215e+003,3.5356411133e+003,3.4571794434e+003,3.5369230957e+003,3.5170512695e+003,3.5275642090e+003,3.5033332520e+003,3.1876923828e+003,3.4035898438e+003,3.3646154785e+003,3.4374357910e+003,3.5758974609e+003,
9.7656250000e-001,3.6670512695e+003,3.2778205566e+003,3.5100000000e+003,3.5153845215e+003,3.4278205566e+003,3.5300000000e+003,3.4988461914e+003,3.4980769043e+003,3.4829487305e+003,3.1717949219e+003,3.3741025391e+003,3.3441025391e+003,3.4174357910e+003,3.5592307129e+003,
9.8437500000e-001,3.6891025391e+003,3.2929487305e+003,3.5241025391e+003,3.5319230957e+003,3.4320512695e+003,3.5475642090e+003,3.5112819824e+003,3.5085898438e+003,3.4994870605e+003,3.1878205566e+003,3.3837180176e+003,3.3574357910e+003,3.4275642090e+003,3.5701281738e+003,
9.9218750000e-001,3.6384614258e+003,3.2298718262e+003,3.4520512695e+003,3.4812819824e+003,3.3864101563e+003,3.4865385742e+003,3.4492307129e+003,3.4455129395e+003,3.4612819824e+003,3.1350000000e+003,3.3216667480e+003,3.2885898438e+003,3.3539743652e+003,3.4937180176e+003,
1.0000000000e+000,3.5880769043e+003,3.1750000000e+003,3.3958974609e+003,3.4320512695e+003,3.3491025391e+003,3.4432050781e+003,3.4051281738e+003,3.4015385742e+003,3.4215385742e+003,3.0880769043e+003,3.2711538086e+003,3.2319230957e+003,3.3006411133e+003,3.4383332520e+003,
1.0078125000e+000,3.5117949219e+003,3.0839743652e+003,3.3079487305e+003,3.3564101563e+003,3.2714101563e+003,3.3865385742e+003,3.3469230957e+003,3.3461538086e+003,3.3596154785e+003,3.0126923828e+003,3.1861538086e+003,3.1439743652e+003,3.2152563477e+003,3.3517949219e+003,
1.0156250000e+000,3.4992307129e+003,3.0617949219e+003,3.2891025391e+003,3.3414101563e+003,3.2450000000e+003,3.3752563477e+003,3.3389743652e+003,3.3387180176e+003,3.3455129395e+003,2.9930769043e+003,3.1635898438e+003,3.1252563477e+003,3.1933332520e+003,3.3321794434e+003,
1.0234375000e+000,3.5484614258e+003,3.0919230957e+003,3.3178205566e+003,3.3748718262e+003,3.2653845215e+003,3.3967949219e+003,3.3783332520e+003,3.3766667480e+003,3.3750000000e+003,3.0193588867e+003,3.1855129395e+003,3.1512819824e+003,3.2242307129e+003,3.3598718262e+003,
1.0312500000e+000,3.6007692871e+003,3.1428205566e+003,3.3641025391e+003,3.4235898438e+003,3.3143588867e+003,3.4414101563e+003,3.4265385742e+003,3.4234614258e+003,3.4202563477e+003,3.0698718262e+003,3.2317949219e+003,3.1973076172e+003,3.2788461914e+003,3.4083332520e+003,
1.0390625000e+000,3.6998718262e+003,3.2424357910e+003,3.4569230957e+003,3.5194870605e+003,3.4094870605e+003,3.5324357910e+003,3.5197436523e+003,3.5157692871e+003,3.5087180176e+003,3.1678205566e+003,3.3270512695e+003,3.2905129395e+003,3.3801281738e+003,3.5033332520e+003,
1.0468750000e+000,3.8558974609e+003,3.4016667480e+003,3.6053845215e+003,3.6711538086e+003,3.5606411133e+003,3.6765385742e+003,3.6653845215e+003,3.6625642090e+003,3.6500000000e+003,3.3235898438e+003,3.4843588867e+003,3.4414101563e+003,3.5361538086e+003,3.6534614258e+003,
1.0546875000e+000,4.4946152344e+003,4.0734614258e+003,4.2312822266e+003,4.2892309570e+003,4.1846152344e+003,4.2562822266e+003,4.2447436523e+003,4.2664101563e+003,4.2302563477e+003,3.9829487305e+003,4.1532050781e+003,4.0850000000e+003,4.1694873047e+003,4.2746152344e+003,
1.0625000000e+000,4.5474360352e+003,4.1341025391e+003,4.2906411133e+003,4.3424360352e+003,4.2416665039e+003,4.3056411133e+003,4.2916665039e+003,4.3160258789e+003,4.2739741211e+003,4.0397436523e+003,4.2057690430e+003,4.1426923828e+003,4.2264101563e+003,4.3293588867e+003,
1.0703125000e+000,4.6069228516e+003,4.2139741211e+003,4.3657690430e+003,4.4001284180e+003,4.3355126953e+003,4.3756411133e+003,4.3478203125e+003,4.3734614258e+003,4.3234614258e+003,4.1097436523e+003,4.2796152344e+003,4.2207690430e+003,4.3021796875e+003,4.4016665039e+003,
1.0781250000e+000,4.9547436523e+003,4.5825639648e+003,4.7161538086e+003,4.7426923828e+003,4.6807690430e+003,4.7171796875e+003,4.6765385742e+003,4.6912822266e+003,4.6502563477e+003,4.4625639648e+003,4.6476923828e+003,4.5775639648e+003,4.6514101563e+003,4.7503847656e+003,
1.0859375000e+000,5.1346152344e+003,4.7748715820e+003,4.8976923828e+003,4.9247436523e+003,4.8607690430e+003,4.8947436523e+003,4.8505126953e+003,4.8661538086e+003,4.8230771484e+003,4.6533334961e+003,4.8371796875e+003,4.7579487305e+003,4.8403847656e+003,4.9303847656e+003,
1.0937500000e+000,5.5293588867e+003,5.2223076172e+003,5.3205126953e+003,5.3256411133e+003,5.3162822266e+003,5.3184614258e+003,5.2657690430e+003,5.2924360352e+003,5.2383334961e+003,5.1080771484e+003,5.2711538086e+003,5.1767949219e+003,5.2830771484e+003,5.3451284180e+003,
1.1015625000e+000,5.6052563477e+003,5.3182050781e+003,5.4085898438e+003,5.4060258789e+003,5.4224360352e+003,5.4142309570e+003,5.3576923828e+003,5.3916665039e+003,5.3380771484e+003,5.2097436523e+003,5.3608974609e+003,5.2666665039e+003,5.3715385742e+003,5.4291025391e+003,
1.1093750000e+000,5.6202563477e+003,5.3655126953e+003,5.4482050781e+003,5.4452563477e+003,5.4829487305e+003,5.4760258789e+003,5.4116665039e+003,5.4605126953e+003,5.4083334961e+003,5.2729487305e+003,5.4082050781e+003,5.3097436523e+003,5.4033334961e+003,5.4578203125e+003,
1.1171875000e+000,5.5683334961e+003,5.3232050781e+003,5.4076923828e+003,5.4088461914e+003,5.4428203125e+003,5.4453847656e+003,5.3808974609e+003,5.4325639648e+003,5.3774360352e+003,5.2350000000e+003,5.3735898438e+003,5.2673076172e+003,5.3580771484e+003,5.4132050781e+003,
1.1250000000e+000,5.5525639648e+003,5.3367949219e+003,5.4121796875e+003,5.4102563477e+003,5.4425639648e+003,5.4657690430e+003,5.4114101563e+003,5.4642309570e+003,5.3983334961e+003,5.2432050781e+003,5.3892309570e+003,5.2676923828e+003,5.3703847656e+003,5.4225639648e+003,
1.1328125000e+000,5.4126923828e+003,5.2130771484e+003,5.3071796875e+003,5.2819228516e+003,5.3250000000e+003,5.3539741211e+003,5.2934614258e+003,5.3711538086e+003,5.3070512695e+003,5.1498715820e+003,5.2635898438e+003,5.1624360352e+003,5.2589741211e+003,5.3066665039e+003,
1.1406250000e+000,5.2614101563e+003,5.0596152344e+003,5.1634614258e+003,5.1419228516e+003,5.1789741211e+003,5.2115385742e+003,5.1520512695e+003,5.2307690430e+003,5.1667949219e+003,5.0021796875e+003,5.1148715820e+003,5.0162822266e+003,5.1117949219e+003,5.1607690430e+003,
1.1484375000e+000,5.1537177734e+003,4.9516665039e+003,5.0574360352e+003,5.0441025391e+003,5.0725639648e+003,5.1088461914e+003,5.0543588867e+003,5.1264101563e+003,5.0621796875e+003,4.8906411133e+003,5.0087177734e+003,4.9091025391e+003,5.0039741211e+003,5.0567949219e+003,
1.1562500000e+000,5.2183334961e+003,5.0257690430e+003,5.1205126953e+003,5.1103847656e+003,5.1316665039e+003,5.1691025391e+003,5.1247436523e+003,5.1797436523e+003,5.1125639648e+003,4.9448715820e+003,5.0793588867e+003,4.9769228516e+003,5.0648715820e+003,5.1278203125e+003,
1.1640625000e+000,5.3232050781e+003,5.1369228516e+003,5.2271796875e+003,5.2079487305e+003,5.2347436523e+003,5.2670512695e+003,5.2214101563e+003,5.2762822266e+003,5.2060258789e+003,5.0488461914e+003,5.1870512695e+003,5.0874360352e+003,5.1719228516e+003,5.2357690430e+003,
1.1718750000e+000,5.3960258789e+003,5.2144873047e+003,5.3025639648e+003,5.2742309570e+003,5.3085898438e+003,5.3326923828e+003,5.2819228516e+003,5.3411538086e+003,5.2683334961e+003,5.1211538086e+003,5.2601284180e+003,5.1652563477e+003,5.2491025391e+003,5.3106411133e+003,
1.1796875000e+000,6.0296152344e+003,5.8994873047e+003,5.9348715820e+003,5.9105126953e+003,5.9600000000e+003,5.9362822266e+003,5.8928203125e+003,5.9262822266e+003,5.8426923828e+003,5.7500000000e+003,5.9146152344e+003,5.7925639648e+003,5.9030771484e+003,5.9451284180e+003,
1.1875000000e+000,6.3215385742e+003,6.2120512695e+003,6.2335898438e+003,6.2011538086e+003,6.2669228516e+003,6.2262822266e+003,6.1771796875e+003,6.2165385742e+003,6.1282050781e+003,6.0628203125e+003,6.2223076172e+003,6.0900000000e+003,6.2110258789e+003,6.2373076172e+003,
1.1953125000e+000,6.3803847656e+003,6.3102563477e+003,6.3397436523e+003,6.2856411133e+003,6.3670512695e+003,6.3173076172e+003,6.2387177734e+003,6.3211538086e+003,6.2301284180e+003,6.1932050781e+003,6.3361538086e+003,6.2033334961e+003,6.3143588867e+003,6.3291025391e+003,
1.2031250000e+000,5.5879487305e+003,5.5248715820e+003,5.5829487305e+003,5.5352563477e+003,5.5684614258e+003,5.5939741211e+003,5.5264101563e+003,5.5762822266e+003,5.4956411133e+003,5.4084614258e+003,5.5555126953e+003,5.4442309570e+003,5.5378203125e+003,5.5708974609e+003,
1.2109375000e+000,5.5314101563e+003,5.4698715820e+003,5.5265385742e+003,5.4844873047e+003,5.5221796875e+003,5.5506411133e+003,5.4884614258e+003,5.5248715820e+003,5.4476923828e+003,5.3437177734e+003,5.4933334961e+003,5.3847436523e+003,5.4832050781e+003,5.5147436523e+003,
1.2187500000e+000,5.8376923828e+003,5.7908974609e+003,5.8273076172e+003,5.7955126953e+003,5.8746152344e+003,5.8653847656e+003,5.8006411133e+003,5.8625639648e+003,5.7838461914e+003,5.6687177734e+003,5.8075639648e+003,5.6900000000e+003,5.8017949219e+003,5.8210258789e+003,
1.2265625000e+000,5.8512822266e+003,5.8082050781e+003,5.8475639648e+003,5.8116665039e+003,5.8898715820e+003,5.8846152344e+003,5.8178203125e+003,5.8967949219e+003,5.8134614258e+003,5.7026923828e+003,5.8347436523e+003,5.7132050781e+003,5.8237177734e+003,5.8401284180e+003,
1.2343750000e+000,5.6533334961e+003,5.6115385742e+003,5.6667949219e+003,5.6197436523e+003,5.6832050781e+003,5.7042309570e+003,5.6405126953e+003,5.7274360352e+003,5.6407690430e+003,5.5280771484e+003,5.6535898438e+003,5.5323076172e+003,5.6411538086e+003,5.6521796875e+003,
1.2421875000e+000,5.5714101563e+003,5.5305126953e+003,5.5875639648e+003,5.5393588867e+003,5.6021796875e+003,5.6285898438e+003,5.5676923828e+003,5.6473076172e+003,5.5643588867e+003,5.4432050781e+003,5.5706411133e+003,5.4508974609e+003,5.5634614258e+003,5.5717949219e+003,
1.2500000000e+000,5.7116665039e+003,5.6817949219e+003,5.7214101563e+003,5.6858974609e+003,5.7600000000e+003,5.7729487305e+003,5.7073076172e+003,5.7844873047e+003,5.7110258789e+003,5.5744873047e+003,5.7052563477e+003,5.5896152344e+003,5.7087177734e+003,5.7179487305e+003,
1.2578125000e+000,5.7505126953e+003,5.7215385742e+003,5.7611538086e+003,5.7284614258e+003,5.7950000000e+003,5.8102563477e+003,5.7410258789e+003,5.8247436523e+003,5.7494873047e+003,5.6180771484e+003,5.7457690430e+003,5.6319228516e+003,5.7476923828e+003,5.7606411133e+003,
1.2656250000e+000,5.6667949219e+003,5.6342309570e+003,5.6824360352e+003,5.6502563477e+003,5.6939741211e+003,5.7205126953e+003,5.6475639648e+003,5.7365385742e+003,5.6575639648e+003,5.5380771484e+003,5.6700000000e+003,5.5541025391e+003,5.6657690430e+003,5.6851284180e+003,
1.2734375000e+000,5.5841025391e+003,5.5506411133e+003,5.6017949219e+003,5.5692309570e+003,5.6055126953e+003,5.6341025391e+003,5.5619228516e+003,5.6470512695e+003,5.5671796875e+003,5.4501284180e+003,5.5911538086e+003,5.4744873047e+003,5.5846152344e+003,5.6073076172e+003,
1.2812500000e+000,5.4657690430e+003,5.4279487305e+003,5.4923076172e+003,5.4437177734e+003,5.4826923828e+003,5.4966665039e+003,5.4334614258e+003,5.4951284180e+003,5.4155126953e+003,5.2980771484e+003,5.4600000000e+003,5.3656411133e+003,5.4597436523e+003,5.4947436523e+003,
1.2890625000e+000,5.4689741211e+003,5.4282050781e+003,5.4974360352e+003,5.4430771484e+003,5.4834614258e+003,5.4900000000e+003,5.4285898438e+003,5.4893588867e+003,5.4093588867e+003,5.2973076172e+003,5.4587177734e+003,5.3691025391e+003,5.4614101563e+003,5.4971796875e+003,
1.2968750000e+000,5.4358974609e+003,5.3917949219e+003,5.4652563477e+003,5.4097436523e+003,5.4434614258e+003,5.4487177734e+003,5.3878203125e+003,5.4510258789e+003,5.3705126953e+003,5.2652563477e+003,5.4256411133e+003,5.3358974609e+003,5.4294873047e+003,5.4639741211e+003,
1.3046875000e+000,4.8238461914e+003,4.7369228516e+003,4.8487177734e+003,4.8066665039e+003,4.7817949219e+003,4.8378203125e+003,4.7888461914e+003,4.8146152344e+003,4.7482050781e+003,4.6016665039e+003,4.7798715820e+003,4.7112822266e+003,4.7850000000e+003,4.8456411133e+003,
1.3125000000e+000,4.7980771484e+003,4.7019228516e+003,4.8175639648e+003,4.7725639648e+003,4.7539741211e+003,4.8121796875e+003,4.7648715820e+003,4.7906411133e+003,4.7270512695e+003,4.5724360352e+003,4.7437177734e+003,4.6801284180e+003,4.7516665039e+003,4.8165385742e+003,
1.3203125000e+000,4.7692309570e+003,4.6551284180e+003,4.7712822266e+003,4.7275639648e+003,4.7298715820e+003,4.7917949219e+003,4.7448715820e+003,4.7855126953e+003,4.7267949219e+003,4.5542309570e+003,4.7150000000e+003,4.6312822266e+003,4.7184614258e+003,4.7756411133e+003,
1.3281250000e+000,4.5721796875e+003,4.4497436523e+003,4.5617949219e+003,4.5416665039e+003,4.5394873047e+003,4.6150000000e+003,4.5644873047e+003,4.6184614258e+003,4.5653847656e+003,4.3630771484e+003,4.5048715820e+003,4.4320512695e+003,4.5232050781e+003,4.5750000000e+003,
1.3359375000e+000,4.5080771484e+003,4.3793588867e+003,4.4937177734e+003,4.4752563477e+003,4.4664101563e+003,4.5534614258e+003,4.5008974609e+003,4.5555126953e+003,4.5039741211e+003,4.2935898438e+003,4.4285898438e+003,4.3644873047e+003,4.4526923828e+003,4.5087177734e+003,
1.3437500000e+000,4.3703847656e+003,4.2165385742e+003,4.3382050781e+003,4.3135898438e+003,4.2901284180e+003,4.3971796875e+003,4.3466665039e+003,4.3993588867e+003,4.3547436523e+003,4.1298715820e+003,4.2751284180e+003,4.2023076172e+003,4.2865385742e+003,4.3552563477e+003,
1.3515625000e+000,4.3212822266e+003,4.1542309570e+003,4.2842309570e+003,4.2574360352e+003,4.2303847656e+003,4.3362822266e+003,4.2893588867e+003,4.3394873047e+003,4.2965385742e+003,4.0680769043e+003,4.2169228516e+003,4.1451284180e+003,4.2311538086e+003,4.3016665039e+003,
1.3593750000e+000,4.3139741211e+003,4.1247436523e+003,4.2629487305e+003,4.2407690430e+003,4.1997436523e+003,4.3064101563e+003,4.2617949219e+003,4.3058974609e+003,4.2624360352e+003,4.0385898438e+003,4.1853847656e+003,4.1201284180e+003,4.2150000000e+003,4.2844873047e+003,
1.3671875000e+000,4.3510258789e+003,4.1555126953e+003,4.2907690430e+003,4.2743588867e+003,4.2234614258e+003,4.3326923828e+003,4.2869228516e+003,4.3301284180e+003,4.2853847656e+003,4.0693588867e+003,4.2144873047e+003,4.1488461914e+003,4.2460258789e+003,4.3147436523e+003,
1.3750000000e+000,4.2020512695e+003,3.9828205566e+003,4.1282050781e+003,4.1169228516e+003,4.0433332520e+003,4.1471796875e+003,4.1062822266e+003,4.1500000000e+003,4.1044873047e+003,3.8898718262e+003,4.0467949219e+003,3.9902563477e+003,4.0632050781e+003,4.1524360352e+003,
1.3828125000e+000,4.0614101563e+003,3.8300000000e+003,3.9861538086e+003,3.9717949219e+003,3.8896154785e+003,3.9961538086e+003,3.9597436523e+003,3.9955129395e+003,3.9514101563e+003,3.7303845215e+003,3.8932050781e+003,3.8464101563e+003,3.9110256348e+003,4.0092307129e+003,
1.3906250000e+000,3.9160256348e+003,3.6617949219e+003,3.8315385742e+003,3.8085898438e+003,3.7082050781e+003,3.8288461914e+003,3.8033332520e+003,3.8107692871e+003,3.7698718262e+003,3.5458974609e+003,3.7157692871e+003,3.6833332520e+003,3.7491025391e+003,3.8528205566e+003,
1.3984375000e+000,3.9319230957e+003,3.6687180176e+003,3.8408974609e+003,3.8141025391e+003,3.7098718262e+003,3.8305129395e+003,3.8094870605e+003,3.8074357910e+003,3.7670512695e+003,3.5474357910e+003,3.7197436523e+003,3.6888461914e+003,3.7591025391e+003,3.8619230957e+003,
1.4062500000e+000,3.7862819824e+003,3.4903845215e+003,3.6814101563e+003,3.6594870605e+003,3.5508974609e+003,3.6510256348e+003,3.6337180176e+003,3.6421794434e+003,3.6020512695e+003,3.3776923828e+003,3.5556411133e+003,3.5324357910e+003,3.5942307129e+003,3.7020512695e+003,
1.4140625000e+000,3.6547436523e+003,3.3483332520e+003,3.5447436523e+003,3.5296154785e+003,3.4098718262e+003,3.5167949219e+003,3.5012819824e+003,3.5092307129e+003,3.4706411133e+003,3.2369230957e+003,3.4125642090e+003,3.4001281738e+003,3.4528205566e+003,3.5651281738e+003,
1.4218750000e+000,3.5764101563e+003,3.2624357910e+003,3.4588461914e+003,3.4492307129e+003,3.3157692871e+003,3.4370512695e+003,3.4242307129e+003,3.4247436523e+003,3.3894870605e+003,3.1483332520e+003,3.3198718262e+003,3.3164101563e+003,3.3625642090e+003,3.4787180176e+003,
1.4296875000e+000,3.5973076172e+003,3.2788461914e+003,3.4696154785e+003,3.4615385742e+003,3.3210256348e+003,3.4556411133e+003,3.4441025391e+003,3.4357692871e+003,3.4051281738e+003,3.1616667480e+003,3.3291025391e+003,3.3261538086e+003,3.3716667480e+003,3.4891025391e+003,
1.4375000000e+000,3.9237180176e+003,3.5946154785e+003,3.7644870605e+003,3.7441025391e+003,3.6673076172e+003,3.7766667480e+003,3.7505129395e+003,3.7687180176e+003,3.7526923828e+003,3.5124357910e+003,3.6632050781e+003,3.6176923828e+003,3.6920512695e+003,3.7924357910e+003,
1.4453125000e+000,3.6350000000e+003,3.2973076172e+003,3.4639743652e+003,3.4505129395e+003,3.3656411133e+003,3.5101281738e+003,3.4785898438e+003,3.5091025391e+003,3.4883332520e+003,3.2279487305e+003,3.3456411133e+003,3.3217949219e+003,3.4021794434e+003,3.4884614258e+003,
1.4531250000e+000,3.6141025391e+003,3.2697436523e+003,3.4391025391e+003,3.4224357910e+003,3.3356411133e+003,3.4903845215e+003,3.4575642090e+003,3.4833332520e+003,3.4626923828e+003,3.2007692871e+003,3.3226923828e+003,3.2960256348e+003,3.3721794434e+003,3.4634614258e+003,
1.4609375000e+000,3.7251281738e+003,3.3701281738e+003,3.5350000000e+003,3.5270512695e+003,3.4353845215e+003,3.5915385742e+003,3.5634614258e+003,3.5735898438e+003,3.5551281738e+003,3.2967949219e+003,3.4330769043e+003,3.3944870605e+003,3.4716667480e+003,3.5675642090e+003,
1.4687500000e+000,4.2623076172e+003,3.9225642090e+003,4.0532050781e+003,4.0525642090e+003,4.0205129395e+003,4.1012822266e+003,4.0732050781e+003,4.0914101563e+003,4.0519230957e+003,3.8451281738e+003,3.9716667480e+003,3.9264101563e+003,4.0110256348e+003,4.0878205566e+003,
1.4765625000e+000,4.3298715820e+003,3.9956411133e+003,4.1212822266e+003,4.1164101563e+003,4.0953845215e+003,4.1617949219e+003,4.1319228516e+003,4.1521796875e+003,4.1055126953e+003,3.9138461914e+003,4.0371794434e+003,3.9991025391e+003,4.0779487305e+003,4.1541025391e+003,
1.4843750000e+000,4.4605126953e+003,4.1382050781e+003,4.2576923828e+003,4.2498715820e+003,4.2255126953e+003,4.2775639648e+003,4.2489741211e+003,4.2660258789e+003,4.2165385742e+003,4.0442307129e+003,4.1755126953e+003,4.1364101563e+003,4.2158974609e+003,4.2862822266e+003,
1.4921875000e+000,4.5437177734e+003,4.2276923828e+003,4.3465385742e+003,4.3351284180e+003,4.3058974609e+003,4.3552563477e+003,4.3282050781e+003,4.3442309570e+003,4.2952563477e+003,4.1296152344e+003,4.2711538086e+003,4.2208974609e+003,4.3064101563e+003,4.3711538086e+003,
1.5000000000e+000,4.7733334961e+003,4.4788461914e+003,4.5869228516e+003,4.5534614258e+003,4.5389741211e+003,4.5751284180e+003,4.5478203125e+003,4.5776923828e+003,4.5201284180e+003,4.3810258789e+003,4.5335898438e+003,4.4591025391e+003,4.5538461914e+003,4.6079487305e+003,
1.5078125000e+000,4.7600000000e+003,4.4723076172e+003,4.5760258789e+003,4.5428203125e+003,4.5301284180e+003,4.5634614258e+003,4.5332050781e+003,4.5691025391e+003,4.5103847656e+003,4.3793588867e+003,4.5223076172e+003,4.4576923828e+003,4.5443588867e+003,4.6005126953e+003,
1.5156250000e+000,4.5043588867e+003,4.2237177734e+003,4.3343588867e+003,4.3079487305e+003,4.2783334961e+003,4.3223076172e+003,4.2862822266e+003,4.3237177734e+003,4.2737177734e+003,4.1374360352e+003,4.2644873047e+003,4.2307690430e+003,4.2901284180e+003,4.3584614258e+003,
1.5234375000e+000,4.3020512695e+003,4.0184614258e+003,4.1408974609e+003,4.1138461914e+003,4.0720512695e+003,4.1287177734e+003,4.0920512695e+003,4.1262822266e+003,4.0832050781e+003,3.9342307129e+003,4.0610256348e+003,4.0350000000e+003,4.0848718262e+003,4.1601284180e+003,
1.5312500000e+000,3.6953845215e+003,3.3733332520e+003,3.5406411133e+003,3.5103845215e+003,3.4319230957e+003,3.5419230957e+003,3.5116667480e+003,3.5287180176e+003,3.4991025391e+003,3.3019230957e+003,3.4344870605e+003,3.4132050781e+003,3.4656411133e+003,3.5496154785e+003,
1.5390625000e+000,3.5614101563e+003,3.2258974609e+003,3.4001281738e+003,3.3769230957e+003,3.2903845215e+003,3.4119230957e+003,3.3846154785e+003,3.3948718262e+003,3.3685898438e+003,3.1560256348e+003,3.2887180176e+003,3.2711538086e+003,3.3275642090e+003,3.4115385742e+003,
1.5468750000e+000,3.4838461914e+003,3.1397436523e+003,3.3125642090e+003,3.3000000000e+003,3.2115385742e+003,3.3369230957e+003,3.3110256348e+003,3.3176923828e+003,3.2960256348e+003,3.0700000000e+003,3.2007692871e+003,3.1856411133e+003,3.2461538086e+003,3.3294870605e+003,
1.5546875000e+000,3.3811538086e+003,2.9919230957e+003,3.1800000000e+003,3.1658974609e+003,3.0979487305e+003,3.2167949219e+003,3.2038461914e+003,3.2176923828e+003,3.2000000000e+003,2.9426923828e+003,3.0541025391e+003,3.0535898438e+003,3.0919230957e+003,3.1928205566e+003,
1.5625000000e+000,3.3566667480e+003,2.9566667480e+003,3.1493588867e+003,3.1376923828e+003,3.0633332520e+003,3.1856411133e+003,3.1737180176e+003,3.1855129395e+003,3.1673076172e+003,2.9097436523e+003,3.0266667480e+003,3.0210256348e+003,3.0617949219e+003,3.1615385742e+003,
1.5703125000e+000,3.3678205566e+003,2.9602563477e+003,3.1323076172e+003,3.1476923828e+003,3.0476923828e+003,3.1803845215e+003,3.1692307129e+003,3.1752563477e+003,3.1558974609e+003,2.8969230957e+003,3.0208974609e+003,3.0074357910e+003,3.0664101563e+003,3.1544870605e+003,
1.5781250000e+000,3.4037180176e+003,2.9920512695e+003,3.1633332520e+003,3.1798718262e+003,3.0762819824e+003,3.2092307129e+003,3.1992307129e+003,3.2037180176e+003,3.1842307129e+003,2.9303845215e+003,3.0478205566e+003,3.0394870605e+003,3.0965385742e+003,3.1846154785e+003,
1.5859375000e+000,3.3905129395e+003,2.9675642090e+003,3.1471794434e+003,3.1553845215e+003,3.0487180176e+003,3.1852563477e+003,3.1732050781e+003,3.1778205566e+003,3.1587180176e+003,2.9244870605e+003,3.0216667480e+003,3.0287180176e+003,3.0750000000e+003,3.1685898438e+003,
1.5937500000e+000,3.2161538086e+003,2.7760256348e+003,2.9543588867e+003,2.9662819824e+003,2.8656411133e+003,2.9819230957e+003,2.9776923828e+003,2.9628205566e+003,2.9412819824e+003,2.7041025391e+003,2.8253845215e+003,2.8343588867e+003,2.8723076172e+003,2.9773076172e+003,
1.6015625000e+000,3.2632050781e+003,2.8176923828e+003,2.9941025391e+003,3.0134614258e+003,2.9039743652e+003,3.0185898438e+003,3.0153845215e+003,2.9982050781e+003,2.9792307129e+003,2.7453845215e+003,2.8719230957e+003,2.8738461914e+003,2.9148718262e+003,3.0158974609e+003,
1.6093750000e+000,3.2684614258e+003,2.8148718262e+003,2.9941025391e+003,3.0194870605e+003,2.8752563477e+003,3.0124357910e+003,3.0041025391e+003,2.9862819824e+003,2.9741025391e+003,2.7525642090e+003,2.8779487305e+003,2.8726923828e+003,2.9188461914e+003,3.0166667480e+003,
1.6171875000e+000,3.2201281738e+003,2.7658974609e+003,2.9434614258e+003,2.9685898438e+003,2.8173076172e+003,2.9616667480e+003,2.9506411133e+003,2.9296154785e+003,2.9205129395e+003,2.7007692871e+003,2.8217949219e+003,2.8202563477e+003,2.8678205566e+003,2.9667949219e+003,
1.6250000000e+000,3.2869230957e+003,2.8326923828e+003,2.9892307129e+003,3.0166667480e+003,2.9057692871e+003,3.0117949219e+003,3.0033332520e+003,2.9828205566e+003,2.9756411133e+003,2.7561538086e+003,2.8557692871e+003,2.8688461914e+003,2.9137180176e+003,3.0128205566e+003,
1.6328125000e+000,3.3587180176e+003,2.9011538086e+003,3.0560256348e+003,3.0846154785e+003,2.9797436523e+003,3.0793588867e+003,3.0714101563e+003,3.0567949219e+003,3.0497436523e+003,2.8346154785e+003,2.9283332520e+003,2.9384614258e+003,2.9847436523e+003,3.0811538086e+003,
1.6406250000e+000,3.3988461914e+003,2.9382050781e+003,3.0933332520e+003,3.1253845215e+003,3.0124357910e+003,3.1280769043e+003,3.1148718262e+003,3.1051281738e+003,3.1001281738e+003,2.8903845215e+003,2.9853845215e+003,2.9767949219e+003,3.0342307129e+003,3.1228205566e+003,
1.6484375000e+000,3.3647436523e+003,2.9062819824e+003,3.0593588867e+003,3.0933332520e+003,2.9791025391e+003,3.1028205566e+003,3.0875642090e+003,3.0779487305e+003,3.0733332520e+003,2.8628205566e+003,2.9607692871e+003,2.9437180176e+003,3.0038461914e+003,3.0896154785e+003,
1.6562500000e+000,3.0525642090e+003,2.5837180176e+003,2.7506411133e+003,2.7770512695e+003,2.6712819824e+003,2.8103845215e+003,2.8023076172e+003,2.8084614258e+003,2.8041025391e+003,2.5726923828e+003,2.6507692871e+003,2.6491025391e+003,2.6857692871e+003,2.7755129395e+003,
1.6640625000e+000,2.8984614258e+003,2.4151281738e+003,2.5960256348e+003,2.6173076172e+003,2.5057692871e+003,2.6607692871e+003,2.6553845215e+003,2.6639743652e+003,2.6633332520e+003,2.4175642090e+003,2.4879487305e+003,2.4946154785e+003,2.5256411133e+003,2.6187180176e+003,
1.6718750000e+000,2.7610256348e+003,2.2617949219e+003,2.4550000000e+003,2.4747436523e+003,2.3521794434e+003,2.5256411133e+003,2.5217949219e+003,2.5269230957e+003,2.5314101563e+003,2.2720512695e+003,2.3405129395e+003,2.3496154785e+003,2.3814101563e+003,2.4766667480e+003,
1.6796875000e+000,2.6593588867e+003,2.1464101563e+003,2.3462819824e+003,2.3701281738e+003,2.2351281738e+003,2.4220512695e+003,2.4192307129e+003,2.4174357910e+003,2.4266667480e+003,2.1583332520e+003,2.2292307129e+003,2.2366667480e+003,2.2730769043e+003,2.3697436523e+003,
1.6875000000e+000,2.4423076172e+003,1.9030769043e+003,2.0933332520e+003,2.1432050781e+003,1.9770512695e+003,2.1564101563e+003,2.1642307129e+003,2.1570512695e+003,2.1744870605e+003,1.8983333740e+003,1.9715384521e+003,1.9866666260e+003,2.0302564697e+003,2.1325642090e+003,
1.6953125000e+000,2.4453845215e+003,1.8651281738e+003,2.0647436523e+003,2.1012819824e+003,1.9201281738e+003,2.1106411133e+003,2.1217949219e+003,2.0855129395e+003,2.0996154785e+003,1.8443590088e+003,1.9280769043e+003,1.9526922607e+003,1.9882050781e+003,2.0991025391e+003,
1.7031250000e+000,2.4937180176e+003,1.9088461914e+003,2.1034614258e+003,2.1487180176e+003,1.9671794434e+003,2.1435898438e+003,2.1570512695e+003,2.1178205566e+003,2.1289743652e+003,1.8819230957e+003,1.9689743652e+003,1.9920512695e+003,2.0293590088e+003,2.1388461914e+003,
1.7109375000e+000,2.5660256348e+003,1.9841025391e+003,2.1598718262e+003,2.2288461914e+003,2.0500000000e+003,2.2007692871e+003,2.2164101563e+003,2.1751281738e+003,2.1839743652e+003,1.9447435303e+003,2.0361538086e+003,2.0539743652e+003,2.0950000000e+003,2.2000000000e+003,
1.7187500000e+000,2.6435898438e+003,2.0491025391e+003,2.2238461914e+003,2.2901281738e+003,2.1208974609e+003,2.2685898438e+003,2.2753845215e+003,2.2367949219e+003,2.2520512695e+003,2.0265384521e+003,2.0962819824e+003,2.1238461914e+003,2.1606411133e+003,2.2585898438e+003,
1.7265625000e+000,2.5584614258e+003,1.9575640869e+003,2.1421794434e+003,2.2025642090e+003,2.0285897217e+003,2.1816667480e+003,2.1892307129e+003,2.1501281738e+003,2.1694870605e+003,1.9385897217e+003,2.0056409912e+003,2.0416666260e+003,2.0730769043e+003,2.1725642090e+003,
1.7343750000e+000,2.3735898438e+003,1.7635897217e+003,1.9576922607e+003,2.0161538086e+003,1.8311538086e+003,1.9979487305e+003,2.0084615479e+003,1.9612821045e+003,1.9905128174e+003,1.7411538086e+003,1.8176922607e+003,1.8544871826e+003,1.8742307129e+003,1.9841025391e+003,
1.7421875000e+000,2.3275642090e+003,1.7153846436e+003,1.9056409912e+003,1.9700000000e+003,1.7837178955e+003,1.9550000000e+003,1.9653846436e+003,1.9174359131e+003,1.9497435303e+003,1.6965384521e+003,1.7730769043e+003,1.8035897217e+003,1.8241025391e+003,1.9355128174e+003,
1.7500000000e+000,2.2951281738e+003,1.6803846436e+003,1.8657692871e+003,1.9385897217e+003,1.7517949219e+003,1.9264102783e+003,1.9365384521e+003,1.8917949219e+003,1.9246153564e+003,1.6715384521e+003,1.7402564697e+003,1.7673077393e+003,1.7932050781e+003,1.9011538086e+003,
1.7578125000e+000,2.2467949219e+003,1.6274359131e+003,1.8115384521e+003,1.8919230957e+003,1.7005128174e+003,1.8808974609e+003,1.8915384521e+003,1.8515384521e+003,1.8832050781e+003,1.6300000000e+003,1.6867949219e+003,1.7169230957e+003,1.7488461914e+003,1.8517949219e+003,
1.7656250000e+000,2.0492307129e+003,1.3903846436e+003,1.5901281738e+003,1.6824359131e+003,1.4496153564e+003,1.6538461914e+003,1.6774359131e+003,1.6397435303e+003,1.6767949219e+003,1.3979487305e+003,1.4479487305e+003,1.4933333740e+003,1.5094871826e+003,1.6257692871e+003,
1.7734375000e+000,2.0791025391e+003,1.4138461914e+003,1.6135897217e+003,1.7078205566e+003,1.4807692871e+003,1.6744871826e+003,1.7000000000e+003,1.6629487305e+003,1.7025640869e+003,1.4228205566e+003,1.4739743652e+003,1.5155128174e+003,1.5302564697e+003,1.6475640869e+003,
1.7812500000e+000,2.2205129395e+003,1.5487178955e+003,1.7370512695e+003,1.8458974609e+003,1.6361538086e+003,1.7998718262e+003,1.8251281738e+003,1.7915384521e+003,1.8306409912e+003,1.5684615479e+003,1.6076922607e+003,1.6446153564e+003,1.6852564697e+003,1.7798718262e+003,
1.7890625000e+000,2.2521794434e+003,1.5802564697e+003,1.7608974609e+003,1.8744871826e+003,1.6612821045e+003,1.8246153564e+003,1.8503846436e+003,1.8165384521e+003,1.8532050781e+003,1.5989743652e+003,1.6365384521e+003,1.6743590088e+003,1.7161538086e+003,1.8085897217e+003,
1.7968750000e+000,2.2993588867e+003,1.6269230957e+003,1.8003846436e+003,1.9106409912e+003,1.6866666260e+003,1.8541025391e+003,1.8846153564e+003,1.8501281738e+003,1.8783333740e+003,1.6420512695e+003,1.6820512695e+003,1.7232050781e+003,1.7480769043e+003,1.8497435303e+003,
1.8046875000e+000,2.2903845215e+003,1.6101281738e+003,1.7952564697e+003,1.9211538086e+003,1.6730769043e+003,1.8330769043e+003,1.8648718262e+003,1.8274359131e+003,1.8485897217e+003,1.6224359131e+003,1.6692307129e+003,1.7219230957e+003,1.7314102783e+003,1.8403846436e+003,
1.8125000000e+000,2.2962819824e+003,1.6151281738e+003,1.7967949219e+003,1.9291025391e+003,1.6807692871e+003,1.8369230957e+003,1.8671794434e+003,1.8248718262e+003,1.8453846436e+003,1.6224359131e+003,1.6708974609e+003,1.7247435303e+003,1.7321794434e+003,1.8417949219e+003,
1.8203125000e+000,2.3305129395e+003,1.6532050781e+003,1.8264102783e+003,1.9592307129e+003,1.7194871826e+003,1.8678205566e+003,1.8976922607e+003,1.8507692871e+003,1.8703846436e+003,1.6560256348e+003,1.7032050781e+003,1.7555128174e+003,1.7633333740e+003,1.8708974609e+003,
1.8281250000e+000,2.4293588867e+003,1.7660256348e+003,1.9230769043e+003,2.0456409912e+003,1.8269230957e+003,1.9626922607e+003,1.9930769043e+003,1.9435897217e+003,1.9635897217e+003,1.7712821045e+003,1.8088461914e+003,1.8530769043e+003,1.8710256348e+003,1.9656409912e+003,
1.8359375000e+000,2.3938461914e+003,1.7224359131e+003,1.8911538086e+003,2.0050000000e+003,1.7758974609e+003,1.9284615479e+003,1.9576922607e+003,1.9037178955e+003,1.9351281738e+003,1.7373077393e+003,1.7738461914e+003,1.8180769043e+003,1.8442307129e+003,1.9315384521e+003,
1.8437500000e+000,2.4080769043e+003,1.7358974609e+003,1.9021794434e+003,2.0171794434e+003,1.7928205566e+003,1.9423077393e+003,1.9703846436e+003,1.9123077393e+003,1.9467949219e+003,1.7455128174e+003,1.7833333740e+003,1.8280769043e+003,1.8541025391e+003,1.9424359131e+003,
1.8515625000e+000,2.5903845215e+003,1.9330769043e+003,2.0810256348e+003,2.1932050781e+003,2.0020512695e+003,2.1284614258e+003,2.1455129395e+003,2.1017949219e+003,2.1375642090e+003,1.9505128174e+003,1.9734615479e+003,2.0116666260e+003,2.0323077393e+003,2.1150000000e+003,
1.8593750000e+000,2.5437180176e+003,1.8869230957e+003,2.0367949219e+003,2.1470512695e+003,1.9569230957e+003,2.0882050781e+003,2.1021794434e+003,2.0664101563e+003,2.1030769043e+003,1.9157692871e+003,1.9330769043e+003,1.9712821045e+003,1.9888461914e+003,2.0697436523e+003,
1.8671875000e+000,2.3510256348e+003,1.6955128174e+003,1.8435897217e+003,1.9574359131e+003,1.7619230957e+003,1.9150000000e+003,1.9298718262e+003,1.8900000000e+003,1.9266666260e+003,1.7271794434e+003,1.7437178955e+003,1.7864102783e+003,1.8030769043e+003,1.8825640869e+003,
1.8750000000e+000,2.3567949219e+003,1.7071794434e+003,1.8462821045e+003,1.9648718262e+003,1.7691025391e+003,1.9282050781e+003,1.9458974609e+003,1.8970512695e+003,1.9315384521e+003,1.7292307129e+003,1.7480769043e+003,1.7920512695e+003,1.8128205566e+003,1.8893590088e+003,
1.8828125000e+000,2.4720512695e+003,1.8302564697e+003,1.9585897217e+003,2.0817949219e+003,1.8884615479e+003,2.0456409912e+003,2.0650000000e+003,2.0119230957e+003,2.0428205566e+003,1.8446153564e+003,1.8630769043e+003,1.9056409912e+003,1.9337178955e+003,2.0037178955e+003,
1.8906250000e+000,2.6350000000e+003,1.9996153564e+003,2.1205129395e+003,2.2467949219e+003,2.0570512695e+003,2.2064101563e+003,2.2244870605e+003,2.1771794434e+003,2.2044870605e+003,2.0153846436e+003,2.0293590088e+003,2.0675642090e+003,2.1043588867e+003,2.1650000000e+003,
1.8984375000e+000,2.3632050781e+003,1.7285897217e+003,1.8693590088e+003,1.9980769043e+003,1.7901281738e+003,1.9291025391e+003,1.9465384521e+003,1.9338461914e+003,1.9564102783e+003,1.7832050781e+003,1.7766666260e+003,1.8182050781e+003,1.8444871826e+003,1.9017949219e+003,
1.9062500000e+000,2.2125642090e+003,1.5783333740e+003,1.7192307129e+003,1.8498718262e+003,1.6285897217e+003,1.7748718262e+003,1.7996153564e+003,1.7750000000e+003,1.7984615479e+003,1.6230769043e+003,1.6208974609e+003,1.6707692871e+003,1.6869230957e+003,1.7532050781e+003,
1.9140625000e+000,2.1729487305e+003,1.5062821045e+003,1.6676922607e+003,1.7992307129e+003,1.5529487305e+003,1.7026922607e+003,1.7366666260e+003,1.6939743652e+003,1.7180769043e+003,1.5334615479e+003,1.5506409912e+003,1.6276922607e+003,1.6287178955e+003,1.7032050781e+003,
1.9218750000e+000,1.9634615479e+003,1.3261538086e+003,1.4543590088e+003,1.6020512695e+003,1.3696153564e+003,1.4720512695e+003,1.5051281738e+003,1.4588461914e+003,1.4861538086e+003,1.3405128174e+003,1.3553846436e+003,1.4126922607e+003,1.4175640869e+003,1.4832050781e+003,
1.9296875000e+000,1.9184615479e+003,1.2894871826e+003,1.4048718262e+003,1.5552564697e+003,1.3226922607e+003,1.4241025391e+003,1.4583333740e+003,1.4062821045e+003,1.4373077393e+003,1.3020512695e+003,1.3106409912e+003,1.3616666260e+003,1.3729487305e+003,1.4335897217e+003,
1.9375000000e+000,1.9206409912e+003,1.2429487305e+003,1.4030769043e+003,1.5465384521e+003,1.2914102783e+003,1.4346153564e+003,1.4723077393e+003,1.4061538086e+003,1.4437178955e+003,1.2632050781e+003,1.2667949219e+003,1.3656409912e+003,1.3517949219e+003,1.4296153564e+003,
1.9453125000e+000,1.9279487305e+003,1.2430769043e+003,1.4083333740e+003,1.5588461914e+003,1.2984615479e+003,1.4439743652e+003,1.4823077393e+003,1.4133333740e+003,1.4528205566e+003,1.2610256348e+003,1.2650000000e+003,1.3732050781e+003,1.3453846436e+003,1.4334615479e+003,
1.9531250000e+000,1.9987178955e+003,1.3388461914e+003,1.4643590088e+003,1.6489743652e+003,1.3851281738e+003,1.5133333740e+003,1.5502564697e+003,1.4826922607e+003,1.5289743652e+003,1.3600000000e+003,1.3576922607e+003,1.4287178955e+003,1.4200000000e+003,1.4937178955e+003,
1.9609375000e+000,2.1114101563e+003,1.4467949219e+003,1.5746153564e+003,1.7564102783e+003,1.5062821045e+003,1.6466666260e+003,1.6807692871e+003,1.6173077393e+003,1.6616666260e+003,1.4820512695e+003,1.4741025391e+003,1.5428205566e+003,1.5583333740e+003,1.6111538086e+003,
1.9687500000e+000,2.1351281738e+003,1.4767949219e+003,1.5996153564e+003,1.7787178955e+003,1.5394871826e+003,1.6764102783e+003,1.7102564697e+003,1.6498718262e+003,1.6930769043e+003,1.5120512695e+003,1.4992307129e+003,1.5717949219e+003,1.5776922607e+003,1.6347435303e+003,
1.9765625000e+000,2.1406411133e+003,1.4884615479e+003,1.6055128174e+003,1.7838461914e+003,1.5533333740e+003,1.6832050781e+003,1.7171794434e+003,1.6594871826e+003,1.7028205566e+003,1.5244871826e+003,1.5047435303e+003,1.5803846436e+003,1.5752564697e+003,1.6376922607e+003,
1.9843750000e+000,2.1370512695e+003,1.4861538086e+003,1.6005128174e+003,1.7806409912e+003,1.5537178955e+003,1.6771794434e+003,1.7106409912e+003,1.6548718262e+003,1.6997435303e+003,1.5246153564e+003,1.4985897217e+003,1.5755128174e+003,1.5658974609e+003,1.6301281738e+003,
1.9921875000e+000,2.2087180176e+003,1.5614102783e+003,1.6605128174e+003,1.8491025391e+003,1.6242307129e+003,1.7375640869e+003,1.7662821045e+003,1.7242307129e+003,1.7729487305e+003,1.6080769043e+003,1.5843590088e+003,1.6400000000e+003,1.6603846436e+003,1.7032050781e+003,
2.0000000000e+000,2.2393588867e+003,1.5911538086e+003,1.6933333740e+003,1.8757692871e+003,1.6484615479e+003,1.7620512695e+003,1.7942307129e+003,1.7524359131e+003,1.7978205566e+003,1.6416666260e+003,1.6182050781e+003,1.6738461914e+003,1.6870512695e+003,1.7344871826e+003,
2.0078125000e+000,2.4841025391e+003,1.8347435303e+003,1.9398718262e+003,2.1091025391e+003,1.8716666260e+003,1.9751281738e+003,2.0114102783e+003,1.9644871826e+003,2.0017949219e+003,1.8782050781e+003,1.8539743652e+003,1.9138461914e+003,1.9197435303e+003,1.9646153564e+003,
2.0156250000e+000,2.6916667480e+003,2.0810256348e+003,2.1556411133e+003,2.3185898438e+003,2.1124357910e+003,2.1737180176e+003,2.2087180176e+003,2.1697436523e+003,2.1924357910e+003,2.1033332520e+003,2.0796154785e+003,2.1361538086e+003,2.1435898438e+003,2.1807692871e+003,
2.0234375000e+000,2.7319230957e+003,2.1289743652e+003,2.2008974609e+003,2.3623076172e+003,2.1652563477e+003,2.2167949219e+003,2.2557692871e+003,2.2123076172e+003,2.2315385742e+003,2.1491025391e+003,2.1265385742e+003,2.1833332520e+003,2.1867949219e+003,2.2250000000e+003,
2.0312500000e+000,3.2003845215e+003,2.6275642090e+003,2.6723076172e+003,2.8451281738e+003,2.6691025391e+003,2.6898718262e+003,2.7338461914e+003,2.6692307129e+003,2.6887180176e+003,2.6291025391e+003,2.6179487305e+003,2.6580769043e+003,2.6676923828e+003,2.6930769043e+003,
2.0390625000e+000,3.4658974609e+003,2.9173076172e+003,2.9400000000e+003,3.1138461914e+003,2.9550000000e+003,2.9606411133e+003,2.9998718262e+003,2.9400000000e+003,2.9573076172e+003,2.9116667480e+003,2.9005129395e+003,2.9264101563e+003,2.9442307129e+003,2.9607692871e+003,
2.0468750000e+000,3.9219230957e+003,3.4307692871e+003,3.4174357910e+003,3.5692307129e+003,3.4593588867e+003,3.4457692871e+003,3.4721794434e+003,3.4374357910e+003,3.4441025391e+003,3.4353845215e+003,3.4017949219e+003,3.4060256348e+003,3.4366667480e+003,3.4333332520e+003,
2.0546875000e+000,4.0570512695e+003,3.5885898438e+003,3.5706411133e+003,3.7055129395e+003,3.6148718262e+003,3.6019230957e+003,3.6237180176e+003,3.6002563477e+003,3.6014101563e+003,3.6084614258e+003,3.5593588867e+003,3.5605129395e+003,3.5942307129e+003,3.5808974609e+003,
2.0625000000e+000,4.1748715820e+003,3.7574357910e+003,3.7352563477e+003,3.8650000000e+003,3.7821794434e+003,3.7871794434e+003,3.7870512695e+003,3.7871794434e+003,3.7800000000e+003,3.8019230957e+003,3.7408974609e+003,3.7311538086e+003,3.7706411133e+003,3.7384614258e+003,
2.0703125000e+000,4.1382050781e+003,3.7384614258e+003,3.7096154785e+003,3.8506411133e+003,3.7647436523e+003,3.7714101563e+003,3.7637180176e+003,3.7705129395e+003,3.7633332520e+003,3.7835898438e+003,3.7266667480e+003,3.7098718262e+003,3.7461538086e+003,3.7174357910e+003,
2.0781250000e+000,3.8007692871e+003,3.4337180176e+003,3.4128205566e+003,3.5520512695e+003,3.4660256348e+003,3.4787180176e+003,3.4741025391e+003,3.4858974609e+003,3.4889743652e+003,3.4925642090e+003,3.4292307129e+003,3.4176923828e+003,3.4375642090e+003,3.4262819824e+003,
2.0859375000e+000,3.6574357910e+003,3.2929487305e+003,3.2824357910e+003,3.4097436523e+003,3.3221794434e+003,3.3457692871e+003,3.3448718262e+003,3.3550000000e+003,3.3634614258e+003,3.3569230957e+003,3.2869230957e+003,3.2829487305e+003,3.3056411133e+003,3.2935898438e+003,
2.0937500000e+000,3.4194870605e+003,3.0552563477e+003,3.0612819824e+003,3.1757692871e+003,3.0766667480e+003,3.1266667480e+003,3.1289743652e+003,3.1307692871e+003,3.1460256348e+003,3.1184614258e+003,3.0506411133e+003,3.0524357910e+003,3.0810256348e+003,3.0700000000e+003,
2.1015625000e+000,3.3526923828e+003,2.9896154785e+003,2.9982050781e+003,3.1124357910e+003,3.0114101563e+003,3.0644870605e+003,3.0691025391e+003,3.0642307129e+003,3.0814101563e+003,3.0464101563e+003,2.9860256348e+003,2.9869230957e+003,3.0137180176e+003,3.0070512695e+003,
2.1093750000e+000,3.3330769043e+003,2.9714101563e+003,2.9798718262e+003,3.0930769043e+003,2.9980769043e+003,3.0433332520e+003,3.0520512695e+003,3.0410256348e+003,3.0601281738e+003,3.0212819824e+003,2.9669230957e+003,2.9670512695e+003,2.9911538086e+003,2.9884614258e+003,
2.1171875000e+000,3.6605129395e+003,3.2994870605e+003,3.3087180176e+003,3.4247436523e+003,3.3271794434e+003,3.3421794434e+003,3.3564101563e+003,3.3417949219e+003,3.3460256348e+003,3.3526923828e+003,3.3005129395e+003,3.3101281738e+003,3.3315385742e+003,3.3252563477e+003,
2.1250000000e+000,3.7165385742e+003,3.3691025391e+003,3.3680769043e+003,3.4887180176e+003,3.3850000000e+003,3.3985898438e+003,3.4098718262e+003,3.3969230957e+003,3.3989743652e+003,3.4201281738e+003,3.3707692871e+003,3.3773076172e+003,3.3923076172e+003,3.3893588867e+003,
2.1328125000e+000,3.5282050781e+003,3.2070512695e+003,3.2048718262e+003,3.3084614258e+003,3.2183332520e+003,3.2158974609e+003,3.2341025391e+003,3.2243588867e+003,3.2310256348e+003,3.2493588867e+003,3.2087180176e+003,3.2158974609e+003,3.2253845215e+003,3.2193588867e+003,
2.1406250000e+000,3.3310256348e+003,3.0015385742e+003,3.0196154785e+003,3.1179487305e+003,3.0055129395e+003,3.0282050781e+003,3.0556411133e+003,3.0346154785e+003,3.0370512695e+003,3.0441025391e+003,3.0074357910e+003,3.0234614258e+003,3.0423076172e+003,3.0317949219e+003,
2.1484375000e+000,3.3202563477e+003,2.9908974609e+003,3.0079487305e+003,3.1126923828e+003,2.9885898438e+003,3.0207692871e+003,3.0480769043e+003,3.0260256348e+003,3.0276923828e+003,3.0347436523e+003,2.9991025391e+003,3.0150000000e+003,3.0243588867e+003,3.0234614258e+003,
2.1562500000e+000,3.3047436523e+003,2.9755129395e+003,2.9950000000e+003,3.1035898438e+003,2.9947436523e+003,3.0160256348e+003,3.0433332520e+003,3.0198718262e+003,3.0302563477e+003,3.0180769043e+003,2.9782050781e+003,2.9971794434e+003,2.9988461914e+003,3.0041025391e+003,
2.1640625000e+000,3.3076923828e+003,2.9784614258e+003,2.9996154785e+003,3.1098718262e+003,3.0058974609e+003,3.0273076172e+003,3.0530769043e+003,3.0335898438e+003,3.0462819824e+003,3.0270512695e+003,2.9820512695e+003,3.0002563477e+003,3.0107692871e+003,3.0064101563e+003,
2.1718750000e+000,3.2307692871e+003,2.9067949219e+003,2.9275642090e+003,3.0466667480e+003,2.9297436523e+003,2.9741025391e+003,2.9930769043e+003,2.9835898438e+003,2.9991025391e+003,2.9715385742e+003,2.9153845215e+003,2.9332050781e+003,2.9466667480e+003,2.9389743652e+003,
2.1796875000e+000,3.1470512695e+003,2.8250000000e+003,2.8456411133e+003,2.9660256348e+003,2.8446154785e+003,2.8993588867e+003,2.9161538086e+003,2.9061538086e+003,2.9241025391e+003,2.8934614258e+003,2.8337180176e+003,2.8533332520e+003,2.8603845215e+003,2.8607692871e+003,
2.1875000000e+000,2.9792307129e+003,2.6496154785e+003,2.6780769043e+003,2.7929487305e+003,2.6898718262e+003,2.7439743652e+003,2.7603845215e+003,2.7379487305e+003,2.7617949219e+003,2.7230769043e+003,2.6587180176e+003,2.6835898438e+003,2.6860256348e+003,2.6932050781e+003,
2.1953125000e+000,2.9724357910e+003,2.6414101563e+003,2.6724357910e+003,2.7880769043e+003,2.6860256348e+003,2.7403845215e+003,2.7571794434e+003,2.7335898438e+003,2.7585898438e+003,2.7171794434e+003,2.6519230957e+003,2.6798718262e+003,2.6832050781e+003,2.6866667480e+003,
2.2031250000e+000,3.0293588867e+003,2.7002563477e+003,2.7276923828e+003,2.8448718262e+003,2.7407692871e+003,2.7892307129e+003,2.8101281738e+003,2.7896154785e+003,2.8232050781e+003,2.7803845215e+003,2.7139743652e+003,2.7441025391e+003,2.7382050781e+003,2.7520512695e+003,
2.2109375000e+000,3.0530769043e+003,2.7239743652e+003,2.7493588867e+003,2.8635898438e+003,2.7643588867e+003,2.8075642090e+003,2.8302563477e+003,2.8111538086e+003,2.8456411133e+003,2.8061538086e+003,2.7391025391e+003,2.7669230957e+003,2.7603845215e+003,2.7767949219e+003,
2.2187500000e+000,3.0491025391e+003,2.7166667480e+003,2.7416667480e+003,2.8532050781e+003,2.7525642090e+003,2.7953845215e+003,2.8193588867e+003,2.7997436523e+003,2.8308974609e+003,2.7975642090e+003,2.7319230957e+003,2.7578205566e+003,2.7584614258e+003,2.7664101563e+003,
2.2265625000e+000,3.0303845215e+003,2.6958974609e+003,2.7200000000e+003,2.8379487305e+003,2.7262819824e+003,2.7706411133e+003,2.7947436523e+003,2.7728205566e+003,2.8023076172e+003,2.7714101563e+003,2.7096154785e+003,2.7344870605e+003,2.7411538086e+003,2.7423076172e+003,
2.2343750000e+000,3.0178205566e+003,2.6823076172e+003,2.7051281738e+003,2.8325642090e+003,2.7061538086e+003,2.7496154785e+003,2.7747436523e+003,2.7494870605e+003,2.7779487305e+003,2.7508974609e+003,2.6932050781e+003,2.7185898438e+003,2.7289743652e+003,2.7261538086e+003,
2.2421875000e+000,2.9698718262e+003,2.6253845215e+003,2.6694870605e+003,2.7944870605e+003,2.6300000000e+003,2.6738461914e+003,2.7097436523e+003,2.6792307129e+003,2.6982050781e+003,2.6894870605e+003,2.6407692871e+003,2.6906411133e+003,2.6642307129e+003,2.6912819824e+003,
2.2500000000e+000,2.9248718262e+003,2.5830769043e+003,2.6229487305e+003,2.7534614258e+003,2.5857692871e+003,2.6267949219e+003,2.6642307129e+003,2.6360256348e+003,2.6542307129e+003,2.6462819824e+003,2.6003845215e+003,2.6450000000e+003,2.6217949219e+003,2.6442307129e+003,
2.2578125000e+000,2.7723076172e+003,2.4316667480e+003,2.4721794434e+003,2.6017949219e+003,2.4344870605e+003,2.4721794434e+003,2.5193588867e+003,2.4885898438e+003,2.5032050781e+003,2.4902563477e+003,2.4407692871e+003,2.4833332520e+003,2.4747436523e+003,2.4841025391e+003,
2.2656250000e+000,2.7411538086e+003,2.3956411133e+003,2.4408974609e+003,2.5706411133e+003,2.4050000000e+003,2.4438461914e+003,2.4937180176e+003,2.4587180176e+003,2.4726923828e+003,2.4548718262e+003,2.4028205566e+003,2.4502563477e+003,2.4391025391e+003,2.4521794434e+003,
2.2734375000e+000,2.6991025391e+003,2.3446154785e+003,2.3955129395e+003,2.5297436523e+003,2.3687180176e+003,2.4087180176e+003,2.4629487305e+003,2.4210256348e+003,2.4375642090e+003,2.4085898438e+003,2.3578205566e+003,2.4144870605e+003,2.3851281738e+003,2.4130769043e+003,
2.2812500000e+000,2.5173076172e+003,2.1582050781e+003,2.2152563477e+003,2.3441025391e+003,2.1967949219e+003,2.2570512695e+003,2.3042307129e+003,2.2673076172e+003,2.3002563477e+003,2.2412819824e+003,2.1746154785e+003,2.2276923828e+003,2.2051281738e+003,2.2293588867e+003,
2.2890625000e+000,2.4803845215e+003,2.1158974609e+003,2.1764101563e+003,2.3088461914e+003,2.1585898438e+003,2.2267949219e+003,2.2706411133e+003,2.2324357910e+003,2.2684614258e+003,2.2051281738e+003,2.1300000000e+003,2.1842307129e+003,2.1641025391e+003,2.1893588867e+003,
2.2968750000e+000,2.5147436523e+003,2.1417949219e+003,2.2014101563e+003,2.3444870605e+003,2.1842307129e+003,2.2633332520e+003,2.3048718262e+003,2.2594870605e+003,2.3034614258e+003,2.2384614258e+003,2.1569230957e+003,2.2092307129e+003,2.1892307129e+003,2.2176923828e+003,
2.3046875000e+000,2.5693588867e+003,2.1985898438e+003,2.2512819824e+003,2.3967949219e+003,2.2374357910e+003,2.3165385742e+003,2.3574357910e+003,2.3119230957e+003,2.3608974609e+003,2.2967949219e+003,2.2141025391e+003,2.2634614258e+003,2.2455129395e+003,2.2703845215e+003,
2.3125000000e+000,2.6391025391e+003,2.2794870605e+003,2.3184614258e+003,2.4501281738e+003,2.3138461914e+003,2.3787180176e+003,2.4130769043e+003,2.3780769043e+003,2.4342307129e+003,2.3773076172e+003,2.2853845215e+003,2.3419230957e+003,2.3223076172e+003,2.3407692871e+003,
2.3203125000e+000,2.6512819824e+003,2.2920512695e+003,2.3282050781e+003,2.4571794434e+003,2.3265385742e+003,2.3826923828e+003,2.4162819824e+003,2.3812819824e+003,2.4360256348e+003,2.3860256348e+003,2.2952563477e+003,2.3516667480e+003,2.3319230957e+003,2.3523076172e+003,
2.3281250000e+000,2.8653845215e+003,2.5155129395e+003,2.5282050781e+003,2.6532050781e+003,2.5312819824e+003,2.5685898438e+003,2.6061538086e+003,2.5625642090e+003,2.6087180176e+003,2.5864101563e+003,2.5138461914e+003,2.5512819824e+003,2.5443588867e+003,2.5567949219e+003,
2.3359375000e+000,2.9980769043e+003,2.6538461914e+003,2.6601281738e+003,2.7769230957e+003,2.6576923828e+003,2.6944870605e+003,2.7337180176e+003,2.6874357910e+003,2.7284614258e+003,2.7161538086e+003,2.6483332520e+003,2.6834614258e+003,2.6791025391e+003,2.6852563477e+003,
2.3437500000e+000,3.2946154785e+003,2.9624357910e+003,2.9615385742e+003,3.0569230957e+003,2.9538461914e+003,2.9785898438e+003,3.0170512695e+003,2.9738461914e+003,3.0021794434e+003,3.0191025391e+003,2.9492307129e+003,2.9869230957e+003,2.9823076172e+003,2.9805129395e+003,
2.3515625000e+000,3.4046154785e+003,3.0788461914e+003,3.0771794434e+003,3.1670512695e+003,3.0742307129e+003,3.0855129395e+003,3.1214101563e+003,3.0837180176e+003,3.1057692871e+003,3.1385898438e+003,3.0647436523e+003,3.1042307129e+003,3.0962819824e+003,3.0948718262e+003,
2.3593750000e+000,3.4710256348e+003,3.1515385742e+003,3.1505129395e+003,3.2403845215e+003,3.1544870605e+003,3.1517949219e+003,3.1856411133e+003,3.1525642090e+003,3.1683332520e+003,3.2134614258e+003,3.1388461914e+003,3.1785898438e+003,3.1650000000e+003,3.1662819824e+003,
2.3671875000e+000,3.5183332520e+003,3.2058974609e+003,3.2042307129e+003,3.2964101563e+003,3.2137180176e+003,3.2014101563e+003,3.2347436523e+003,3.2024357910e+003,3.2121794434e+003,3.2648718262e+003,3.1951281738e+003,3.2321794434e+003,3.2129487305e+003,3.2162819824e+003,
2.3750000000e+000,3.8306411133e+003,3.5764101563e+003,3.5405129395e+003,3.6083332520e+003,3.5462819824e+003,3.5424357910e+003,3.5707692871e+003,3.5455129395e+003,3.5443588867e+003,3.6212819824e+003,3.5529487305e+003,3.5729487305e+003,3.5637180176e+003,3.5457692871e+003,
2.3828125000e+000,3.3729487305e+003,3.1321794434e+003,3.1275642090e+003,3.2101281738e+003,3.1397436523e+003,3.1292307129e+003,3.1585898438e+003,3.1441025391e+003,3.1614101563e+003,3.2056411133e+003,3.1278205566e+003,3.1571794434e+003,3.1314101563e+003,3.1243588867e+003,
2.3906250000e+000,3.3011538086e+003,3.0641025391e+003,3.0597436523e+003,3.1465385742e+003,3.0691025391e+003,3.0675642090e+003,3.0980769043e+003,3.0760256348e+003,3.0966667480e+003,3.1332050781e+003,3.0567949219e+003,3.0858974609e+003,3.0652563477e+003,3.0541025391e+003,
2.3984375000e+000,3.2761538086e+003,3.0475642090e+003,3.0356411133e+003,3.1260256348e+003,3.0415385742e+003,3.0580769043e+003,3.0857692871e+003,3.0555129395e+003,3.0805129395e+003,3.1101281738e+003,3.0255129395e+003,3.0605129395e+003,3.0496154785e+003,3.0343588867e+003,
2.4062500000e+000,3.5916667480e+003,3.3771794434e+003,3.3510256348e+003,3.4375642090e+003,3.3893588867e+003,3.3875642090e+003,3.4019230957e+003,3.3724357910e+003,3.4073076172e+003,3.4430769043e+003,3.3729487305e+003,3.3791025391e+003,3.3689743652e+003,3.3587180176e+003,
2.4140625000e+000,3.6655129395e+003,3.4630769043e+003,3.4285898438e+003,3.5158974609e+003,3.4664101563e+003,3.4664101563e+003,3.4752563477e+003,3.4520512695e+003,3.4866667480e+003,3.5369230957e+003,3.4587180176e+003,3.4603845215e+003,3.4583332520e+003,3.4383332520e+003,
2.4218750000e+000,3.5824357910e+003,3.3975642090e+003,3.3570512695e+003,3.4475642090e+003,3.3725642090e+003,3.3926923828e+003,3.3943588867e+003,3.3893588867e+003,3.4215385742e+003,3.4857692871e+003,3.3828205566e+003,3.3957692871e+003,3.3993588867e+003,3.3683332520e+003,
2.4296875000e+000,3.4702563477e+003,3.2865385742e+003,3.2517949219e+003,3.3398718262e+003,3.2573076172e+003,3.2820512695e+003,3.2857692871e+003,3.2833332520e+003,3.3147436523e+003,3.3729487305e+003,3.2682050781e+003,3.2892307129e+003,3.2873076172e+003,3.2611538086e+003,
2.4375000000e+000,3.3484614258e+003,3.1673076172e+003,3.1392307129e+003,3.2219230957e+003,3.1630769043e+003,3.1558974609e+003,3.1706411133e+003,3.1552563477e+003,3.1837180176e+003,3.2310256348e+003,3.1492307129e+003,3.1638461914e+003,3.1565385742e+003,3.1465385742e+003,
2.4453125000e+000,3.3351281738e+003,3.1553845215e+003,3.1248718262e+003,3.2147436523e+003,3.1528205566e+003,3.1433332520e+003,3.1575642090e+003,3.1453845215e+003,3.1691025391e+003,3.2214101563e+003,3.1387180176e+003,3.1515385742e+003,3.1466667480e+003,3.1351281738e+003,
2.4531250000e+000,3.1782050781e+003,2.9864101563e+003,2.9761538086e+003,3.0753845215e+003,2.9782050781e+003,2.9934614258e+003,3.0151281738e+003,2.9967949219e+003,3.0069230957e+003,3.0505129395e+003,2.9620512695e+003,3.0071794434e+003,2.9880769043e+003,2.9823076172e+003,
2.4609375000e+000,3.2378205566e+003,3.0458974609e+003,3.0360256348e+003,3.1329487305e+003,3.0430769043e+003,3.0493588867e+003,3.0771794434e+003,3.0462819824e+003,3.0562819824e+003,3.0974357910e+003,3.0153845215e+003,3.0620512695e+003,3.0435898438e+003,3.0370512695e+003,
2.4687500000e+000,3.5834614258e+003,3.4084614258e+003,3.3755129395e+003,3.4692307129e+003,3.4094870605e+003,3.3846154785e+003,3.4158974609e+003,3.3750000000e+003,3.3838461914e+003,3.4455129395e+003,3.3757692871e+003,3.3960256348e+003,3.3941025391e+003,3.3743588867e+003,
2.4765625000e+000,3.7588461914e+003,3.5953845215e+003,3.5515385742e+003,3.6408974609e+003,3.5903845215e+003,3.5597436523e+003,3.5880769043e+003,3.5526923828e+003,3.5587180176e+003,3.6358974609e+003,3.5670512695e+003,3.5742307129e+003,3.5770512695e+003,3.5525642090e+003,
2.4843750000e+000,3.8747436523e+003,3.7212819824e+003,3.6730769043e+003,3.7547436523e+003,3.7091025391e+003,3.6803845215e+003,3.7048718262e+003,3.6779487305e+003,3.6807692871e+003,3.7687180176e+003,3.6979487305e+003,3.6989743652e+003,3.7005129395e+003,3.6747436523e+003,
2.4921875000e+000,3.9223076172e+003,3.7771794434e+003,3.7293588867e+003,3.8034614258e+003,3.7615385742e+003,3.7369230957e+003,3.7579487305e+003,3.7385898438e+003,3.7401281738e+003,3.8314101563e+003,3.7569230957e+003,3.7584614258e+003,3.7553845215e+003,3.7292307129e+003,
2.5000000000e+000,3.6585898438e+003,3.5360256348e+003,3.4891025391e+003,3.5653845215e+003,3.5141025391e+003,3.5132050781e+003,3.5302563477e+003,3.5115385742e+003,3.5298718262e+003,3.5955129395e+003,3.5034614258e+003,3.5253845215e+003,3.5151281738e+003,3.4817949219e+003,
2.5078125000e+000,3.5553845215e+003,3.4356411133e+003,3.3892307129e+003,3.4633332520e+003,3.4130769043e+003,3.4176923828e+003,3.4339743652e+003,3.4125642090e+003,3.4334614258e+003,3.4925642090e+003,3.4010256348e+003,3.4237180176e+003,3.4143588867e+003,3.3835898438e+003,
2.5156250000e+000,3.3664101563e+003,3.2364101563e+003,3.2069230957e+003,3.2732050781e+003,3.2302563477e+003,3.2465385742e+003,3.2585898438e+003,3.2324357910e+003,3.2582050781e+003,3.3029487305e+003,3.2203845215e+003,3.2379487305e+003,3.2350000000e+003,3.2028205566e+003,
2.5234375000e+000,3.4041025391e+003,3.2629487305e+003,3.2407692871e+003,3.3187180176e+003,3.2746154785e+003,3.2837180176e+003,3.3019230957e+003,3.2729487305e+003,3.3064101563e+003,3.3378205566e+003,3.2421794434e+003,3.2732050781e+003,3.2744870605e+003,3.2320512695e+003,
2.5312500000e+000,3.4491025391e+003,3.3144870605e+003,3.2843588867e+003,3.3603845215e+003,3.3311538086e+003,3.3261538086e+003,3.3435898438e+003,3.3205129395e+003,3.3528205566e+003,3.3865385742e+003,3.2901281738e+003,3.3202563477e+003,3.3174357910e+003,3.2788461914e+003,
2.5390625000e+000,3.5356411133e+003,3.4164101563e+003,3.3671794434e+003,3.4406411133e+003,3.4197436523e+003,3.4029487305e+003,3.4164101563e+003,3.4044870605e+003,3.4267949219e+003,3.4776923828e+003,3.3916667480e+003,3.4126923828e+003,3.4082050781e+003,3.3723076172e+003,
2.5468750000e+000,3.6046154785e+003,3.4830769043e+003,3.4434614258e+003,3.5175642090e+003,3.4788461914e+003,3.4744870605e+003,3.4897436523e+003,3.4741025391e+003,3.4894870605e+003,3.5483332520e+003,3.4521794434e+003,3.4903845215e+003,3.4862819824e+003,3.4388461914e+003,
2.5546875000e+000,3.6071794434e+003,3.4853845215e+003,3.4501281738e+003,3.5184614258e+003,3.4847436523e+003,3.4779487305e+003,3.4933332520e+003,3.4782050781e+003,3.4893588867e+003,3.5501281738e+003,3.4596154785e+003,3.4980769043e+003,3.4855129395e+003,3.4420512695e+003,
2.5625000000e+000,3.6508974609e+003,3.5342307129e+003,3.4974357910e+003,3.5628205566e+003,3.5215385742e+003,3.5082050781e+003,3.5316667480e+003,3.5147436523e+003,3.5180769043e+003,3.5930769043e+003,3.5179487305e+003,3.5448718262e+003,3.5311538086e+003,3.4862819824e+003,
2.5703125000e+000,3.6669230957e+003,3.5550000000e+003,3.5171794434e+003,3.5839743652e+003,3.5362819824e+003,3.5220512695e+003,3.5488461914e+003,3.5300000000e+003,3.5343588867e+003,3.6119230957e+003,3.5356411133e+003,3.5637180176e+003,3.5525642090e+003,3.5038461914e+003,
2.5781250000e+000,3.6723076172e+003,3.5664101563e+003,3.5280769043e+003,3.5934614258e+003,3.5460256348e+003,3.5303845215e+003,3.5575642090e+003,3.5370512695e+003,3.5433332520e+003,3.6211538086e+003,3.5429487305e+003,3.5737180176e+003,3.5624357910e+003,3.5125642090e+003,
2.5859375000e+000,3.6898718262e+003,3.5938461914e+003,3.5506411133e+003,3.6126923828e+003,3.5782050781e+003,3.5621794434e+003,3.5810256348e+003,3.5593588867e+003,3.5694870605e+003,3.6479487305e+003,3.5638461914e+003,3.5980769043e+003,3.5788461914e+003,3.5369230957e+003,
2.5937500000e+000,3.7571794434e+003,3.6584614258e+003,3.6217949219e+003,3.7010256348e+003,3.6383332520e+003,3.6376923828e+003,3.6544870605e+003,3.6320512695e+003,3.6443588867e+003,3.7216667480e+003,3.6326923828e+003,3.6689743652e+003,3.6443588867e+003,3.6053845215e+003,
2.6015625000e+000,3.7546154785e+003,3.6582050781e+003,3.6246154785e+003,3.7078205566e+003,3.6344870605e+003,3.6380769043e+003,3.6562819824e+003,3.6332050781e+003,3.6465385742e+003,3.7194870605e+003,3.6358974609e+003,3.6673076172e+003,3.6483332520e+003,3.6033332520e+003,
2.6093750000e+000,3.7453845215e+003,3.6564101563e+003,3.6207692871e+003,3.7062819824e+003,3.6342307129e+003,3.6364101563e+003,3.6541025391e+003,3.6306411133e+003,3.6447436523e+003,3.7142307129e+003,3.6361538086e+003,3.6591025391e+003,3.6474357910e+003,3.5966667480e+003,
2.6171875000e+000,3.7502563477e+003,3.6720512695e+003,3.6296154785e+003,3.7189743652e+003,3.6585898438e+003,3.6526923828e+003,3.6684614258e+003,3.6444870605e+003,3.6584614258e+003,3.7275642090e+003,3.6507692871e+003,3.6662819824e+003,3.6597436523e+003,3.6061538086e+003,
2.6250000000e+000,3.9092307129e+003,3.8439743652e+003,3.7912819824e+003,3.8976923828e+003,3.8396154785e+003,3.8225642090e+003,3.8324357910e+003,3.8215385742e+003,3.8364101563e+003,3.9173076172e+003,3.8234614258e+003,3.8433332520e+003,3.8319230957e+003,3.7789743652e+003,
2.6328125000e+000,3.5502563477e+003,3.4906411133e+003,3.4532050781e+003,3.5410256348e+003,3.4747436523e+003,3.4737180176e+003,3.4841025391e+003,3.4810256348e+003,3.5010256348e+003,3.5587180176e+003,3.4680769043e+003,3.4994870605e+003,3.4842307129e+003,3.4416667480e+003,
2.6406250000e+000,3.5323076172e+003,3.4711538086e+003,3.4339743652e+003,3.5305129395e+003,3.4638461914e+003,3.4578205566e+003,3.4717949219e+003,3.4625642090e+003,3.4821794434e+003,3.5393588867e+003,3.4515385742e+003,3.4788461914e+003,3.4638461914e+003,3.4247436523e+003,
2.6484375000e+000,3.6301281738e+003,3.5651281738e+003,3.5210256348e+003,3.6370512695e+003,3.5552563477e+003,3.5512819824e+003,3.5689743652e+003,3.5521794434e+003,3.5682050781e+003,3.6328205566e+003,3.5525642090e+003,3.5689743652e+003,3.5624357910e+003,3.5205129395e+003,
2.6562500000e+000,3.6896154785e+003,3.6269230957e+003,3.5788461914e+003,3.6970512695e+003,3.6120512695e+003,3.6069230957e+003,3.6242307129e+003,3.6085898438e+003,3.6212819824e+003,3.6908974609e+003,3.6124357910e+003,3.6296154785e+003,3.6257692871e+003,3.5810256348e+003,
2.6640625000e+000,3.6287180176e+003,3.5719230957e+003,3.5335898438e+003,3.6369230957e+003,3.5514101563e+003,3.5365385742e+003,3.5558974609e+003,3.5583332520e+003,3.5619230957e+003,3.6367949219e+003,3.5558974609e+003,3.5875642090e+003,3.5702563477e+003,3.5303845215e+003,
2.6718750000e+000,3.1455129395e+003,3.0574357910e+003,3.0550000000e+003,3.1635898438e+003,3.0378205566e+003,3.0569230957e+003,3.0917949219e+003,3.0741025391e+003,3.0857692871e+003,3.1317949219e+003,3.0478205566e+003,3.1020512695e+003,3.0661538086e+003,3.0482050781e+003,
2.6796875000e+000,3.0956411133e+003,3.0008974609e+003,2.9988461914e+003,3.1150000000e+003,2.9911538086e+003,3.0085898438e+003,3.0456411133e+003,3.0129487305e+003,3.0291025391e+003,3.0666667480e+003,2.9887180176e+003,3.0415385742e+003,3.0085898438e+003,2.9934614258e+003,
2.6875000000e+000,3.1491025391e+003,3.0534614258e+003,3.0450000000e+003,3.1656411133e+003,3.0538461914e+003,3.0619230957e+003,3.0976923828e+003,3.0567949219e+003,3.0758974609e+003,3.1115385742e+003,3.0403845215e+003,3.0851281738e+003,3.0593588867e+003,3.0414101563e+003,
2.6953125000e+000,3.3350000000e+003,3.2430769043e+003,3.2251281738e+003,3.3374357910e+003,3.2479487305e+003,3.2470512695e+003,3.2756411133e+003,3.2403845215e+003,3.2602563477e+003,3.3053845215e+003,3.2356411133e+003,3.2665385742e+003,3.2496154785e+003,3.2216667480e+003,
2.7031250000e+000,3.3802563477e+003,3.2876923828e+003,3.2707692871e+003,3.3783332520e+003,3.2879487305e+003,3.2935898438e+003,3.3197436523e+003,3.2874357910e+003,3.3075642090e+003,3.3558974609e+003,3.2796154785e+003,3.3117949219e+003,3.2947436523e+003,3.2650000000e+003,
2.7109375000e+000,3.6006411133e+003,3.5133332520e+003,3.4842307129e+003,3.5985898438e+003,3.5080769043e+003,3.5135898438e+003,3.5350000000e+003,3.4982050781e+003,3.5205129395e+003,3.5698718262e+003,3.4830769043e+003,3.5200000000e+003,3.5021794434e+003,3.4712819824e+003,
2.7187500000e+000,3.9085898438e+003,3.8515385742e+003,3.8000000000e+003,3.8885898438e+003,3.8361538086e+003,3.8302563477e+003,3.8421794434e+003,3.8232050781e+003,3.8388461914e+003,3.9106411133e+003,3.8208974609e+003,3.8466667480e+003,3.8223076172e+003,3.7889743652e+003,
2.7265625000e+000,3.9832050781e+003,3.9379487305e+003,3.8798718262e+003,3.9635898438e+003,3.9225642090e+003,3.9123076172e+003,3.9216667480e+003,3.9048718262e+003,3.9207692871e+003,3.9985898438e+003,3.9057692871e+003,3.9246154785e+003,3.9073076172e+003,3.8665385742e+003,
2.7343750000e+000,4.0694870605e+003,4.0351281738e+003,3.9716667480e+003,4.0556411133e+003,4.0208974609e+003,4.0039743652e+003,4.0116667480e+003,3.9948718262e+003,4.0114101563e+003,4.0946154785e+003,4.0008974609e+003,4.0103845215e+003,4.0055129395e+003,3.9535898438e+003,
2.7421875000e+000,4.1642309570e+003,4.1389741211e+003,4.0723076172e+003,4.1576923828e+003,4.1237177734e+003,4.1005126953e+003,4.1074360352e+003,4.0912819824e+003,4.1065385742e+003,4.1961538086e+003,4.1039741211e+003,4.1042309570e+003,4.1117949219e+003,4.0487180176e+003,
2.7500000000e+000,4.3232050781e+003,4.3343588867e+003,4.2537177734e+003,4.3361538086e+003,4.3070512695e+003,4.2789741211e+003,4.2743588867e+003,4.2703847656e+003,4.2703847656e+003,4.3838461914e+003,4.2971796875e+003,4.2983334961e+003,4.2942309570e+003,4.2320512695e+003,
2.7578125000e+000,4.4144873047e+003,4.4357690430e+003,4.3471796875e+003,4.4315385742e+003,4.4076923828e+003,4.3742309570e+003,4.3708974609e+003,4.3635898438e+003,4.3605126953e+003,4.4782050781e+003,4.3939741211e+003,4.3953847656e+003,4.3906411133e+003,4.3280771484e+003,
2.7656250000e+000,4.9442309570e+003,5.0039741211e+003,4.8912822266e+003,4.9555126953e+003,4.9607690430e+003,4.8847436523e+003,4.8905126953e+003,4.8984614258e+003,4.8867949219e+003,5.0387177734e+003,4.9535898438e+003,4.9394873047e+003,4.9526923828e+003,4.8700000000e+003,
2.7734375000e+000,4.8038461914e+003,4.9001284180e+003,4.7926923828e+003,4.8434614258e+003,4.8683334961e+003,4.7806411133e+003,4.7746152344e+003,4.7987177734e+003,4.7832050781e+003,4.9444873047e+003,4.8582050781e+003,4.8470512695e+003,4.8450000000e+003,4.7670512695e+003,
2.7812500000e+000,4.7456411133e+003,4.8493588867e+003,4.7420512695e+003,4.7982050781e+003,4.8208974609e+003,4.7369228516e+003,4.7294873047e+003,4.7467949219e+003,4.7317949219e+003,4.8898715820e+003,4.8065385742e+003,4.7946152344e+003,4.7962822266e+003,4.7160258789e+003,
2.7890625000e+000,4.8217949219e+003,4.9461538086e+003,4.8353847656e+003,4.8925639648e+003,4.9033334961e+003,4.8287177734e+003,4.8258974609e+003,4.8378203125e+003,4.8262822266e+003,4.9869228516e+003,4.9029487305e+003,4.8821796875e+003,4.8966665039e+003,4.8094873047e+003,
2.7968750000e+000,4.8265385742e+003,4.9632050781e+003,4.8610258789e+003,4.8976923828e+003,4.9144873047e+003,4.8601284180e+003,4.8511538086e+003,4.8628203125e+003,4.8479487305e+003,5.0043588867e+003,4.9210258789e+003,4.9014101563e+003,4.9048715820e+003,4.8258974609e+003,
2.8046875000e+000,4.8466665039e+003,4.9897436523e+003,4.8828203125e+003,4.9220512695e+003,4.9442309570e+003,4.8900000000e+003,4.8785898438e+003,4.8888461914e+003,4.8721796875e+003,5.0280771484e+003,4.9435898438e+003,4.9237177734e+003,4.9306411133e+003,4.8474360352e+003,
2.8125000000e+000,4.8702563477e+003,5.0223076172e+003,4.9093588867e+003,4.9538461914e+003,4.9824360352e+003,4.9216665039e+003,4.9093588867e+003,4.9205126953e+003,4.9038461914e+003,5.0587177734e+003,4.9738461914e+003,4.9526923828e+003,4.9632050781e+003,4.8764101563e+003,
2.8203125000e+000,4.8344873047e+003,5.0051284180e+003,4.8897436523e+003,4.9338461914e+003,4.9732050781e+003,4.9024360352e+003,4.8882050781e+003,4.9089741211e+003,4.8982050781e+003,5.0446152344e+003,4.9650000000e+003,4.9383334961e+003,4.9453847656e+003,4.8639741211e+003,
2.8281250000e+000,4.7589741211e+003,4.9341025391e+003,4.8234614258e+003,4.8601284180e+003,4.8989741211e+003,4.8378203125e+003,4.8210258789e+003,4.8451284180e+003,4.8369228516e+003,4.9791025391e+003,4.9014101563e+003,4.8717949219e+003,4.8758974609e+003,4.7991025391e+003,
2.8359375000e+000,4.6698715820e+003,4.8452563477e+003,4.7406411133e+003,4.7693588867e+003,4.8034614258e+003,4.7598715820e+003,4.7402563477e+003,4.7633334961e+003,4.7556411133e+003,4.8948715820e+003,4.8171796875e+003,4.7866665039e+003,4.7907690430e+003,4.7152563477e+003,
2.8437500000e+000,4.5993588867e+003,4.7721796875e+003,4.6732050781e+003,4.6969228516e+003,4.7255126953e+003,4.6974360352e+003,4.6761538086e+003,4.6947436523e+003,4.6862822266e+003,4.8226923828e+003,4.7443588867e+003,4.7152563477e+003,4.7221796875e+003,4.6446152344e+003,
2.8515625000e+000,4.7062822266e+003,4.8824360352e+003,4.7884614258e+003,4.8162822266e+003,4.8530771484e+003,4.7914101563e+003,4.7815385742e+003,4.7997436523e+003,4.7878203125e+003,4.9130771484e+003,4.8401284180e+003,4.8229487305e+003,4.8234614258e+003,4.7484614258e+003,
2.8593750000e+000,4.8317949219e+003,5.0207690430e+003,4.9242309570e+003,4.9355126953e+003,4.9929487305e+003,4.9271796875e+003,4.9160258789e+003,4.9434614258e+003,4.9151284180e+003,5.0707690430e+003,4.9924360352e+003,4.9632050781e+003,4.9721796875e+003,4.8911538086e+003,
2.8671875000e+000,4.8237177734e+003,5.0155126953e+003,4.9194873047e+003,4.9293588867e+003,4.9851284180e+003,4.9212822266e+003,4.9103847656e+003,4.9392309570e+003,4.9115385742e+003,5.0652563477e+003,4.9892309570e+003,4.9539741211e+003,4.9698715820e+003,4.8837177734e+003,
2.8750000000e+000,4.8315385742e+003,5.0325639648e+003,4.9384614258e+003,4.9458974609e+003,4.9903847656e+003,4.9332050781e+003,4.9244873047e+003,4.9471796875e+003,4.9233334961e+003,5.0693588867e+003,5.0037177734e+003,4.9710258789e+003,4.9805126953e+003,4.8991025391e+003,
2.8828125000e+000,4.9638461914e+003,5.1832050781e+003,5.0764101563e+003,5.0839741211e+003,5.1356411133e+003,5.0616665039e+003,5.0519228516e+003,5.0894873047e+003,5.0585898438e+003,5.2175639648e+003,5.1500000000e+003,5.1214101563e+003,5.1276923828e+003,5.0506411133e+003,
2.8906250000e+000,4.8516665039e+003,5.0696152344e+003,4.9711538086e+003,4.9757690430e+003,5.0234614258e+003,4.9506411133e+003,4.9426923828e+003,4.9874360352e+003,4.9574360352e+003,5.1073076172e+003,5.0360258789e+003,5.0156411133e+003,5.0146152344e+003,4.9419228516e+003,
2.8984375000e+000,4.5307690430e+003,4.7444873047e+003,4.6630771484e+003,4.6679487305e+003,4.6897436523e+003,4.6451284180e+003,4.6392309570e+003,4.6760258789e+003,4.6535898438e+003,4.7782050781e+003,4.7107690430e+003,4.7026923828e+003,4.6906411133e+003,4.6307690430e+003,
2.9062500000e+000,4.4148715820e+003,4.6266665039e+003,4.5489741211e+003,4.5570512695e+003,4.5648715820e+003,4.5411538086e+003,4.5326923828e+003,4.5596152344e+003,4.5424360352e+003,4.6569228516e+003,4.5967949219e+003,4.5866665039e+003,4.5748715820e+003,4.5197436523e+003,
2.9140625000e+000,4.3284614258e+003,4.5219228516e+003,4.4570512695e+003,4.4589741211e+003,4.4800000000e+003,4.4682050781e+003,4.4576923828e+003,4.4652563477e+003,4.4611538086e+003,4.5537177734e+003,4.5058974609e+003,4.4882050781e+003,4.4802563477e+003,4.4323076172e+003,
2.9218750000e+000,4.3653847656e+003,4.5537177734e+003,4.4885898438e+003,4.4884614258e+003,4.5267949219e+003,4.5000000000e+003,4.4924360352e+003,4.4978203125e+003,4.4960258789e+003,4.5866665039e+003,4.5341025391e+003,4.5178203125e+003,4.5143588867e+003,4.4637177734e+003,
2.9296875000e+000,4.4661538086e+003,4.6550000000e+003,4.5770512695e+003,4.5883334961e+003,4.6325639648e+003,4.5944873047e+003,4.5869228516e+003,4.5980771484e+003,4.5944873047e+003,4.6929487305e+003,4.6256411133e+003,4.6110258789e+003,4.6170512695e+003,4.5600000000e+003,
2.9375000000e+000,4.4724360352e+003,4.6617949219e+003,4.5807690430e+003,4.6014101563e+003,4.6297436523e+003,4.6021796875e+003,4.5908974609e+003,4.6084614258e+003,4.6019228516e+003,4.7043588867e+003,4.6328203125e+003,4.6184614258e+003,4.6237177734e+003,4.5680771484e+003,
2.9453125000e+000,4.1488461914e+003,4.3233334961e+003,4.2651284180e+003,4.2961538086e+003,4.2865385742e+003,4.2864101563e+003,4.2705126953e+003,4.2943588867e+003,4.2928203125e+003,4.3746152344e+003,4.3126923828e+003,4.3007690430e+003,4.2938461914e+003,4.2497436523e+003,
2.9531250000e+000,3.9793588867e+003,4.1452563477e+003,4.0974360352e+003,4.1271796875e+003,4.1171796875e+003,4.1183334961e+003,4.1067949219e+003,4.1238461914e+003,4.1266665039e+003,4.1960258789e+003,4.1385898438e+003,4.1301284180e+003,4.1223076172e+003,4.0811538086e+003,
2.9609375000e+000,3.8448718262e+003,4.0016667480e+003,3.9612819824e+003,3.9912819824e+003,3.9798718262e+003,3.9826923828e+003,3.9771794434e+003,3.9846154785e+003,3.9897436523e+003,4.0494870605e+003,3.9961538086e+003,3.9920512695e+003,3.9844870605e+003,3.9469230957e+003,
2.9687500000e+000,3.7837180176e+003,3.9311538086e+003,3.8947436523e+003,3.9274357910e+003,3.9117949219e+003,3.9161538086e+003,3.9160256348e+003,3.9152563477e+003,3.9200000000e+003,3.9748718262e+003,3.9256411133e+003,3.9244870605e+003,3.9178205566e+003,3.8839743652e+003,
2.9765625000e+000,4.0075642090e+003,4.1385898438e+003,4.0953845215e+003,4.1356411133e+003,4.1206411133e+003,4.1051284180e+003,4.1141025391e+003,4.1152563477e+003,4.1071796875e+003,4.1712822266e+003,4.1188461914e+003,4.1269228516e+003,4.1201284180e+003,4.0884614258e+003,
2.9843750000e+000,4.2401284180e+003,4.3742309570e+003,4.3133334961e+003,4.3624360352e+003,4.3269228516e+003,4.3207690430e+003,4.3333334961e+003,4.3335898438e+003,4.3176923828e+003,4.4053847656e+003,4.3692309570e+003,4.3476923828e+003,4.3523076172e+003,4.3094873047e+003,
2.9921875000e+000,4.2897436523e+003,4.4221796875e+003,4.3650000000e+003,4.4084614258e+003,4.3819228516e+003,4.3646152344e+003,4.3744873047e+003,4.3798715820e+003,4.3661538086e+003,4.4564101563e+003,4.4248715820e+003,4.3971796875e+003,4.4035898438e+003,4.3580771484e+003,
3.0000000000e+000,4.2839741211e+003,4.4160258789e+003,4.3662822266e+003,4.3869228516e+003,4.3902563477e+003,4.3575639648e+003,4.3612822266e+003,4.3732050781e+003,4.3687177734e+003,4.4525639648e+003,4.4088461914e+003,4.3912822266e+003,4.4000000000e+003,4.3521796875e+003,
3.0078125000e+000,4.2389741211e+003,4.3711538086e+003,4.3155126953e+003,4.3417949219e+003,4.3346152344e+003,4.3247436523e+003,4.3296152344e+003,4.3371796875e+003,4.3380771484e+003,4.4080771484e+003,4.3456411133e+003,4.3428203125e+003,4.3496152344e+003,4.3071796875e+003,
3.0156250000e+000,4.2551284180e+003,4.3850000000e+003,4.3323076172e+003,4.3611538086e+003,4.3480771484e+003,4.3403847656e+003,4.3420512695e+003,4.3488461914e+003,4.3517949219e+003,4.4224360352e+003,4.3624360352e+003,4.3608974609e+003,4.3624360352e+003,4.3233334961e+003,
3.0234375000e+000,4.2469228516e+003,4.3756411133e+003,4.3244873047e+003,4.3580771484e+003,4.3358974609e+003,4.3341025391e+003,4.3262822266e+003,4.3347436523e+003,4.3392309570e+003,4.4135898438e+003,4.3587177734e+003,4.3538461914e+003,4.3517949219e+003,4.3210258789e+003,
3.0312500000e+000,4.2025639648e+003,4.3310258789e+003,4.2801284180e+003,4.3189741211e+003,4.2901284180e+003,4.2921796875e+003,4.2820512695e+003,4.2926923828e+003,4.2953847656e+003,4.3694873047e+003,4.3178203125e+003,4.3094873047e+003,4.3084614258e+003,4.2815385742e+003,
3.0390625000e+000,3.9433332520e+003,4.0600000000e+003,4.0206411133e+003,4.0694870605e+003,4.0197436523e+003,4.0352563477e+003,4.0287180176e+003,4.0394870605e+003,4.0451281738e+003,4.0984614258e+003,4.0552563477e+003,4.0485898438e+003,4.0421794434e+003,4.0232050781e+003,
3.0468750000e+000,3.8687180176e+003,3.9778205566e+003,3.9444870605e+003,3.9910256348e+003,3.9380769043e+003,3.9587180176e+003,3.9538461914e+003,3.9593588867e+003,3.9680769043e+003,4.0138461914e+003,3.9730769043e+003,3.9706411133e+003,3.9593588867e+003,3.9457692871e+003,
3.0546875000e+000,3.8417949219e+003,3.9341025391e+003,3.9083332520e+003,3.9556411133e+003,3.9069230957e+003,3.9235898438e+003,3.9241025391e+003,3.9157692871e+003,3.9261538086e+003,3.9637180176e+003,3.9251281738e+003,3.9289743652e+003,3.9171794434e+003,3.9126923828e+003,
3.0625000000e+000,3.8851281738e+003,3.9725642090e+003,3.9450000000e+003,3.9976923828e+003,3.9541025391e+003,3.9629487305e+003,3.9652563477e+003,3.9542307129e+003,3.9639743652e+003,4.0007692871e+003,3.9585898438e+003,3.9635898438e+003,3.9583332520e+003,3.9519230957e+003,
3.0703125000e+000,3.9173076172e+003,4.0057692871e+003,3.9769230957e+003,4.0365385742e+003,3.9784614258e+003,3.9929487305e+003,3.9939743652e+003,3.9920512695e+003,3.9962819824e+003,4.0446154785e+003,3.9916667480e+003,3.9948718262e+003,3.9938461914e+003,3.9798718262e+003,
3.0781250000e+000,3.8478205566e+003,3.9311538086e+003,3.9112819824e+003,3.9696154785e+003,3.8982050781e+003,3.9216667480e+003,3.9238461914e+003,3.9208974609e+003,3.9210256348e+003,3.9723076172e+003,3.9253845215e+003,3.9291025391e+003,3.9203845215e+003,3.9132050781e+003,
3.0859375000e+000,3.7632050781e+003,3.8379487305e+003,3.8266667480e+003,3.8869230957e+003,3.8074357910e+003,3.8329487305e+003,3.8375642090e+003,3.8310256348e+003,3.8282050781e+003,3.8784614258e+003,3.8394870605e+003,3.8448718262e+003,3.8305129395e+003,3.8312819824e+003,
3.0937500000e+000,3.6832050781e+003,3.7501281738e+003,3.7425642090e+003,3.8082050781e+003,3.7285898438e+003,3.7473076172e+003,3.7552563477e+003,3.7451281738e+003,3.7416667480e+003,3.7878205566e+003,3.7543588867e+003,3.7623076172e+003,3.7466667480e+003,3.7520512695e+003,
3.1015625000e+000,3.4294870605e+003,3.4821794434e+003,3.4792307129e+003,3.5511538086e+003,3.4578205566e+003,3.4857692871e+003,3.4985898438e+003,3.4851281738e+003,3.4910256348e+003,3.5134614258e+003,3.4765385742e+003,3.5020512695e+003,3.4855129395e+003,3.4898718262e+003,
3.1093750000e+000,3.2256411133e+003,3.2319230957e+003,3.2492307129e+003,3.3365385742e+003,3.2170512695e+003,3.2605129395e+003,3.2838461914e+003,3.2687180176e+003,3.2917949219e+003,3.2802563477e+003,3.2433332520e+003,3.2742307129e+003,3.2611538086e+003,3.2646154785e+003,
3.1171875000e+000,3.2543588867e+003,3.2547436523e+003,3.2715385742e+003,3.3642307129e+003,3.2448718262e+003,3.2816667480e+003,3.3073076172e+003,3.2897436523e+003,3.3160256348e+003,3.3032050781e+003,3.2698718262e+003,3.2966667480e+003,3.2839743652e+003,3.2848718262e+003,
3.1250000000e+000,3.3300000000e+003,3.3235898438e+003,3.3358974609e+003,3.4357692871e+003,3.3141025391e+003,3.3521794434e+003,3.3674357910e+003,3.3538461914e+003,3.3814101563e+003,3.3737180176e+003,3.3423076172e+003,3.3634614258e+003,3.3547436523e+003,3.3470512695e+003,
3.1328125000e+000,3.3096154785e+003,3.3000000000e+003,3.3112819824e+003,3.4125642090e+003,3.2847436523e+003,3.3348718262e+003,3.3435898438e+003,3.3316667480e+003,3.3602563477e+003,3.3524357910e+003,3.3167949219e+003,3.3411538086e+003,3.3344870605e+003,3.3250000000e+003,
3.1406250000e+000,3.2175642090e+003,3.2007692871e+003,3.2021794434e+003,3.3051281738e+003,3.1735898438e+003,3.2450000000e+003,3.2555129395e+003,3.2283332520e+003,3.2593588867e+003,3.2456411133e+003,3.1946154785e+003,3.2301281738e+003,3.2301281738e+003,3.2253845215e+003,
3.1484375000e+000,3.4116667480e+003,3.3862819824e+003,3.3771794434e+003,3.4975642090e+003,3.3897436523e+003,3.4244870605e+003,3.4342307129e+003,3.4126923828e+003,3.4342307129e+003,3.4338461914e+003,3.3825642090e+003,3.4192307129e+003,3.4107692871e+003,3.4028205566e+003,
3.1562500000e+000,3.4306411133e+003,3.4016667480e+003,3.3950000000e+003,3.5164101563e+003,3.4073076172e+003,3.4414101563e+003,3.4508974609e+003,3.4307692871e+003,3.4524357910e+003,3.4533332520e+003,3.4046154785e+003,3.4405129395e+003,3.4298718262e+003,3.4212819824e+003,
3.1640625000e+000,3.6889743652e+003,3.6607692871e+003,3.6448718262e+003,3.7591025391e+003,3.6556411133e+003,3.6860256348e+003,3.7043588867e+003,3.6688461914e+003,3.6917949219e+003,3.6952563477e+003,3.6565385742e+003,3.6803845215e+003,3.6830769043e+003,3.6603845215e+003,
3.1718750000e+000,3.8619230957e+003,3.8414101563e+003,3.8144870605e+003,3.9252563477e+003,3.8302563477e+003,3.8532050781e+003,3.8706411133e+003,3.8379487305e+003,3.8547436523e+003,3.8700000000e+003,3.8337180176e+003,3.8521794434e+003,3.8546154785e+003,3.8280769043e+003,
3.1796875000e+000,4.0762819824e+003,4.0751281738e+003,4.0308974609e+003,4.1305126953e+003,4.0476923828e+003,4.0657692871e+003,4.0760256348e+003,4.0601281738e+003,4.0602563477e+003,4.1102563477e+003,4.0716667480e+003,4.0843588867e+003,4.0714101563e+003,4.0482050781e+003,
3.1875000000e+000,4.0802563477e+003,4.0848718262e+003,4.0406411133e+003,4.1334614258e+003,4.0530769043e+003,4.0729487305e+003,4.0816667480e+003,4.0708974609e+003,4.0662819824e+003,4.1271796875e+003,4.0834614258e+003,4.0993588867e+003,4.0792307129e+003,4.0585898438e+003,
3.1953125000e+000,3.9332050781e+003,3.9344870605e+003,3.9115385742e+003,3.9915385742e+003,3.9205129395e+003,3.9260256348e+003,3.9414101563e+003,3.9250000000e+003,3.9235898438e+003,3.9742307129e+003,3.9275642090e+003,3.9558974609e+003,3.9443588867e+003,3.9179487305e+003,
3.2031250000e+000,3.9160256348e+003,3.9162819824e+003,3.8953845215e+003,3.9775642090e+003,3.9039743652e+003,3.9069230957e+003,3.9226923828e+003,3.9041025391e+003,3.9043588867e+003,3.9528205566e+003,3.9120512695e+003,3.9346154785e+003,3.9270512695e+003,3.8997436523e+003,
3.2109375000e+000,3.9321794434e+003,3.9333332520e+003,3.9110256348e+003,3.9969230957e+003,3.9151281738e+003,3.9228205566e+003,3.9370512695e+003,3.9182050781e+003,3.9191025391e+003,3.9710256348e+003,3.9351281738e+003,3.9500000000e+003,3.9407692871e+003,3.9158974609e+003,
3.2187500000e+000,3.9691025391e+003,3.9725642090e+003,3.9476923828e+003,4.0351281738e+003,3.9446154785e+003,3.9614101563e+003,3.9725642090e+003,3.9566667480e+003,3.9570512695e+003,4.0152563477e+003,3.9803845215e+003,3.9911538086e+003,3.9756411133e+003,3.9544870605e+003,
3.2265625000e+000,3.8661538086e+003,3.8794870605e+003,3.8561538086e+003,3.9367949219e+003,3.8465385742e+003,3.8723076172e+003,3.8771794434e+003,3.8970512695e+003,3.9102563477e+003,3.9450000000e+003,3.8917949219e+003,3.9202563477e+003,3.9080769043e+003,3.8758974609e+003,
3.2343750000e+000,3.7312819824e+003,3.7396154785e+003,3.7246154785e+003,3.8083332520e+003,3.7125642090e+003,3.7425642090e+003,3.7493588867e+003,3.7697436523e+003,3.7888461914e+003,3.8112819824e+003,3.7548718262e+003,3.7884614258e+003,3.7762819824e+003,3.7455129395e+003,
3.2421875000e+000,3.4193588867e+003,3.3969230957e+003,3.4061538086e+003,3.5015385742e+003,3.3950000000e+003,3.4376923828e+003,3.4523076172e+003,3.4434614258e+003,3.4608974609e+003,3.4652563477e+003,3.4235898438e+003,3.4570512695e+003,3.4258974609e+003,3.4237180176e+003,
3.2500000000e+000,3.4685898438e+003,3.4458974609e+003,3.4488461914e+003,3.5457692871e+003,3.4400000000e+003,3.4867949219e+003,3.5029487305e+003,3.4794870605e+003,3.4966667480e+003,3.4964101563e+003,3.4701281738e+003,3.4898718262e+003,3.4785898438e+003,3.4719230957e+003,
3.2578125000e+000,3.5373076172e+003,3.5214101563e+003,3.5194870605e+003,3.6206411133e+003,3.5093588867e+003,3.5560256348e+003,3.5721794434e+003,3.5451281738e+003,3.5655129395e+003,3.5669230957e+003,3.5365385742e+003,3.5588461914e+003,3.5529487305e+003,3.5419230957e+003,
3.2656250000e+000,3.6947436523e+003,3.6985898438e+003,3.6757692871e+003,3.7870512695e+003,3.6844870605e+003,3.7100000000e+003,3.7202563477e+003,3.7056411133e+003,3.7243588867e+003,3.7456411133e+003,3.6917949219e+003,3.7191025391e+003,3.7060256348e+003,3.6933332520e+003,
3.2734375000e+000,3.3015385742e+003,3.2766667480e+003,3.2839743652e+003,3.3924357910e+003,3.2511538086e+003,3.3138461914e+003,3.3283332520e+003,3.3070512695e+003,3.3234614258e+003,3.3326923828e+003,3.2748718262e+003,3.3194870605e+003,3.3007692871e+003,3.2916667480e+003,
3.2812500000e+000,3.2202563477e+003,3.1870512695e+003,3.1961538086e+003,3.3120512695e+003,3.1564101563e+003,3.2282050781e+003,3.2424357910e+003,3.2133332520e+003,3.2324357910e+003,3.2348718262e+003,3.1842307129e+003,3.2293588867e+003,3.2137180176e+003,3.2042307129e+003,
3.2890625000e+000,3.2184614258e+003,3.1714101563e+003,3.1787180176e+003,3.2951281738e+003,3.1566667480e+003,3.2067949219e+003,3.2182050781e+003,3.1867949219e+003,3.2048718262e+003,3.2026923828e+003,3.1750000000e+003,3.2174357910e+003,3.1835898438e+003,3.1906411133e+003,
3.2968750000e+000,3.1603845215e+003,3.1029487305e+003,3.1202563477e+003,3.2335898438e+003,3.0964101563e+003,3.1408974609e+003,3.1567949219e+003,3.1261538086e+003,3.1444870605e+003,3.1394870605e+003,3.1117949219e+003,3.1558974609e+003,3.1198718262e+003,3.1303845215e+003,
3.3046875000e+000,2.9533332520e+003,2.8782050781e+003,2.9075642090e+003,3.0328205566e+003,2.8720512695e+003,2.9183332520e+003,2.9482050781e+003,2.9123076172e+003,2.9337180176e+003,2.9191025391e+003,2.8861538086e+003,2.9339743652e+003,2.9075642090e+003,2.9178205566e+003,
3.3125000000e+000,2.8926923828e+003,2.8128205566e+003,2.8410256348e+003,2.9733332520e+003,2.7985898438e+003,2.8500000000e+003,2.8852563477e+003,2.8446154785e+003,2.8673076172e+003,2.8487180176e+003,2.8153845215e+003,2.8660256348e+003,2.8392307129e+003,2.8532050781e+003,
3.3203125000e+000,2.8962819824e+003,2.8108974609e+003,2.8385898438e+003,2.9706411133e+003,2.7870512695e+003,2.8460256348e+003,2.8833332520e+003,2.8394870605e+003,2.8630769043e+003,2.8425642090e+003,2.8098718262e+003,2.8639743652e+003,2.8305129395e+003,2.8510256348e+003,
3.3281250000e+000,2.9900000000e+003,2.8867949219e+003,2.9228205566e+003,3.0408974609e+003,2.8550000000e+003,2.9300000000e+003,2.9619230957e+003,2.9219230957e+003,2.9491025391e+003,2.9289743652e+003,2.8906411133e+003,2.9491025391e+003,2.9057692871e+003,2.9298718262e+003,
3.3359375000e+000,3.0025642090e+003,2.8910256348e+003,2.9314101563e+003,3.0482050781e+003,2.8641025391e+003,2.9419230957e+003,2.9708974609e+003,2.9347436523e+003,2.9656411133e+003,2.9434614258e+003,2.8988461914e+003,2.9570512695e+003,2.9182050781e+003,2.9362819824e+003,
3.3437500000e+000,2.9841025391e+003,2.8687180176e+003,2.9089743652e+003,3.0314101563e+003,2.8502563477e+003,2.9248718262e+003,2.9530769043e+003,2.9184614258e+003,2.9528205566e+003,2.9261538086e+003,2.8761538086e+003,2.9330769043e+003,2.9028205566e+003,2.9142307129e+003,
3.3515625000e+000,3.1120512695e+003,2.9975642090e+003,3.0188461914e+003,3.1508974609e+003,3.0042307129e+003,3.0548718262e+003,3.0775642090e+003,3.0415385742e+003,3.0716667480e+003,3.0415385742e+003,2.9978205566e+003,3.0473076172e+003,3.0198718262e+003,3.0293588867e+003,
3.3593750000e+000,3.1575642090e+003,3.0388461914e+003,3.0616667480e+003,3.1885898438e+003,3.0367949219e+003,3.0980769043e+003,3.1188461914e+003,3.0814101563e+003,3.1116667480e+003,3.0860256348e+003,3.0387180176e+003,3.0923076172e+003,3.0646154785e+003,3.0715385742e+003,
3.3671875000e+000,3.1561538086e+003,3.0416667480e+003,3.0537180176e+003,3.1752563477e+003,3.0256411133e+003,3.0893588867e+003,3.1087180176e+003,3.0729487305e+003,3.1055129395e+003,3.0898718262e+003,3.0347436523e+003,3.0905129395e+003,3.0573076172e+003,3.0708974609e+003,
3.3750000000e+000,3.1164101563e+003,2.9997436523e+003,3.0152563477e+003,3.1310256348e+003,3.0067949219e+003,3.0484614258e+003,3.0739743652e+003,3.0219230957e+003,3.0571794434e+003,3.0402563477e+003,3.0008974609e+003,3.0442307129e+003,3.0138461914e+003,3.0257692871e+003,
3.3828125000e+000,3.2147436523e+003,3.0988461914e+003,3.1106411133e+003,3.2221794434e+003,3.1056411133e+003,3.1407692871e+003,3.1658974609e+003,3.1124357910e+003,3.1467949219e+003,3.1365385742e+003,3.0975642090e+003,3.1391025391e+003,3.1117949219e+003,3.1194870605e+003,
3.3906250000e+000,3.2108974609e+003,3.1015385742e+003,3.1075642090e+003,3.2135898438e+003,3.0825642090e+003,3.1311538086e+003,3.1479487305e+003,3.1153845215e+003,3.1442307129e+003,3.1521794434e+003,3.1017949219e+003,3.1453845215e+003,3.1217949219e+003,3.1229487305e+003,
3.3984375000e+000,2.8434614258e+003,2.7160256348e+003,2.7383332520e+003,2.8480769043e+003,2.7002563477e+003,2.7641025391e+003,2.7912819824e+003,2.7414101563e+003,2.7723076172e+003,2.7598718262e+003,2.7084614258e+003,2.7708974609e+003,2.7494870605e+003,2.7523076172e+003,
3.4062500000e+000,2.8888461914e+003,2.7546154785e+003,2.7801281738e+003,2.8864101563e+003,2.7441025391e+003,2.8017949219e+003,2.8332050781e+003,2.7800000000e+003,2.8126923828e+003,2.7982050781e+003,2.7523076172e+003,2.8125642090e+003,2.7896154785e+003,2.7928205566e+003,
3.4140625000e+000,2.9869230957e+003,2.8489743652e+003,2.8744870605e+003,2.9785898438e+003,2.8412819824e+003,2.8916667480e+003,2.9247436523e+003,2.8746154785e+003,2.9089743652e+003,2.8978205566e+003,2.8580769043e+003,2.9100000000e+003,2.8857692871e+003,2.8885898438e+003,
3.4218750000e+000,3.1567949219e+003,3.0194870605e+003,3.0347436523e+003,3.1478205566e+003,3.0110256348e+003,3.0512819824e+003,3.0833332520e+003,3.0465385742e+003,3.0806411133e+003,3.0829487305e+003,3.0471794434e+003,3.0802563477e+003,3.0584614258e+003,3.0588461914e+003,
3.4296875000e+000,3.4273076172e+003,3.3024357910e+003,3.2933332520e+003,3.4091025391e+003,3.2816667480e+003,3.3198718262e+003,3.3484614258e+003,3.3188461914e+003,3.3407692871e+003,3.3533332520e+003,3.3071794434e+003,3.3424357910e+003,3.3305129395e+003,3.3246154785e+003,
