Time (s),AF3,F7,F3,FC5,T7,P7,O1,O2,P8,T8,FC6,F4,F8,AF4,Sampling Rate
0.0000000000e+000,3.7235898438e+003,3.6823076172e+003,3.7047436523e+003,3.7958974609e+003,3.6873076172e+003,3.7215385742e+003,3.7291025391e+003,3.7198718262e+003,3.7298718262e+003,3.6778205566e+003,3.6832050781e+003,3.7158974609e+003,3.7037180176e+003,3.7060256348e+003,128
7.8125000000e-003,3.9635898438e+003,3.9101281738e+003,3.9319230957e+003,4.0079487305e+003,3.9183332520e+003,3.9507692871e+003,3.9579487305e+003,3.9425642090e+003,3.9511538086e+003,3.9114101563e+003,3.9207692871e+003,3.9412819824e+003,3.9388461914e+003,3.9284614258e+003,
1.5625000000e-002,4.0934614258e+003,4.0389743652e+003,4.0638461914e+003,4.1329487305e+003,4.0538461914e+003,4.0794870605e+003,4.0834614258e+003,4.0688461914e+003,4.0751281738e+003,4.0483332520e+003,4.0539743652e+003,4.0703845215e+003,4.0729487305e+003,4.0576923828e+003,
2.3437500000e-002,4.3447436523e+003,4.3116665039e+003,4.3102563477e+003,4.3800000000e+003,4.3129487305e+003,4.3280771484e+003,4.3161538086e+003,4.3193588867e+003,4.3191025391e+003,4.3207690430e+003,4.3207690430e+003,4.3201284180e+003,4.3308974609e+003,4.3046152344e+003,
3.1250000000e-002,4.2816665039e+003,4.2758974609e+003,4.2596152344e+003,4.3032050781e+003,4.2546152344e+003,4.2766665039e+003,4.2644873047e+003,4.2726923828e+003,4.2674360352e+003,4.2653847656e+003,4.2719228516e+003,4.2719228516e+003,4.2766665039e+003,4.2542309570e+003,
3.9062500000e-002,4.2338461914e+003,4.2276923828e+003,4.2164101563e+003,4.2534614258e+003,4.2035898438e+003,4.2283334961e+003,4.2201284180e+003,4.2261538086e+003,4.2215385742e+003,4.2170512695e+003,4.2230771484e+003,4.2275639648e+003,4.2306411133e+003,4.2102563477e+003,
4.6875000000e-002,4.1992309570e+003,4.1742309570e+003,4.1802563477e+003,4.2241025391e+003,4.1678203125e+003,4.1793588867e+003,4.1737177734e+003,4.1779487305e+003,4.1741025391e+003,4.1666665039e+003,4.1821796875e+003,4.1900000000e+003,4.1852563477e+003,4.1697436523e+003,
5.4687500000e-002,4.2426923828e+003,4.2124360352e+003,4.2255126953e+003,4.2675639648e+003,4.2210258789e+003,4.2203847656e+003,4.2132050781e+003,4.2173076172e+003,4.2114101563e+003,4.2062822266e+003,4.2285898438e+003,4.2347436523e+003,4.2255126953e+003,4.2117949219e+003,
6.2500000000e-002,4.2793588867e+003,4.2516665039e+003,4.2692309570e+003,4.3010258789e+003,4.2706411133e+003,4.2617949219e+003,4.2526923828e+003,4.2578203125e+003,4.2498715820e+003,4.2507690430e+003,4.2755126953e+003,4.2767949219e+003,4.2676923828e+003,4.2533334961e+003,
7.0312500000e-002,4.2400000000e+003,4.2182050781e+003,4.2321796875e+003,4.2587177734e+003,4.2296152344e+003,4.2276923828e+003,4.2196152344e+003,4.2237177734e+003,4.2153847656e+003,4.2166665039e+003,4.2361538086e+003,4.2391025391e+003,4.2319228516e+003,4.2175639648e+003,
7.8125000000e-002,4.1983334961e+003,4.1812822266e+003,4.1910258789e+003,4.2121796875e+003,4.1838461914e+003,4.1894873047e+003,4.1832050781e+003,4.1843588867e+003,4.1748715820e+003,4.1750000000e+003,4.1892309570e+003,4.1969228516e+003,4.1898715820e+003,4.1771796875e+003,
8.5937500000e-002,4.2428203125e+003,4.2261538086e+003,4.2328203125e+003,4.2443588867e+003,4.2273076172e+003,4.2307690430e+003,4.2255126953e+003,4.2235898438e+003,4.2119228516e+003,4.2105126953e+003,4.2246152344e+003,4.2364101563e+003,4.2273076172e+003,4.2169228516e+003,
9.3750000000e-002,4.3117949219e+003,4.2930771484e+003,4.3000000000e+003,4.3093588867e+003,4.2988461914e+003,4.2952563477e+003,4.2893588867e+003,4.2894873047e+003,4.2796152344e+003,4.2785898438e+003,4.2962822266e+003,4.3035898438e+003,4.2960258789e+003,4.2829487305e+003,
1.0156250000e-001,4.3720512695e+003,4.3526923828e+003,4.3591025391e+003,4.3696152344e+003,4.3593588867e+003,4.3525639648e+003,4.3466665039e+003,4.3483334961e+003,4.3420512695e+003,4.3414101563e+003,4.3621796875e+003,4.3633334961e+003,4.3589741211e+003,4.3419228516e+003,
1.0937500000e-001,4.6374360352e+003,4.6474360352e+003,4.6282050781e+003,4.6573076172e+003,4.6305126953e+003,4.6280771484e+003,4.6096152344e+003,4.6243588867e+003,4.6058974609e+003,4.6334614258e+003,4.6512822266e+003,4.6351284180e+003,4.6328203125e+003,4.6203847656e+003,
1.1718750000e-001,4.6017949219e+003,4.6126923828e+003,4.5969228516e+003,4.6201284180e+003,4.5843588867e+003,4.5943588867e+003,4.5738461914e+003,4.5948715820e+003,4.5766665039e+003,4.6046152344e+003,4.6193588867e+003,4.6061538086e+003,4.6015385742e+003,4.5882050781e+003,
1.2500000000e-001,4.3291025391e+003,4.3414101563e+003,4.3339741211e+003,4.3375639648e+003,4.3120512695e+003,4.3329487305e+003,4.3166665039e+003,4.3284614258e+003,4.3224360352e+003,4.3324360352e+003,4.3380771484e+003,4.3415385742e+003,4.3366665039e+003,4.3237177734e+003,
1.3281250000e-001,4.3535898438e+003,4.3607690430e+003,4.3571796875e+003,4.3630771484e+003,4.3838461914e+003,4.3528203125e+003,4.3441025391e+003,4.3453847656e+003,4.3411538086e+003,4.3494873047e+003,4.3673076172e+003,4.3598715820e+003,4.3544873047e+003,4.3507690430e+003,
1.4062500000e-001,4.3491025391e+003,4.3505126953e+003,4.3528203125e+003,4.3602563477e+003,4.3701284180e+003,4.3467949219e+003,4.3394873047e+003,4.3408974609e+003,4.3357690430e+003,4.3416665039e+003,4.3651284180e+003,4.3582050781e+003,4.3489741211e+003,4.3467949219e+003,
1.4843750000e-001,4.3008974609e+003,4.3138461914e+003,4.3047436523e+003,4.3162822266e+003,4.2997436523e+003,4.3141025391e+003,4.3011538086e+003,4.2960258789e+003,4.2876923828e+003,4.2925639648e+003,4.3101284180e+003,4.3116665039e+003,4.3083334961e+003,4.3014101563e+003,
1.5625000000e-001,4.3921796875e+003,4.4093588867e+003,4.3929487305e+003,4.3960258789e+003,4.4015385742e+003,4.3953847656e+003,4.3900000000e+003,4.3907690430e+003,4.3800000000e+003,4.3858974609e+003,4.3962822266e+003,4.3971796875e+003,4.3988461914e+003,4.3887177734e+003,
1.6406250000e-001,4.3825639648e+003,4.3965385742e+003,4.3839741211e+003,4.3883334961e+003,4.3870512695e+003,4.3851284180e+003,4.3793588867e+003,4.3843588867e+003,4.3737177734e+003,4.3774360352e+003,4.3894873047e+003,4.3889741211e+003,4.3876923828e+003,4.3775639648e+003,
1.7187500000e-001,4.3220512695e+003,4.3367949219e+003,4.3278203125e+003,4.3346152344e+003,4.3287177734e+003,4.3317949219e+003,4.3230771484e+003,4.3214101563e+003,4.3082050781e+003,4.3156411133e+003,4.3296152344e+003,4.3291025391e+003,4.3241025391e+003,4.3210258789e+003,
1.7968750000e-001,4.3351284180e+003,4.3511538086e+003,4.3394873047e+003,4.3401284180e+003,4.3408974609e+003,4.3425639648e+003,4.3362822266e+003,4.3325639648e+003,4.3187177734e+003,4.3271796875e+003,4.3421796875e+003,4.3402563477e+003,4.3370512695e+003,4.3341025391e+003,
1.8750000000e-001,4.3265385742e+003,4.3416665039e+003,4.3306411133e+003,4.3158974609e+003,4.3088461914e+003,4.3330771484e+003,4.3291025391e+003,4.3310258789e+003,4.3193588867e+003,4.3208974609e+003,4.3374360352e+003,4.3355126953e+003,4.3298715820e+003,4.3229487305e+003,
1.9531250000e-001,4.2902563477e+003,4.3039741211e+003,4.2969228516e+003,4.2784614258e+003,4.2633334961e+003,4.2996152344e+003,4.2948715820e+003,4.2997436523e+003,4.2905126953e+003,4.2873076172e+003,4.3010258789e+003,4.3032050781e+003,4.2944873047e+003,4.2860258789e+003,
2.0312500000e-001,4.2273076172e+003,4.2361538086e+003,4.2334614258e+003,4.2241025391e+003,4.2410258789e+003,4.2385898438e+003,4.2300000000e+003,4.2376923828e+003,4.2335898438e+003,4.2297436523e+003,4.2274360352e+003,4.2370512695e+003,4.2333334961e+003,4.2247436523e+003,
2.1093750000e-001,4.2057690430e+003,4.2120512695e+003,4.2111538086e+003,4.2015385742e+003,4.2342309570e+003,4.2155126953e+003,4.2078203125e+003,4.2173076172e+003,4.2126923828e+003,4.2067949219e+003,4.2065385742e+003,4.2155126953e+003,4.2102563477e+003,4.2053847656e+003,
2.1875000000e-001,4.1597436523e+003,4.1626923828e+003,4.1670512695e+003,4.1521796875e+003,4.1888461914e+003,4.1691025391e+003,4.1637177734e+003,4.1732050781e+003,4.1685898438e+003,4.1566665039e+003,4.1633334961e+003,4.1719228516e+003,4.1605126953e+003,4.1621796875e+003,
2.2656250000e-001,4.1002563477e+003,4.0998715820e+003,4.1106411133e+003,4.0889743652e+003,4.1169228516e+003,4.1110258789e+003,4.1079487305e+003,4.1139741211e+003,4.1112822266e+003,4.0915385742e+003,4.1056411133e+003,4.1144873047e+003,4.0965385742e+003,4.1048715820e+003,
2.3437500000e-001,4.0442307129e+003,4.0337180176e+003,4.0466667480e+003,4.0334614258e+003,4.0311538086e+003,4.0632050781e+003,4.0575642090e+003,4.0524357910e+003,4.0503845215e+003,4.0305129395e+003,4.0273076172e+003,4.0512819824e+003,4.0343588867e+003,4.0414101563e+003,
2.4218750000e-001,4.0321794434e+003,4.0193588867e+003,4.0339743652e+003,4.0226923828e+003,4.0228205566e+003,4.0476923828e+003,4.0442307129e+003,4.0417949219e+003,4.0375642090e+003,4.0194870605e+003,4.0138461914e+003,4.0401281738e+003,4.0205129395e+003,4.0291025391e+003,
2.5000000000e-001,3.9062819824e+003,3.8807692871e+003,3.9094870605e+003,3.8897436523e+003,3.8846154785e+003,3.9046154785e+003,3.9171794434e+003,3.9144870605e+003,3.9173076172e+003,3.8805129395e+003,3.8919230957e+003,3.9125642090e+003,3.8882050781e+003,3.9030769043e+003,
2.5781250000e-001,3.8875642090e+003,3.8451281738e+003,3.8750000000e+003,3.8482050781e+003,3.8188461914e+003,3.8741025391e+003,3.8885898438e+003,3.8785898438e+003,3.8830769043e+003,3.8415385742e+003,3.8484614258e+003,3.8769230957e+003,3.8589743652e+003,3.8748718262e+003,
2.6562500000e-001,3.8921794434e+003,3.8464101563e+003,3.8747436523e+003,3.8485898438e+003,3.8182050781e+003,3.8735898438e+003,3.8875642090e+003,3.8775642090e+003,3.8828205566e+003,3.8447436523e+003,3.8462819824e+003,3.8742307129e+003,3.8591025391e+003,3.8748718262e+003,
2.7343750000e-001,3.9138461914e+003,3.8602563477e+003,3.8941025391e+003,3.8682050781e+003,3.8710256348e+003,3.8876923828e+003,3.9051281738e+003,3.8912819824e+003,3.9034614258e+003,3.8603845215e+003,3.8538461914e+003,3.8855129395e+003,3.8651281738e+003,3.8855129395e+003,
2.8125000000e-001,4.0015385742e+003,3.9548718262e+003,3.9692307129e+003,3.9474357910e+003,3.9670512695e+003,3.9808974609e+003,3.9870512695e+003,3.9821794434e+003,3.9919230957e+003,3.9557692871e+003,3.9602563477e+003,3.9757692871e+003,3.9575642090e+003,3.9751281738e+003,
2.8906250000e-001,4.0128205566e+003,3.9700000000e+003,3.9805129395e+003,3.9610256348e+003,3.9770512695e+003,3.9903845215e+003,3.9946154785e+003,3.9917949219e+003,3.9992307129e+003,3.9700000000e+003,3.9789743652e+003,3.9883332520e+003,3.9714101563e+003,3.9893588867e+003,
2.9687500000e-001,4.0191025391e+003,3.9778205566e+003,3.9893588867e+003,3.9702563477e+003,3.9826923828e+003,3.9929487305e+003,3.9966667480e+003,3.9938461914e+003,3.9996154785e+003,3.9750000000e+003,3.9871794434e+003,3.9937180176e+003,3.9780769043e+003,3.9973076172e+003,
3.0468750000e-001,4.0378205566e+003,3.9921794434e+003,4.0105129395e+003,3.9858974609e+003,3.9969230957e+003,4.0026923828e+003,4.0083332520e+003,4.0055129395e+003,4.0105129395e+003,3.9832050781e+003,3.9946154785e+003,4.0073076172e+003,3.9935898438e+003,4.0138461914e+003,
3.1250000000e-001,4.0460256348e+003,3.9975642090e+003,4.0171794434e+003,3.9887180176e+003,3.9978205566e+003,4.0074357910e+003,4.0158974609e+003,4.0138461914e+003,4.0188461914e+003,3.9883332520e+003,3.9961538086e+003,4.0151281738e+003,4.0011538086e+003,4.0212819824e+003,
3.2031250000e-001,4.0597436523e+003,4.0093588867e+003,4.0284614258e+003,3.9950000000e+003,3.9965385742e+003,4.0194870605e+003,4.0321794434e+003,4.0294870605e+003,4.0351281738e+003,4.0051281738e+003,4.0070512695e+003,4.0334614258e+003,4.0180769043e+003,4.0388461914e+003,
3.2812500000e-001,4.0714101563e+003,4.0207692871e+003,4.0420512695e+003,4.0065385742e+003,4.0089743652e+003,4.0348718262e+003,4.0465385742e+003,4.0435898438e+003,4.0503845215e+003,4.0237180176e+003,4.0233332520e+003,4.0485898438e+003,4.0320512695e+003,4.0529487305e+003,
3.3593750000e-001,4.0217949219e+003,3.9694870605e+003,4.0070512695e+003,3.9664101563e+003,3.9806411133e+003,4.0112819824e+003,4.0158974609e+003,4.0180769043e+003,4.0265385742e+003,4.0038461914e+003,3.9951281738e+003,4.0148718262e+003,3.9852563477e+003,4.0074357910e+003,
3.4375000000e-001,3.9678205566e+003,3.9171794434e+003,3.9525642090e+003,3.9142307129e+003,3.9257692871e+003,3.9619230957e+003,3.9662819824e+003,3.9660256348e+003,3.9744870605e+003,3.9488461914e+003,3.9392307129e+003,3.9596154785e+003,3.9307692871e+003,3.9520512695e+003,
3.5156250000e-001,3.9287180176e+003,3.8820512695e+003,3.9075642090e+003,3.8750000000e+003,3.8811538086e+003,3.9228205566e+003,3.9269230957e+003,3.9206411133e+003,3.9297436523e+003,3.9016667480e+003,3.8932050781e+003,3.9126923828e+003,3.8912819824e+003,3.9087180176e+003,
3.5937500000e-001,4.1084614258e+003,4.0735898438e+003,4.0853845215e+003,4.0456411133e+003,4.0612819824e+003,4.0779487305e+003,4.0844870605e+003,4.0814101563e+003,4.0891025391e+003,4.0808974609e+003,4.0628205566e+003,4.0830769043e+003,4.0774357910e+003,4.0778205566e+003,
3.6718750000e-001,4.0937180176e+003,4.0611538086e+003,4.0735898438e+003,4.0315385742e+003,4.0561538086e+003,4.0623076172e+003,4.0697436523e+003,4.0683332520e+003,4.0774357910e+003,4.0705129395e+003,4.0514101563e+003,4.0689743652e+003,4.0637180176e+003,4.0652563477e+003,
3.7500000000e-001,4.0242307129e+003,4.0005129395e+003,4.0010256348e+003,3.9771794434e+003,4.0029487305e+003,4.0039743652e+003,4.0125642090e+003,4.0067949219e+003,4.0174357910e+003,3.9953845215e+003,3.9958974609e+003,3.9953845215e+003,3.9948718262e+003,4.0012819824e+003,
3.8281250000e-001,4.0133332520e+003,3.9866667480e+003,3.9906411133e+003,3.9715385742e+003,3.9900000000e+003,3.9950000000e+003,4.0028205566e+003,4.0001281738e+003,4.0080769043e+003,3.9816667480e+003,3.9839743652e+003,3.9837180176e+003,3.9829487305e+003,3.9896154785e+003,
3.9062500000e-001,3.9778205566e+003,3.9394870605e+003,3.9579487305e+003,3.9400000000e+003,3.9493588867e+003,3.9594870605e+003,3.9611538086e+003,3.9633332520e+003,3.9683332520e+003,3.9451281738e+003,3.9334614258e+003,3.9428205566e+003,3.9425642090e+003,3.9478205566e+003,
3.9843750000e-001,3.9578205566e+003,3.9188461914e+003,3.9360256348e+003,3.9125642090e+003,3.9161538086e+003,3.9288461914e+003,3.9466667480e+003,3.9388461914e+003,3.9492307129e+003,3.9262819824e+003,3.9179487305e+003,3.9358974609e+003,3.9266667480e+003,3.9308974609e+003,
4.0625000000e-001,3.9391025391e+003,3.9005129395e+003,3.9182050781e+003,3.8924357910e+003,3.8908974609e+003,3.9096154785e+003,3.9276923828e+003,3.9252563477e+003,3.9343588867e+003,3.9084614258e+003,3.9034614258e+003,3.9192307129e+003,3.9091025391e+003,3.9119230957e+003,
4.1406250000e-001,3.8656411133e+003,3.8223076172e+003,3.8456411133e+003,3.8166667480e+003,3.8164101563e+003,3.8391025391e+003,3.8534614258e+003,3.8524357910e+003,3.8575642090e+003,3.8280769043e+003,3.8215385742e+003,3.8402563477e+003,3.8250000000e+003,3.8321794434e+003,
4.2187500000e-001,3.8525642090e+003,3.8078205566e+003,3.8311538086e+003,3.8046154785e+003,3.8105129395e+003,3.8283332520e+003,3.8432050781e+003,3.8356411133e+003,3.8400000000e+003,3.8103845215e+003,3.8020512695e+003,3.8233332520e+003,3.8062819824e+003,3.8164101563e+003,
4.2968750000e-001,3.8632050781e+003,3.8153845215e+003,3.8425642090e+003,3.8188461914e+003,3.8129487305e+003,3.8471794434e+003,3.8633332520e+003,3.8492307129e+003,3.8505129395e+003,3.8220512695e+003,3.8114101563e+003,3.8334614258e+003,3.8238461914e+003,3.8302563477e+003,
4.3750000000e-001,3.8310256348e+003,3.7783332520e+003,3.8112819824e+003,3.7832050781e+003,3.7669230957e+003,3.8156411133e+003,3.8325642090e+003,3.8188461914e+003,3.8188461914e+003,3.7866667480e+003,3.7776923828e+003,3.8015385742e+003,3.7911538086e+003,3.7975642090e+003,
4.4531250000e-001,3.8879487305e+003,3.8338461914e+003,3.8606411133e+003,3.8334614258e+003,3.8296154785e+003,3.8667949219e+003,3.8869230957e+003,3.8660256348e+003,3.8666667480e+003,3.8291025391e+003,3.8266667480e+003,3.8511538086e+003,3.8351281738e+003,3.8448718262e+003,
4.5312500000e-001,4.0055129395e+003,3.9594870605e+003,3.9728205566e+003,3.9525642090e+003,3.9679487305e+003,3.9810256348e+003,4.0006411133e+003,3.9783332520e+003,3.9776923828e+003,3.9455129395e+003,3.9443588867e+003,3.9637180176e+003,3.9482050781e+003,3.9573076172e+003,
4.6093750000e-001,4.1920512695e+003,4.1734614258e+003,4.1607690430e+003,4.1562822266e+003,4.1820512695e+003,4.1742309570e+003,4.1826923828e+003,4.1752563477e+003,4.1623076172e+003,4.1533334961e+003,4.1447436523e+003,4.1461538086e+003,4.1408974609e+003,4.1455126953e+003,
4.6875000000e-001,4.1776923828e+003,4.1602563477e+003,4.1491025391e+003,4.1437177734e+003,4.1614101563e+003,4.1615385742e+003,4.1703847656e+003,4.1641025391e+003,4.1515385742e+003,4.1423076172e+003,4.1315385742e+003,4.1330771484e+003,4.1289741211e+003,4.1337177734e+003,
4.7656250000e-001,4.1892309570e+003,4.1708974609e+003,4.1611538086e+003,4.1539741211e+003,4.1689741211e+003,4.1714101563e+003,4.1835898438e+003,4.1757690430e+003,4.1657690430e+003,4.1557690430e+003,4.1429487305e+003,4.1470512695e+003,4.1424360352e+003,4.1466665039e+003,
4.8437500000e-001,4.2407690430e+003,4.2230771484e+003,4.2120512695e+003,4.2026923828e+003,4.2211538086e+003,4.2196152344e+003,4.2353847656e+003,4.2270512695e+003,4.2184614258e+003,4.2108974609e+003,4.1956411133e+003,4.2023076172e+003,4.1969228516e+003,4.1988461914e+003,
4.9218750000e-001,4.2153847656e+003,4.2142309570e+003,4.2024360352e+003,4.1847436523e+003,4.2032050781e+003,4.2048715820e+003,4.2180771484e+003,4.2364101563e+003,4.2197436523e+003,4.2151284180e+003,4.1979487305e+003,4.2026923828e+003,4.1960258789e+003,4.1957690430e+003,
5.0000000000e-001,3.9769230957e+003,3.9517949219e+003,3.9721794434e+003,3.9470512695e+003,3.9426923828e+003,3.9696154785e+003,3.9887180176e+003,3.9816667480e+003,3.9810256348e+003,3.9521794434e+003,3.9458974609e+003,3.9626923828e+003,3.9467949219e+003,3.9589743652e+003,
5.0781250000e-001,4.0042307129e+003,3.9803845215e+003,3.9923076172e+003,3.9710256348e+003,3.9576923828e+003,3.9926923828e+003,4.0096154785e+003,4.0038461914e+003,4.0024357910e+003,3.9756411133e+003,3.9687180176e+003,3.9838461914e+003,3.9735898438e+003,3.9812819824e+003,
5.1562500000e-001,3.9994870605e+003,3.9870512695e+003,3.9794870605e+003,3.9756411133e+003,3.9642307129e+003,3.9888461914e+003,4.0024357910e+003,4.0019230957e+003,4.0007692871e+003,3.9723076172e+003,3.9614101563e+003,3.9796154785e+003,3.9755129395e+003,3.9788461914e+003,
5.2343750000e-001,3.8519230957e+003,3.8251281738e+003,3.8369230957e+003,3.8265385742e+003,3.8462819824e+003,3.8385898438e+003,3.8602563477e+003,3.8575642090e+003,3.8616667480e+003,3.8283332520e+003,3.8121794434e+003,3.8325642090e+003,3.8310256348e+003,3.8294870605e+003,
5.3125000000e-001,3.8444870605e+003,3.8120512695e+003,3.8244870605e+003,3.8142307129e+003,3.8206411133e+003,3.8237180176e+003,3.8478205566e+003,3.8462819824e+003,3.8475642090e+003,3.8105129395e+003,3.8038461914e+003,3.8234614258e+003,3.8200000000e+003,3.8185898438e+003,
5.3906250000e-001,3.8383332520e+003,3.7970512695e+003,3.8097436523e+003,3.8023076172e+003,3.7906411133e+003,3.8050000000e+003,3.8287180176e+003,3.8307692871e+003,3.8305129395e+003,3.7857692871e+003,3.7926923828e+003,3.8167949219e+003,3.8093588867e+003,3.8085898438e+003,
5.4687500000e-001,3.8282050781e+003,3.7832050781e+003,3.7971794434e+003,3.7884614258e+003,3.7776923828e+003,3.7919230957e+003,3.8146154785e+003,3.8157692871e+003,3.8175642090e+003,3.7714101563e+003,3.7774357910e+003,3.8029487305e+003,3.7982050781e+003,3.7946154785e+003,
5.5468750000e-001,4.0111538086e+003,3.9643588867e+003,3.9701281738e+003,3.9594870605e+003,3.9628205566e+003,3.9684614258e+003,3.9942307129e+003,3.9815385742e+003,3.9855129395e+003,3.9533332520e+003,3.9450000000e+003,3.9706411133e+003,3.9703845215e+003,3.9658974609e+003,
5.6250000000e-001,4.1273076172e+003,4.0855129395e+003,4.0823076172e+003,4.0775642090e+003,4.0812819824e+003,4.0821794434e+003,4.1055126953e+003,4.0964101563e+003,4.0988461914e+003,4.0769230957e+003,4.0647436523e+003,4.0894870605e+003,4.0853845215e+003,4.0821794434e+003,
5.7031250000e-001,4.1816665039e+003,4.1517949219e+003,4.1380771484e+003,4.1382050781e+003,4.1247436523e+003,4.1382050781e+003,4.1526923828e+003,4.1616665039e+003,4.1607690430e+003,4.1506411133e+003,4.1392309570e+003,4.1582050781e+003,4.1514101563e+003,4.1410258789e+003,
5.7812500000e-001,4.1135898438e+003,4.0852563477e+003,4.0755129395e+003,4.0684614258e+003,4.0451281738e+003,4.0723076172e+003,4.0869230957e+003,4.0978203125e+003,4.0965385742e+003,4.0837180176e+003,4.0783332520e+003,4.0950000000e+003,4.0905129395e+003,4.0750000000e+003,
5.8593750000e-001,4.0424357910e+003,4.0056411133e+003,4.0082050781e+003,3.9901281738e+003,3.9893588867e+003,3.9978205566e+003,4.0239743652e+003,4.0129487305e+003,4.0187180176e+003,3.9953845215e+003,3.9997436523e+003,4.0173076172e+003,4.0197436523e+003,4.0037180176e+003,
5.9375000000e-001,4.0808974609e+003,4.0426923828e+003,4.0430769043e+003,4.0297436523e+003,4.0433332520e+003,4.0358974609e+003,4.0607692871e+003,4.0502563477e+003,4.0567949219e+003,4.0356411133e+003,4.0347436523e+003,4.0543588867e+003,4.0555129395e+003,4.0408974609e+003,
6.0156250000e-001,4.0994873047e+003,4.0625642090e+003,4.0607692871e+003,4.0485898438e+003,4.0692307129e+003,4.0575642090e+003,4.0785898438e+003,4.0725642090e+003,4.0779487305e+003,4.0585898438e+003,4.0517949219e+003,4.0751281738e+003,4.0735898438e+003,4.0592307129e+003,
6.0937500000e-001,4.0906411133e+003,4.0584614258e+003,4.0546154785e+003,4.0382050781e+003,4.0584614258e+003,4.0547436523e+003,4.0716667480e+003,4.0688461914e+003,4.0729487305e+003,4.0534614258e+003,4.0435898438e+003,4.0711538086e+003,4.0665385742e+003,4.0516667480e+003,
6.1718750000e-001,4.1650000000e+003,4.1400000000e+003,4.1333334961e+003,4.1053847656e+003,4.1443588867e+003,4.1337177734e+003,4.1525639648e+003,4.1448715820e+003,4.1491025391e+003,4.1358974609e+003,4.1414101563e+003,4.1533334961e+003,4.1430771484e+003,4.1297436523e+003,
6.2500000000e-001,4.1873076172e+003,4.1582050781e+003,4.1573076172e+003,4.1283334961e+003,4.1661538086e+003,4.1519228516e+003,4.1720512695e+003,4.1693588867e+003,4.1735898438e+003,4.1630771484e+003,4.1679487305e+003,4.1776923828e+003,4.1671796875e+003,4.1521796875e+003,
6.3281250000e-001,4.0415385742e+003,4.0161538086e+003,4.0235898438e+003,3.9893588867e+003,3.9879487305e+003,4.0167949219e+003,4.0282050781e+003,4.0335898438e+003,4.0393588867e+003,4.0276923828e+003,4.0150000000e+003,4.0347436523e+003,4.0316667480e+003,4.0121794434e+003,
6.4062500000e-001,3.9889743652e+003,3.9503845215e+003,3.9673076172e+003,3.9311538086e+003,3.9579487305e+003,3.9608974609e+003,3.9782050781e+003,3.9703845215e+003,3.9769230957e+003,3.9558974609e+003,3.9535898438e+003,3.9796154785e+003,3.9660256348e+003,3.9592307129e+003,
6.4843750000e-001,4.0215385742e+003,3.9792307129e+003,3.9946154785e+003,3.9620512695e+003,3.9828205566e+003,3.9878205566e+003,4.0096154785e+003,4.0020512695e+003,4.0075642090e+003,3.9846154785e+003,3.9861538086e+003,4.0105129395e+003,3.9966667480e+003,3.9889743652e+003,
6.5625000000e-001,4.0765385742e+003,4.0485898438e+003,4.0553845215e+003,4.0382050781e+003,4.0271794434e+003,4.0560256348e+003,4.0785898438e+003,4.0739743652e+003,4.0739743652e+003,4.0560256348e+003,4.0506411133e+003,4.0712819824e+003,4.0639743652e+003,4.0456411133e+003,
6.6406250000e-001,4.1312822266e+003,4.1075639648e+003,4.1052563477e+003,4.0829487305e+003,4.1182050781e+003,4.1076923828e+003,4.1278203125e+003,4.1111538086e+003,4.1161538086e+003,4.1033334961e+003,4.1034614258e+003,4.1173076172e+003,4.1076923828e+003,4.1002563477e+003,
6.7187500000e-001,4.2110258789e+003,4.1911538086e+003,4.1788461914e+003,4.1548715820e+003,4.1914101563e+003,4.1828203125e+003,4.2006411133e+003,4.1823076172e+003,4.1870512695e+003,4.1791025391e+003,4.1817949219e+003,4.1937177734e+003,4.1839741211e+003,4.1773076172e+003,
6.7968750000e-001,4.2874360352e+003,4.2839741211e+003,4.2683334961e+003,4.2515385742e+003,4.2596152344e+003,4.2711538086e+003,4.2770512695e+003,4.2750000000e+003,4.2715385742e+003,4.2797436523e+003,4.2705126953e+003,4.2810258789e+003,4.2788461914e+003,4.2601284180e+003,
6.8750000000e-001,4.1783334961e+003,4.1726923828e+003,4.1673076172e+003,4.1524360352e+003,4.1594873047e+003,4.1653847656e+003,4.1741025391e+003,4.1741025391e+003,4.1732050781e+003,4.1773076172e+003,4.1638461914e+003,4.1778203125e+003,4.1751284180e+003,4.1576923828e+003,
6.9531250000e-001,3.9156411133e+003,3.8937180176e+003,3.9085898438e+003,3.8928205566e+003,3.8982050781e+003,3.8974357910e+003,3.9202563477e+003,3.9087180176e+003,3.9187180176e+003,3.9035898438e+003,3.8935898438e+003,3.9188461914e+003,3.9032050781e+003,3.9007692871e+003,
7.0312500000e-001,3.8510256348e+003,3.8205129395e+003,3.8387180176e+003,3.8244870605e+003,3.8250000000e+003,3.8283332520e+003,3.8543588867e+003,3.8366667480e+003,3.8502563477e+003,3.8273076172e+003,3.8223076172e+003,3.8485898438e+003,3.8278205566e+003,3.8314101563e+003,
7.1093750000e-001,3.8460256348e+003,3.8101281738e+003,3.8269230957e+003,3.8170512695e+003,3.8138461914e+003,3.8215385742e+003,3.8456411133e+003,3.8260256348e+003,3.8407692871e+003,3.8134614258e+003,3.8112819824e+003,3.8347436523e+003,3.8146154785e+003,3.8182050781e+003,
7.1875000000e-001,3.9006411133e+003,3.8626923828e+003,3.8760256348e+003,3.8756411133e+003,3.8697436523e+003,3.8780769043e+003,3.8952563477e+003,3.8797436523e+003,3.8925642090e+003,3.8642307129e+003,3.8574357910e+003,3.8791025391e+003,3.8658974609e+003,3.8625642090e+003,
7.2656250000e-001,3.9124357910e+003,3.8738461914e+003,3.8893588867e+003,3.8902563477e+003,3.8794870605e+003,3.8887180176e+003,3.9069230957e+003,3.8908974609e+003,3.9024357910e+003,3.8758974609e+003,3.8664101563e+003,3.8924357910e+003,3.8780769043e+003,3.8752563477e+003,
7.3437500000e-001,3.9175642090e+003,3.8774357910e+003,3.8947436523e+003,3.8956411133e+003,3.8773076172e+003,3.8892307129e+003,3.9102563477e+003,3.8919230957e+003,3.9024357910e+003,3.8793588867e+003,3.8707692871e+003,3.9001281738e+003,3.8820512695e+003,3.8826923828e+003,
7.4218750000e-001,3.8126923828e+003,3.7653845215e+003,3.7816667480e+003,3.7894870605e+003,3.7614101563e+003,3.7782050781e+003,3.7952563477e+003,3.7800000000e+003,3.7937180176e+003,3.7624357910e+003,3.7514101563e+003,3.7903845215e+003,3.7687180176e+003,3.7751281738e+003,
7.5000000000e-001,3.8620512695e+003,3.8092307129e+003,3.8274357910e+003,3.8411538086e+003,3.7942307129e+003,3.8141025391e+003,3.8403845215e+003,3.8211538086e+003,3.8310256348e+003,3.8057692871e+003,3.8057692871e+003,3.8393588867e+003,3.8178205566e+003,3.8238461914e+003,
7.5781250000e-001,3.8673076172e+003,3.8130769043e+003,3.8306411133e+003,3.8485898438e+003,3.8207692871e+003,3.8170512695e+003,3.8435898438e+003,3.8260256348e+003,3.8338461914e+003,3.8111538086e+003,3.8126923828e+003,3.8452563477e+003,3.8234614258e+003,3.8296154785e+003,
7.6562500000e-001,3.8593588867e+003,3.8032050781e+003,3.8188461914e+003,3.8394870605e+003,3.8250000000e+003,3.8129487305e+003,3.8378205566e+003,3.8196154785e+003,3.8264101563e+003,3.8043588867e+003,3.8020512695e+003,3.8371794434e+003,3.8117949219e+003,3.8214101563e+003,
7.7343750000e-001,3.7941025391e+003,3.7264101563e+003,3.7555129395e+003,3.7674357910e+003,3.7229487305e+003,3.7397436523e+003,3.7656411133e+003,3.7491025391e+003,3.7639743652e+003,3.7371794434e+003,3.7338461914e+003,3.7712819824e+003,3.7412819824e+003,3.7503845215e+003,
7.8125000000e-001,3.7917949219e+003,3.7283332520e+003,3.7537180176e+003,3.7619230957e+003,3.7387180176e+003,3.7388461914e+003,3.7644870605e+003,3.7471794434e+003,3.7639743652e+003,3.7348718262e+003,3.7317949219e+003,3.7688461914e+003,3.7411538086e+003,3.7485898438e+003,
7.8906250000e-001,3.8096154785e+003,3.7478205566e+003,3.7692307129e+003,3.7943588867e+003,3.7575642090e+003,3.7606411133e+003,3.7847436523e+003,3.7691025391e+003,3.7856411133e+003,3.7550000000e+003,3.7521794434e+003,3.7902563477e+003,3.7605129395e+003,3.7680769043e+003,
7.9687500000e-001,3.8126923828e+003,3.7457692871e+003,3.7692307129e+003,3.8148718262e+003,3.7417949219e+003,3.7611538086e+003,3.7855129395e+003,3.7712819824e+003,3.7875642090e+003,3.7573076172e+003,3.7538461914e+003,3.7928205566e+003,3.7621794434e+003,3.7700000000e+003,
8.0468750000e-001,3.8089743652e+003,3.7378205566e+003,3.7616667480e+003,3.8333332520e+003,3.7356411133e+003,3.7517949219e+003,3.7755129395e+003,3.7639743652e+003,3.7815385742e+003,3.7494870605e+003,3.7415385742e+003,3.7775642090e+003,3.7566667480e+003,3.7603845215e+003,
8.1250000000e-001,3.8089743652e+003,3.7398718262e+003,3.7642307129e+003,3.8247436523e+003,3.7406411133e+003,3.7556411133e+003,3.7769230957e+003,3.7660256348e+003,3.7820512695e+003,3.7497436523e+003,3.7430769043e+003,3.7770512695e+003,3.7570512695e+003,3.7602563477e+003,
8.2031250000e-001,3.7980769043e+003,3.7238461914e+003,3.7550000000e+003,3.7996154785e+003,3.7134614258e+003,3.7447436523e+003,3.7657692871e+003,3.7562819824e+003,3.7687180176e+003,3.7383332520e+003,3.7353845215e+003,3.7676923828e+003,3.7421794434e+003,3.7476923828e+003,
8.2812500000e-001,3.7914101563e+003,3.7129487305e+003,3.7469230957e+003,3.7906411133e+003,3.7014101563e+003,3.7337180176e+003,3.7589743652e+003,3.7491025391e+003,3.7610256348e+003,3.7311538086e+003,3.7270512695e+003,3.7615385742e+003,3.7330769043e+003,3.7402563477e+003,
8.3593750000e-001,3.8447436523e+003,3.7732050781e+003,3.7969230957e+003,3.8291025391e+003,3.7766667480e+003,3.7853845215e+003,3.8130769043e+003,3.8026923828e+003,3.8116667480e+003,3.7850000000e+003,3.7743588867e+003,3.8147436523e+003,3.7905129395e+003,3.7961538086e+003,
8.4375000000e-001,3.8720512695e+003,3.8050000000e+003,3.8224357910e+003,3.8537180176e+003,3.8075642090e+003,3.8139743652e+003,3.8347436523e+003,3.8278205566e+003,3.8362819824e+003,3.8129487305e+003,3.8035898438e+003,3.8382050781e+003,3.8198718262e+003,3.8212819824e+003,
8.5156250000e-001,3.8755129395e+003,3.8105129395e+003,3.8237180176e+003,3.8591025391e+003,3.8102563477e+003,3.8161538086e+003,3.8320512695e+003,3.8283332520e+003,3.8375642090e+003,3.8169230957e+003,3.8091025391e+003,3.8366667480e+003,3.8226923828e+003,3.8206411133e+003,
8.5937500000e-001,3.8473076172e+003,3.7824357910e+003,3.7944870605e+003,3.8352563477e+003,3.7796154785e+003,3.7856411133e+003,3.8020512695e+003,3.7982050781e+003,3.8096154785e+003,3.7891025391e+003,3.7816667480e+003,3.8052563477e+003,3.7916667480e+003,3.7892307129e+003,
8.6718750000e-001,3.7652563477e+003,3.7085898438e+003,3.7121794434e+003,3.7473076172e+003,3.6928205566e+003,3.7137180176e+003,3.7298718262e+003,3.7156411133e+003,3.7357692871e+003,3.7069230957e+003,3.6866667480e+003,3.7207692871e+003,3.7057692871e+003,3.7073076172e+003,
8.7500000000e-001,3.7951281738e+003,3.7407692871e+003,3.7393588867e+003,3.7770512695e+003,3.7229487305e+003,3.7432050781e+003,3.7534614258e+003,3.7423076172e+003,3.7620512695e+003,3.7366667480e+003,3.7126923828e+003,3.7458974609e+003,3.7330769043e+003,3.7338461914e+003,
8.8281250000e-001,3.8496154785e+003,3.7837180176e+003,3.7889743652e+003,3.8288461914e+003,3.7907692871e+003,3.7750000000e+003,3.7993588867e+003,3.7852563477e+003,3.8024357910e+003,3.7806411133e+003,3.7616667480e+003,3.7919230957e+003,3.7742307129e+003,3.7784614258e+003,
8.9062500000e-001,3.9835898438e+003,3.9188461914e+003,3.9192307129e+003,3.9597436523e+003,3.8900000000e+003,3.9108974609e+003,3.9300000000e+003,3.9133332520e+003,3.9283332520e+003,3.9171794434e+003,3.9074357910e+003,3.9242307129e+003,3.9206411133e+003,3.9114101563e+003,
8.9843750000e-001,4.0244870605e+003,3.9678205566e+003,3.9629487305e+003,4.0028205566e+003,3.9293588867e+003,3.9583332520e+003,3.9710256348e+003,3.9579487305e+003,3.9700000000e+003,3.9635898438e+003,3.9557692871e+003,3.9679487305e+003,3.9646154785e+003,3.9566667480e+003,
9.0625000000e-001,3.9066667480e+003,3.8641025391e+003,3.8537180176e+003,3.8975642090e+003,3.8475642090e+003,3.8530769043e+003,3.8656411133e+003,3.8620512695e+003,3.8708974609e+003,3.8582050781e+003,3.8474357910e+003,3.8608974609e+003,3.8494870605e+003,3.8501281738e+003,
9.1406250000e-001,3.8420512695e+003,3.7884614258e+003,3.7914101563e+003,3.8292307129e+003,3.7720512695e+003,3.7850000000e+003,3.8015385742e+003,3.7860256348e+003,3.8021794434e+003,3.7830769043e+003,3.7625642090e+003,3.7925642090e+003,3.7874357910e+003,3.7829487305e+003,
9.2187500000e-001,3.9060256348e+003,3.8505129395e+003,3.8546154785e+003,3.8912819824e+003,3.8415385742e+003,3.8452563477e+003,3.8611538086e+003,3.8451281738e+003,3.8628205566e+003,3.8469230957e+003,3.8284614258e+003,3.8551281738e+003,3.8512819824e+003,3.8464101563e+003,
9.2968750000e-001,3.9664101563e+003,3.9120512695e+003,3.9135898438e+003,3.9537180176e+003,3.9124357910e+003,3.9029487305e+003,3.9176923828e+003,3.9047436523e+003,3.9224357910e+003,3.9110256348e+003,3.8962819824e+003,3.9160256348e+003,3.9107692871e+003,3.9069230957e+003,
9.3750000000e-001,3.9843588867e+003,3.9371794434e+003,3.9300000000e+003,3.9819230957e+003,3.9407692871e+003,3.9224357910e+003,3.9351281738e+003,3.9305129395e+003,3.9429487305e+003,3.9366667480e+003,3.9260256348e+003,3.9370512695e+003,3.9258974609e+003,3.9256411133e+003,
9.4531250000e-001,3.9337180176e+003,3.9000000000e+003,3.8826923828e+003,3.9230769043e+003,3.8810256348e+003,3.8942307129e+003,3.9017949219e+003,3.8952563477e+003,3.9071794434e+003,3.8929487305e+003,3.8719230957e+003,3.8846154785e+003,3.8830769043e+003,3.8778205566e+003,
9.5312500000e-001,3.9729487305e+003,3.9447436523e+003,3.9233332520e+003,3.9593588867e+003,3.9296154785e+003,3.9414101563e+003,3.9470512695e+003,3.9383332520e+003,3.9520512695e+003,3.9356411133e+003,3.9135898438e+003,3.9257692871e+003,3.9270512695e+003,3.9198718262e+003,
9.6093750000e-001,4.0484614258e+003,4.0241025391e+003,3.9989743652e+003,4.0356411133e+003,4.0133332520e+003,4.0201281738e+003,4.0246154785e+003,4.0150000000e+003,4.0292307129e+003,4.0142307129e+003,3.9928205566e+003,4.0050000000e+003,4.0053845215e+003,3.9976923828e+003,
9.6875000000e-001,4.2315385742e+003,4.2071796875e+003,4.1776923828e+003,4.2187177734e+003,4.1787177734e+003,4.1942309570e+003,4.1966665039e+003,4.1933334961e+003,4.2037177734e+003,4.2043588867e+003,4.1830771484e+003,4.1937177734e+003,4.1916665039e+003,4.1811538086e+003,
9.7656250000e-001,4.2917949219e+003,4.2673076172e+003,4.2370512695e+003,4.2738461914e+003,4.2246152344e+003,4.2483334961e+003,4.2493588867e+003,4.2497436523e+003,4.2589741211e+003,4.2694873047e+003,4.2475639648e+003,4.2546152344e+003,4.2548715820e+003,4.2406411133e+003,
9.8437500000e-001,4.3243588867e+003,4.3030771484e+003,4.2712822266e+003,4.3002563477e+003,4.2557690430e+003,4.2767949219e+003,4.2767949219e+003,4.2785898438e+003,4.2883334961e+003,4.3058974609e+003,4.2855126953e+003,4.2870512695e+003,4.2907690430e+003,4.2729487305e+003,
9.9218750000e-001,4.3019228516e+003,4.3028203125e+003,4.2714101563e+003,4.2874360352e+003,4.2789741211e+003,4.2607690430e+003,4.2638461914e+003,4.2712822266e+003,4.2694873047e+003,4.2958974609e+003,4.2935898438e+003,4.2829487305e+003,4.2869228516e+003,4.2717949219e+003,
1.0000000000e+000,4.2350000000e+003,4.2329487305e+003,4.2106411133e+003,4.2221796875e+003,4.2069228516e+003,4.2029487305e+003,4.2067949219e+003,4.2110258789e+003,4.2070512695e+003,4.2294873047e+003,4.2216665039e+003,4.2203847656e+003,4.2206411133e+003,4.2093588867e+003,
1.0078125000e+000,4.1093588867e+003,4.1092309570e+003,4.0915385742e+003,4.1042309570e+003,4.1021796875e+003,4.0941025391e+003,4.0924357910e+003,4.0939743652e+003,4.0976923828e+003,4.1058974609e+003,4.0915385742e+003,4.0976923828e+003,4.0910256348e+003,4.0852563477e+003,
1.0156250000e+000,4.0153845215e+003,4.0189743652e+003,4.0042307129e+003,4.0129487305e+003,3.9958974609e+003,3.9920512695e+003,4.0064101563e+003,4.0024357910e+003,4.0137180176e+003,4.0033332520e+003,4.0082050781e+003,4.0066667480e+003,4.0055129395e+003,3.9997436523e+003,
1.0234375000e+000,4.0587180176e+003,4.0633332520e+003,4.0467949219e+003,4.0525642090e+003,4.0391025391e+003,4.0335898438e+003,4.0503845215e+003,4.0416667480e+003,4.0529487305e+003,4.0447436523e+003,4.0494870605e+003,4.0464101563e+003,4.0514101563e+003,4.0428205566e+003,
1.0312500000e+000,4.2043588867e+003,4.2100000000e+003,4.1874360352e+003,4.2051284180e+003,4.1816665039e+003,4.1825639648e+003,4.1797436523e+003,4.1885898438e+003,4.1916665039e+003,4.2114101563e+003,4.1903847656e+003,4.1948715820e+003,4.1939741211e+003,4.1858974609e+003,
1.0390625000e+000,4.1002563477e+003,4.0980771484e+003,4.0897436523e+003,4.1150000000e+003,4.0606411133e+003,4.0714101563e+003,4.0770512695e+003,4.0773076172e+003,4.0848718262e+003,4.0919230957e+003,4.0857692871e+003,4.0906411133e+003,4.0866667480e+003,4.0866667480e+003,
1.0468750000e+000,4.1188461914e+003,4.1150000000e+003,4.1085898438e+003,4.1314101563e+003,4.0924357910e+003,4.0876923828e+003,4.0956411133e+003,4.0928205566e+003,4.1019228516e+003,4.1080771484e+003,4.1082050781e+003,4.1078203125e+003,4.1083334961e+003,4.1062822266e+003,
1.0546875000e+000,4.1162822266e+003,4.1100000000e+003,4.1075639648e+003,4.1250000000e+003,4.1010258789e+003,4.0850000000e+003,4.0910256348e+003,4.0919230957e+003,4.1006411133e+003,4.1103847656e+003,4.1103847656e+003,4.1082050781e+003,4.1076923828e+003,4.1057690430e+003,
1.0625000000e+000,3.9108974609e+003,3.8983332520e+003,3.9079487305e+003,3.9175642090e+003,3.8847436523e+003,3.8835898438e+003,3.8860256348e+003,3.8944870605e+003,3.9014101563e+003,3.9096154785e+003,3.9010256348e+003,3.9103845215e+003,3.8955129395e+003,3.9032050781e+003,
1.0703125000e+000,3.7720512695e+003,3.7560256348e+003,3.7617949219e+003,3.7900000000e+003,3.7214101563e+003,3.7434614258e+003,3.7569230957e+003,3.7353845215e+003,3.7465385742e+003,3.7328205566e+003,3.7287180176e+003,3.7537180176e+003,3.7432050781e+003,3.7530769043e+003,
1.0781250000e+000,3.8566667480e+003,3.8366667480e+003,3.8421794434e+003,3.8710256348e+003,3.8100000000e+003,3.8243588867e+003,3.8352563477e+003,3.8132050781e+003,3.8257692871e+003,3.8156411133e+003,3.8112819824e+003,3.8352563477e+003,3.8265385742e+003,3.8355129395e+003,
1.0859375000e+000,3.9087180176e+003,3.8834614258e+003,3.8924357910e+003,3.9151281738e+003,3.8664101563e+003,3.8726923828e+003,3.8783332520e+003,3.8643588867e+003,3.8788461914e+003,3.8746154785e+003,3.8676923828e+003,3.8892307129e+003,3.8779487305e+003,3.8878205566e+003,
1.0937500000e+000,3.7924357910e+003,3.7574357910e+003,3.7801281738e+003,3.7867949219e+003,3.7487180176e+003,3.7521794434e+003,3.7582050781e+003,3.7569230957e+003,3.7751281738e+003,3.7692307129e+003,3.7591025391e+003,3.7823076172e+003,3.7601281738e+003,3.7743588867e+003,
1.1015625000e+000,3.6974357910e+003,3.6594870605e+003,3.6876923828e+003,3.6920512695e+003,3.6519230957e+003,3.6571794434e+003,3.6698718262e+003,3.6635898438e+003,3.6816667480e+003,3.6665385742e+003,3.6592307129e+003,3.6882050781e+003,3.6629487305e+003,3.6794870605e+003,
1.1093750000e+000,3.6561538086e+003,3.6166667480e+003,3.6461538086e+003,3.6521794434e+003,3.6107692871e+003,3.6161538086e+003,3.6344870605e+003,3.6192307129e+003,3.6360256348e+003,3.6115385742e+003,3.6080769043e+003,3.6429487305e+003,3.6184614258e+003,3.6369230957e+003,
1.1171875000e+000,3.7582050781e+003,3.7124357910e+003,3.7335898438e+003,3.7464101563e+003,3.6773076172e+003,3.7161538086e+003,3.7296154785e+003,3.7179487305e+003,3.7335898438e+003,3.7173076172e+003,3.7057692871e+003,3.7348718262e+003,3.7132050781e+003,3.7314101563e+003,
1.1250000000e+000,3.7342307129e+003,3.6875642090e+003,3.7096154785e+003,3.7274357910e+003,3.6642307129e+003,3.6955129395e+003,3.7112819824e+003,3.6942307129e+003,3.7089743652e+003,3.6906411133e+003,3.6803845215e+003,3.7128205566e+003,3.6879487305e+003,3.7052563477e+003,
1.1328125000e+000,3.7438461914e+003,3.6937180176e+003,3.7144870605e+003,3.7283332520e+003,3.7058974609e+003,3.7034614258e+003,3.7205129395e+003,3.7034614258e+003,3.7107692871e+003,3.6883332520e+003,3.6811538086e+003,3.7155129395e+003,3.6960256348e+003,3.7083332520e+003,
1.1406250000e+000,3.6397436523e+003,3.5698718262e+003,3.6103845215e+003,3.6264101563e+003,3.5734614258e+003,3.5978205566e+003,3.6162819824e+003,3.5965385742e+003,3.6103845215e+003,3.5852563477e+003,3.5762819824e+003,3.6088461914e+003,3.5870512695e+003,3.6021794434e+003,
1.1484375000e+000,3.6264101563e+003,3.5553845215e+003,3.5923076172e+003,3.6166667480e+003,3.5512819824e+003,3.5828205566e+003,3.6021794434e+003,3.5794870605e+003,3.5962819824e+003,3.5696154785e+003,3.5587180176e+003,3.5943588867e+003,3.5703845215e+003,3.5857692871e+003,
1.1562500000e+000,3.6065385742e+003,3.5382050781e+003,3.5689743652e+003,3.5834614258e+003,3.5270512695e+003,3.5475642090e+003,3.5757692871e+003,3.5541025391e+003,3.5737180176e+003,3.5397436523e+003,3.5282050781e+003,3.5758974609e+003,3.5428205566e+003,3.5630769043e+003,
1.1640625000e+000,3.5905129395e+003,3.5200000000e+003,3.5553845215e+003,3.5643588867e+003,3.5137180176e+003,3.5315385742e+003,3.5596154785e+003,3.5407692871e+003,3.5617949219e+003,3.5278205566e+003,3.5169230957e+003,3.5619230957e+003,3.5279487305e+003,3.5498718262e+003,
1.1718750000e+000,3.5416667480e+003,3.4600000000e+003,3.5015385742e+003,3.5146154785e+003,3.4585898438e+003,3.4896154785e+003,3.5144870605e+003,3.4943588867e+003,3.5185898438e+003,3.4821794434e+003,3.4741025391e+003,3.5129487305e+003,3.4814101563e+003,3.5019230957e+003,
1.1796875000e+000,3.5555129395e+003,3.4685898438e+003,3.5076923828e+003,3.5246154785e+003,3.4646154785e+003,3.5016667480e+003,3.5275642090e+003,3.5030769043e+003,3.5283332520e+003,3.4884614258e+003,3.4824357910e+003,3.5223076172e+003,3.4947436523e+003,3.5115385742e+003,
1.1875000000e+000,3.9324357910e+003,3.8583332520e+003,3.8669230957e+003,3.8841025391e+003,3.8560256348e+003,3.8580769043e+003,3.8841025391e+003,3.8630769043e+003,3.8844870605e+003,3.8597436523e+003,3.8460256348e+003,3.8853845215e+003,3.8719230957e+003,3.8728205566e+003,
1.1953125000e+000,4.0697436523e+003,4.0065385742e+003,4.0062819824e+003,4.0244870605e+003,4.0101281738e+003,3.9973076172e+003,4.0165385742e+003,4.0011538086e+003,4.0192307129e+003,4.0088461914e+003,3.9920512695e+003,4.0267949219e+003,4.0107692871e+003,4.0105129395e+003,
1.2031250000e+000,4.1796152344e+003,4.1301284180e+003,4.1238461914e+003,4.1444873047e+003,4.1356411133e+003,4.1171796875e+003,4.1244873047e+003,4.1141025391e+003,4.1271796875e+003,4.1371796875e+003,4.1237177734e+003,4.1482050781e+003,4.1243588867e+003,4.1250000000e+003,
1.2109375000e+000,4.1808974609e+003,4.1347436523e+003,4.1262822266e+003,4.1460258789e+003,4.1373076172e+003,4.1210258789e+003,4.1267949219e+003,4.1173076172e+003,4.1288461914e+003,4.1415385742e+003,4.1326923828e+003,4.1523076172e+003,4.1275639648e+003,4.1283334961e+003,
1.2187500000e+000,4.2596152344e+003,4.2311538086e+003,4.2088461914e+003,4.2305126953e+003,4.2187177734e+003,4.2094873047e+003,4.2135898438e+003,4.2080771484e+003,4.2128203125e+003,4.2310258789e+003,4.2306411133e+003,4.2435898438e+003,4.2148715820e+003,4.2185898438e+003,
1.2265625000e+000,4.3091025391e+003,4.2866665039e+003,4.2605126953e+003,4.2883334961e+003,4.2615385742e+003,4.2619228516e+003,4.2630771484e+003,4.2596152344e+003,4.2626923828e+003,4.2869228516e+003,4.2841025391e+003,4.2974360352e+003,4.2689741211e+003,4.2711538086e+003,
1.2343750000e+000,4.3453847656e+003,4.3280771484e+003,4.2988461914e+003,4.3316665039e+003,4.2926923828e+003,4.2989741211e+003,4.2970512695e+003,4.2967949219e+003,4.3007690430e+003,4.3298715820e+003,4.3216665039e+003,4.3362822266e+003,4.3115385742e+003,4.3092309570e+003,
1.2421875000e+000,4.3615385742e+003,4.3487177734e+003,4.3171796875e+003,4.3494873047e+003,4.3126923828e+003,4.3144873047e+003,4.3106411133e+003,4.3144873047e+003,4.3208974609e+003,4.3519228516e+003,4.3380771484e+003,4.3543588867e+003,4.3344873047e+003,4.3271796875e+003,
1.2500000000e+000,4.2588461914e+003,4.2571796875e+003,4.2339741211e+003,4.2314101563e+003,4.2294873047e+003,4.2267949219e+003,4.2193588867e+003,4.2308974609e+003,4.2328203125e+003,4.2651284180e+003,4.2601284180e+003,4.2708974609e+003,4.2467949219e+003,4.2466665039e+003,
1.2578125000e+000,3.9646154785e+003,3.9480769043e+003,3.9476923828e+003,3.9633332520e+003,3.9376923828e+003,3.9252563477e+003,3.9319230957e+003,3.9312819824e+003,3.9408974609e+003,3.9514101563e+003,3.9523076172e+003,3.9741025391e+003,3.9448718262e+003,3.9573076172e+003,
1.2656250000e+000,3.9458974609e+003,3.9280769043e+003,3.9287180176e+003,3.9419230957e+003,3.9305129395e+003,3.9064101563e+003,3.9164101563e+003,3.9107692871e+003,3.9216667480e+003,3.9276923828e+003,3.9306411133e+003,3.9534614258e+003,3.9214101563e+003,3.9391025391e+003,
1.2734375000e+000,3.9511538086e+003,3.9319230957e+003,3.9355129395e+003,3.9446154785e+003,3.9335898438e+003,3.9144870605e+003,3.9252563477e+003,3.9165385742e+003,3.9261538086e+003,3.9317949219e+003,3.9302563477e+003,3.9585898438e+003,3.9235898438e+003,3.9458974609e+003,
1.2812500000e+000,3.8544870605e+003,3.8242307129e+003,3.8383332520e+003,3.8461538086e+003,3.8155129395e+003,3.8182050781e+003,3.8269230957e+003,3.8147436523e+003,3.8358974609e+003,3.8260256348e+003,3.8311538086e+003,3.8614101563e+003,3.8319230957e+003,3.8510256348e+003,
1.2890625000e+000,3.8608974609e+003,3.8341025391e+003,3.8397436523e+003,3.8529487305e+003,3.8321794434e+003,3.8280769043e+003,3.8371794434e+003,3.8202563477e+003,3.8425642090e+003,3.8351281738e+003,3.8430769043e+003,3.8666667480e+003,3.8407692871e+003,3.8569230957e+003,
1.2968750000e+000,3.8850000000e+003,3.8570512695e+003,3.8600000000e+003,3.8753845215e+003,3.8475642090e+003,3.8533332520e+003,3.8634614258e+003,3.8438461914e+003,3.8632050781e+003,3.8630769043e+003,3.8606411133e+003,3.8888461914e+003,3.8603845215e+003,3.8761538086e+003,
1.3046875000e+000,3.8734614258e+003,3.8378205566e+003,3.8487180176e+003,3.8606411133e+003,3.8139743652e+003,3.8369230957e+003,3.8476923828e+003,3.8305129395e+003,3.8497436523e+003,3.8484614258e+003,3.8389743652e+003,3.8753845215e+003,3.8414101563e+003,3.8593588867e+003,
1.3125000000e+000,3.8593588867e+003,3.8091025391e+003,3.8287180176e+003,3.8417949219e+003,3.7853845215e+003,3.8078205566e+003,3.8224357910e+003,3.8039743652e+003,3.8275642090e+003,3.8157692871e+003,3.8125642090e+003,3.8497436523e+003,3.8144870605e+003,3.8337180176e+003,
1.3203125000e+000,3.9330769043e+003,3.8876923828e+003,3.8980769043e+003,3.9162819824e+003,3.8852563477e+003,3.8821794434e+003,3.8952563477e+003,3.8744870605e+003,3.8962819824e+003,3.8879487305e+003,3.8871794434e+003,3.9200000000e+003,3.8898718262e+003,3.9071794434e+003,
1.3281250000e+000,4.1252563477e+003,4.0912819824e+003,4.0857692871e+003,4.1100000000e+003,4.1133334961e+003,4.0815385742e+003,4.0844870605e+003,4.0696154785e+003,4.0850000000e+003,4.0916667480e+003,4.0870512695e+003,4.1111538086e+003,4.0855129395e+003,4.0984614258e+003,
1.3359375000e+000,4.1606411133e+003,4.1292309570e+003,4.1232050781e+003,4.1462822266e+003,4.1443588867e+003,4.1206411133e+003,4.1198715820e+003,4.1103847656e+003,4.1238461914e+003,4.1361538086e+003,4.1294873047e+003,4.1488461914e+003,4.1212822266e+003,4.1330771484e+003,
1.3437500000e+000,4.0205129395e+003,4.0014101563e+003,3.9920512695e+003,4.0120512695e+003,3.9873076172e+003,3.9853845215e+003,3.9930769043e+003,3.9852563477e+003,3.9947436523e+003,4.0056411133e+003,3.9891025391e+003,4.0121794434e+003,3.9847436523e+003,3.9985898438e+003,
1.3515625000e+000,3.9983332520e+003,3.9835898438e+003,3.9698718262e+003,3.9912819824e+003,3.9702563477e+003,3.9664101563e+003,3.9761538086e+003,3.9658974609e+003,3.9739743652e+003,3.9821794434e+003,3.9644870605e+003,3.9893588867e+003,3.9651281738e+003,3.9797436523e+003,
1.3593750000e+000,4.0020512695e+003,3.9873076172e+003,3.9739743652e+003,3.9955129395e+003,3.9784614258e+003,3.9752563477e+003,3.9843588867e+003,3.9724357910e+003,3.9789743652e+003,3.9856411133e+003,3.9714101563e+003,3.9943588867e+003,3.9712819824e+003,3.9864101563e+003,
1.3671875000e+000,4.0084614258e+003,3.9887180176e+003,3.9820512695e+003,4.0017949219e+003,3.9853845215e+003,3.9867949219e+003,3.9934614258e+003,3.9808974609e+003,3.9870512695e+003,3.9935898438e+003,3.9850000000e+003,4.0039743652e+003,3.9792307129e+003,3.9947436523e+003,
1.3750000000e+000,3.9375642090e+003,3.9043588867e+003,3.9089743652e+003,3.9314101563e+003,3.8900000000e+003,3.9011538086e+003,3.9108974609e+003,3.8992307129e+003,3.9123076172e+003,3.9166667480e+003,3.9046154785e+003,3.9237180176e+003,3.9042307129e+003,3.9192307129e+003,
1.3828125000e+000,4.1023076172e+003,4.0816667480e+003,4.0624357910e+003,4.0819230957e+003,4.0716667480e+003,4.0630769043e+003,4.0667949219e+003,4.0524357910e+003,4.0676923828e+003,4.0791025391e+003,4.0697436523e+003,4.0842307129e+003,4.0651281738e+003,4.0787180176e+003,
1.3906250000e+000,4.0888461914e+003,4.0676923828e+003,4.0484614258e+003,4.0680769043e+003,4.0730769043e+003,4.0553845215e+003,4.0526923828e+003,4.0426923828e+003,4.0582050781e+003,4.0724357910e+003,4.0620512695e+003,4.0717949219e+003,4.0538461914e+003,4.0639743652e+003,
1.3984375000e+000,3.9802563477e+003,3.9552563477e+003,3.9457692871e+003,3.9653845215e+003,3.9694870605e+003,3.9505129395e+003,3.9492307129e+003,3.9429487305e+003,3.9569230957e+003,3.9684614258e+003,3.9548718262e+003,3.9666667480e+003,3.9476923828e+003,3.9588461914e+003,
1.4062500000e+000,3.8976923828e+003,3.8670512695e+003,3.8674357910e+003,3.8857692871e+003,3.8651281738e+003,3.8710256348e+003,3.8748718262e+003,3.8688461914e+003,3.8853845215e+003,3.8857692871e+003,3.8746154785e+003,3.8847436523e+003,3.8703845215e+003,3.8823076172e+003,
1.4140625000e+000,3.8896154785e+003,3.8524357910e+003,3.8580769043e+003,3.8766667480e+003,3.8528205566e+003,3.8626923828e+003,3.8643588867e+003,3.8594870605e+003,3.8767949219e+003,3.8738461914e+003,3.8582050781e+003,3.8757692871e+003,3.8594870605e+003,3.8721794434e+003,
1.4218750000e+000,3.9044870605e+003,3.8583332520e+003,3.8684614258e+003,3.8833332520e+003,3.8670512695e+003,3.8701281738e+003,3.8739743652e+003,3.8669230957e+003,3.8839743652e+003,3.8825642090e+003,3.8565385742e+003,3.8846154785e+003,3.8684614258e+003,3.8796154785e+003,
1.4296875000e+000,3.9343588867e+003,3.8903845215e+003,3.8948718262e+003,3.9101281738e+003,3.8991025391e+003,3.8973076172e+003,3.9034614258e+003,3.8947436523e+003,3.9106411133e+003,3.9155129395e+003,3.8865385742e+003,3.9121794434e+003,3.8993588867e+003,3.9064101563e+003,
1.4375000000e+000,4.0630769043e+003,4.0323076172e+003,4.0138461914e+003,4.0433332520e+003,4.0034614258e+003,4.0220512695e+003,4.0224357910e+003,4.0152563477e+003,4.0294870605e+003,4.0494870605e+003,4.0307692871e+003,4.0412819824e+003,4.0334614258e+003,4.0334614258e+003,
1.4453125000e+000,4.1023076172e+003,4.0717949219e+003,4.0528205566e+003,4.0838461914e+003,4.0412819824e+003,4.0576923828e+003,4.0547436523e+003,4.0496154785e+003,4.0646154785e+003,4.0838461914e+003,4.0710256348e+003,4.0792307129e+003,4.0702563477e+003,4.0715385742e+003,
1.4531250000e+000,4.1316665039e+003,4.1042309570e+003,4.0919230957e+003,4.1228203125e+003,4.1035898438e+003,4.0883332520e+003,4.0852563477e+003,4.0803845215e+003,4.0950000000e+003,4.1116665039e+003,4.1014101563e+003,4.1120512695e+003,4.0967949219e+003,4.1001284180e+003,
1.4609375000e+000,4.1311538086e+003,4.1085898438e+003,4.0973076172e+003,4.1330771484e+003,4.1233334961e+003,4.0935898438e+003,4.0919230957e+003,4.0862819824e+003,4.0976923828e+003,4.1160258789e+003,4.1024360352e+003,4.1160258789e+003,4.0978203125e+003,4.1007690430e+003,
1.4687500000e+000,4.1464101563e+003,4.1346152344e+003,4.1119228516e+003,4.1648715820e+003,4.1397436523e+003,4.1152563477e+003,4.1117949219e+003,4.1142309570e+003,4.1179487305e+003,4.1455126953e+003,4.1230771484e+003,4.1330771484e+003,4.1226923828e+003,4.1175639648e+003,
1.4765625000e+000,4.1271796875e+003,4.1157690430e+003,4.0951281738e+003,4.1429487305e+003,4.1150000000e+003,4.0975639648e+003,4.0953845215e+003,4.0966665039e+003,4.1035898438e+003,4.1287177734e+003,4.1083334961e+003,4.1148715820e+003,4.1060258789e+003,4.1012822266e+003,
1.4843750000e+000,4.0970512695e+003,4.0852563477e+003,4.0707692871e+003,4.1134614258e+003,4.0864101563e+003,4.0717949219e+003,4.0735898438e+003,4.0687180176e+003,4.0800000000e+003,4.0998715820e+003,4.0842307129e+003,4.0884614258e+003,4.0778205566e+003,4.0760256348e+003,
1.4921875000e+000,4.0773076172e+003,4.0656411133e+003,4.0562819824e+003,4.1012822266e+003,4.0733332520e+003,4.0574357910e+003,4.0637180176e+003,4.0519230957e+003,4.0664101563e+003,4.0817949219e+003,4.0706411133e+003,4.0738461914e+003,4.0603845215e+003,4.0614101563e+003,
1.5000000000e+000,4.0942307129e+003,4.0848718262e+003,4.0676923828e+003,4.1466665039e+003,4.0751281738e+003,4.0688461914e+003,4.0697436523e+003,4.0688461914e+003,4.0839743652e+003,4.1048715820e+003,4.0851281738e+003,4.0932050781e+003,4.0803845215e+003,4.0769230957e+003,
1.5078125000e+000,4.0467949219e+003,4.0369230957e+003,4.0224357910e+003,4.0943588867e+003,4.0248718262e+003,4.0214101563e+003,4.0215385742e+003,4.0205129395e+003,4.0357692871e+003,4.0557692871e+003,4.0339743652e+003,4.0455129395e+003,4.0291025391e+003,4.0293588867e+003,
1.5156250000e+000,4.0017949219e+003,3.9937180176e+003,3.9797436523e+003,4.0350000000e+003,3.9934614258e+003,3.9867949219e+003,3.9865385742e+003,3.9743588867e+003,3.9889743652e+003,4.0001281738e+003,3.9916667480e+003,4.0001281738e+003,3.9843588867e+003,3.9892307129e+003,
1.5234375000e+000,4.1041025391e+003,4.0928205566e+003,4.0788461914e+003,4.1274360352e+003,4.0660256348e+003,4.0688461914e+003,4.0687180176e+003,4.0653845215e+003,4.0773076172e+003,4.1006411133e+003,4.0894870605e+003,4.0933332520e+003,4.0939743652e+003,4.0855129395e+003,
1.5312500000e+000,4.0935898438e+003,4.0820512695e+003,4.0687180176e+003,4.1216665039e+003,4.0491025391e+003,4.0539743652e+003,4.0556411133e+003,4.0537180176e+003,4.0656411133e+003,4.0929487305e+003,4.0774357910e+003,4.0817949219e+003,4.0829487305e+003,4.0739743652e+003,
1.5390625000e+000,4.1956411133e+003,4.1860258789e+003,4.1696152344e+003,4.2339741211e+003,4.1782050781e+003,4.1630771484e+003,4.1619228516e+003,4.1500000000e+003,4.1585898438e+003,4.1882050781e+003,4.1787177734e+003,4.1874360352e+003,4.1741025391e+003,4.1752563477e+003,
1.5468750000e+000,4.3494873047e+003,4.3550000000e+003,4.3260258789e+003,4.3848715820e+003,4.3521796875e+003,4.3229487305e+003,4.3193588867e+003,4.3134614258e+003,4.3157690430e+003,4.3580771484e+003,4.3511538086e+003,4.3456411133e+003,4.3391025391e+003,4.3324360352e+003,
1.5546875000e+000,4.3375639648e+003,4.3460258789e+003,4.3185898438e+003,4.3788461914e+003,4.3382050781e+003,4.3108974609e+003,4.3076923828e+003,4.3057690430e+003,4.3066665039e+003,4.3535898438e+003,4.3439741211e+003,4.3361538086e+003,4.3328203125e+003,4.3235898438e+003,
1.5625000000e+000,4.2185898438e+003,4.2357690430e+003,4.2126923828e+003,4.2785898438e+003,4.2252563477e+003,4.1992309570e+003,4.1907690430e+003,4.1929487305e+003,4.1965385742e+003,4.2367949219e+003,4.2369228516e+003,4.2244873047e+003,4.2203847656e+003,4.2132050781e+003,
1.5703125000e+000,4.1541025391e+003,4.1712822266e+003,4.1514101563e+003,4.2158974609e+003,4.1615385742e+003,4.1415385742e+003,4.1328203125e+003,4.1335898438e+003,4.1389741211e+003,4.1716665039e+003,4.1719228516e+003,4.1623076172e+003,4.1553847656e+003,4.1515385742e+003,
1.5781250000e+000,4.0553845215e+003,4.0606411133e+003,4.0539743652e+003,4.1121796875e+003,4.0502563477e+003,4.0460256348e+003,4.0451281738e+003,4.0396154785e+003,4.0483332520e+003,4.0720512695e+003,4.0573076172e+003,4.0606411133e+003,4.0521794434e+003,4.0544870605e+003,
1.5859375000e+000,4.0660256348e+003,4.0662819824e+003,4.0605129395e+003,4.1175639648e+003,4.0534614258e+003,4.0510256348e+003,4.0539743652e+003,4.0462819824e+003,4.0560256348e+003,4.0824357910e+003,4.0600000000e+003,4.0650000000e+003,4.0607692871e+003,4.0623076172e+003,
1.5937500000e+000,4.1556411133e+003,4.1626923828e+003,4.1444873047e+003,4.2041025391e+003,4.1544873047e+003,4.1333334961e+003,4.1328203125e+003,4.1293588867e+003,4.1348715820e+003,4.1714101563e+003,4.1641025391e+003,4.1550000000e+003,4.1496152344e+003,4.1482050781e+003,
1.6015625000e+000,4.1243588867e+003,4.1307690430e+003,4.1176923828e+003,4.1775639648e+003,4.1287177734e+003,4.1071796875e+003,4.1052563477e+003,4.1008974609e+003,4.1052563477e+003,4.1366665039e+003,4.1374360352e+003,4.1274360352e+003,4.1173076172e+003,4.1197436523e+003,
1.6093750000e+000,4.0910256348e+003,4.0928205566e+003,4.0873076172e+003,4.1498715820e+003,4.0914101563e+003,4.0792307129e+003,4.0771794434e+003,4.0687180176e+003,4.0737180176e+003,4.0987177734e+003,4.1019228516e+003,4.0933332520e+003,4.0825642090e+003,4.0883332520e+003,
1.6171875000e+000,4.0938461914e+003,4.0910256348e+003,4.0894870605e+003,4.1574360352e+003,4.0819230957e+003,4.0862819824e+003,4.0844870605e+003,4.0705129395e+003,4.0773076172e+003,4.0989741211e+003,4.0984614258e+003,4.0920512695e+003,4.0853845215e+003,4.0916667480e+003,
1.6250000000e+000,4.3160258789e+003,4.3357690430e+003,4.3089741211e+003,4.3721796875e+003,4.3314101563e+003,4.3150000000e+003,4.3076923828e+003,4.3067949219e+003,4.3124360352e+003,4.3484614258e+003,4.3257690430e+003,4.3210258789e+003,4.3230771484e+003,4.3171796875e+003,
1.6328125000e+000,4.2770512695e+003,4.3023076172e+003,4.2743588867e+003,4.3398715820e+003,4.3156411133e+003,4.2808974609e+003,4.2726923828e+003,4.2783334961e+003,4.2825639648e+003,4.3185898438e+003,4.2948715820e+003,4.2866665039e+003,4.2873076172e+003,4.2816665039e+003,
1.6406250000e+000,4.1523076172e+003,4.1803847656e+003,4.1535898438e+003,4.2644873047e+003,4.1896152344e+003,4.1689741211e+003,4.1642309570e+003,4.1558974609e+003,4.1592309570e+003,4.1843588867e+003,4.1764101563e+003,4.1650000000e+003,4.1614101563e+003,4.1580771484e+003,
1.6484375000e+000,4.1825639648e+003,4.2028203125e+003,4.1801284180e+003,4.3094873047e+003,4.2044873047e+003,4.1875639648e+003,4.1792309570e+003,4.1733334961e+003,4.1796152344e+003,4.2156411133e+003,4.2020512695e+003,4.1885898438e+003,4.1947436523e+003,4.1848715820e+003,
1.6562500000e+000,4.1473076172e+003,4.1626923828e+003,4.1470512695e+003,4.2705126953e+003,4.1683334961e+003,4.1489741211e+003,4.1441025391e+003,4.1365385742e+003,4.1432050781e+003,4.1801284180e+003,4.1641025391e+003,4.1512822266e+003,4.1583334961e+003,4.1510258789e+003,
1.6640625000e+000,4.2184614258e+003,4.2375639648e+003,4.2143588867e+003,4.3121796875e+003,4.2294873047e+003,4.2148715820e+003,4.2160258789e+003,4.1980771484e+003,4.2102563477e+003,4.2383334961e+003,4.2306411133e+003,4.2210258789e+003,4.2224360352e+003,4.2196152344e+003,
1.6718750000e+000,4.2576923828e+003,4.2852563477e+003,4.2587177734e+003,4.3460258789e+003,4.2752563477e+003,4.2605126953e+003,4.2512822266e+003,4.2479487305e+003,4.2606411133e+003,4.2930771484e+003,4.2846152344e+003,4.2671796875e+003,4.2715385742e+003,4.2632050781e+003,
1.6796875000e+000,4.2528203125e+003,4.2762822266e+003,4.2539741211e+003,4.3439741211e+003,4.2470512695e+003,4.2557690430e+003,4.2485898438e+003,4.2402563477e+003,4.2512822266e+003,4.2853847656e+003,4.2774360352e+003,4.2587177734e+003,4.2652563477e+003,4.2564101563e+003,
1.6875000000e+000,4.2907690430e+003,4.3133334961e+003,4.2889741211e+003,4.3803847656e+003,4.2641025391e+003,4.2929487305e+003,4.2880771484e+003,4.2739741211e+003,4.2839741211e+003,4.3193588867e+003,4.3126923828e+003,4.2915385742e+003,4.3002563477e+003,4.2907690430e+003,
1.6953125000e+000,4.4603847656e+003,4.4955126953e+003,4.4558974609e+003,4.5367949219e+003,4.4585898438e+003,4.4619228516e+003,4.4556411133e+003,4.4464101563e+003,4.4519228516e+003,4.4941025391e+003,4.4882050781e+003,4.4614101563e+003,4.4703847656e+003,4.4607690430e+003,
1.7031250000e+000,4.5474360352e+003,4.5965385742e+003,4.5541025391e+003,4.6246152344e+003,4.6298715820e+003,4.5543588867e+003,4.5365385742e+003,4.5508974609e+003,4.5416665039e+003,4.5975639648e+003,4.5957690430e+003,4.5674360352e+003,4.5744873047e+003,4.5657690430e+003,
1.7109375000e+000,4.5278203125e+003,4.5785898438e+003,4.5361538086e+003,4.6089741211e+003,4.6014101563e+003,4.5385898438e+003,4.5212822266e+003,4.5343588867e+003,4.5241025391e+003,4.5805126953e+003,4.5829487305e+003,4.5532050781e+003,4.5598715820e+003,4.5496152344e+003,
1.7187500000e+000,4.5128203125e+003,4.5651284180e+003,4.5232050781e+003,4.5962822266e+003,4.5684614258e+003,4.5279487305e+003,4.5142309570e+003,4.5229487305e+003,4.5138461914e+003,4.5696152344e+003,4.5748715820e+003,4.5438461914e+003,4.5485898438e+003,4.5373076172e+003,
1.7265625000e+000,4.5211538086e+003,4.5789741211e+003,4.5407690430e+003,4.6076923828e+003,4.5685898438e+003,4.5457690430e+003,4.5360258789e+003,4.5420512695e+003,4.5353847656e+003,4.5932050781e+003,4.5924360352e+003,4.5605126953e+003,4.5644873047e+003,4.5506411133e+003,
1.7343750000e+000,4.5267949219e+003,4.5897436523e+003,4.5511538086e+003,4.6165385742e+003,4.5867949219e+003,4.5556411133e+003,4.5428203125e+003,4.5524360352e+003,4.5453847656e+003,4.6056411133e+003,4.5989741211e+003,4.5676923828e+003,4.5747436523e+003,4.5584614258e+003,
1.7421875000e+000,4.5079487305e+003,4.5769228516e+003,4.5356411133e+003,4.6012822266e+003,4.5771796875e+003,4.5401284180e+003,4.5239741211e+003,4.5369228516e+003,4.5287177734e+003,4.5894873047e+003,4.5794873047e+003,4.5501284180e+003,4.5596152344e+003,4.5421796875e+003,
1.7500000000e+000,4.2415385742e+003,4.2930771484e+003,4.2774360352e+003,4.3242309570e+003,4.2814101563e+003,4.2667949219e+003,4.2662822266e+003,4.2615385742e+003,4.2642309570e+003,4.2989741211e+003,4.2933334961e+003,4.2808974609e+003,4.2785898438e+003,4.2776923828e+003,
1.7578125000e+000,4.2458974609e+003,4.2928203125e+003,4.2815385742e+003,4.3294873047e+003,4.2997436523e+003,4.2688461914e+003,4.2674360352e+003,4.2626923828e+003,4.2688461914e+003,4.3015385742e+003,4.2957690430e+003,4.2832050781e+003,4.2842309570e+003,4.2815385742e+003,
1.7656250000e+000,4.1951284180e+003,4.2512822266e+003,4.2291025391e+003,4.2794873047e+003,4.2223076172e+003,4.2241025391e+003,4.2212822266e+003,4.2197436523e+003,4.2244873047e+003,4.2538461914e+003,4.2611538086e+003,4.2406411133e+003,4.2414101563e+003,4.2429487305e+003,
1.7734375000e+000,4.2403847656e+003,4.2902563477e+003,4.2698715820e+003,4.3080771484e+003,4.2594873047e+003,4.2582050781e+003,4.2605126953e+003,4.2544873047e+003,4.2610258789e+003,4.2915385742e+003,4.2833334961e+003,4.2771796875e+003,4.2747436523e+003,4.2802563477e+003,
1.7812500000e+000,4.2783334961e+003,4.3257690430e+003,4.3089741211e+003,4.3465385742e+003,4.3233334961e+003,4.2923076172e+003,4.2926923828e+003,4.2880771484e+003,4.2960258789e+003,4.3266665039e+003,4.3144873047e+003,4.3137177734e+003,4.3103847656e+003,4.3171796875e+003,
1.7890625000e+000,4.2880771484e+003,4.3379487305e+003,4.3214101563e+003,4.3682050781e+003,4.3405126953e+003,4.3069228516e+003,4.2985898438e+003,4.2996152344e+003,4.3016665039e+003,4.3378203125e+003,4.3410258789e+003,4.3311538086e+003,4.3334614258e+003,4.3362822266e+003,
1.7968750000e+000,4.4315385742e+003,4.4873076172e+003,4.4614101563e+003,4.5030771484e+003,4.4725639648e+003,4.4521796875e+003,4.4403847656e+003,4.4396152344e+003,4.4358974609e+003,4.4773076172e+003,4.4834614258e+003,4.4741025391e+003,4.4779487305e+003,4.4730771484e+003,
1.8046875000e+000,4.4992309570e+003,4.5624360352e+003,4.5285898438e+003,4.5674360352e+003,4.5542309570e+003,4.5176923828e+003,4.5060258789e+003,4.5112822266e+003,4.5085898438e+003,4.5524360352e+003,4.5547436523e+003,4.5435898438e+003,4.5469228516e+003,4.5410258789e+003,
1.8125000000e+000,4.5220512695e+003,4.5911538086e+003,4.5532050781e+003,4.5882050781e+003,4.5820512695e+003,4.5388461914e+003,4.5288461914e+003,4.5412822266e+003,4.5383334961e+003,4.5856411133e+003,4.5843588867e+003,4.5711538086e+003,4.5726923828e+003,4.5669228516e+003,
1.8203125000e+000,4.4387177734e+003,4.5046152344e+003,4.4771796875e+003,4.5057690430e+003,4.4820512695e+003,4.4584614258e+003,4.4514101563e+003,4.4667949219e+003,4.4607690430e+003,4.5107690430e+003,4.5120512695e+003,4.4973076172e+003,4.4937177734e+003,4.4884614258e+003,
1.8281250000e+000,4.4064101563e+003,4.4664101563e+003,4.4453847656e+003,4.4908974609e+003,4.4629487305e+003,4.4433334961e+003,4.4232050781e+003,4.4266665039e+003,4.4278203125e+003,4.4684614258e+003,4.4762822266e+003,4.4584614258e+003,4.4701284180e+003,4.4515385742e+003,
1.8359375000e+000,4.4362822266e+003,4.5026923828e+003,4.4747436523e+003,4.5251284180e+003,4.4882050781e+003,4.4729487305e+003,4.4535898438e+003,4.4564101563e+003,4.4585898438e+003,4.4978203125e+003,4.5033334961e+003,4.4874360352e+003,4.5032050781e+003,4.4814101563e+003,
1.8437500000e+000,4.4570512695e+003,4.5306411133e+003,4.4950000000e+003,4.5456411133e+003,4.4947436523e+003,4.4897436523e+003,4.4750000000e+003,4.4779487305e+003,4.4789741211e+003,4.5194873047e+003,4.5230771484e+003,4.5088461914e+003,4.5253847656e+003,4.5029487305e+003,
1.8515625000e+000,4.4576923828e+003,4.5355126953e+003,4.4937177734e+003,4.5347436523e+003,4.4842309570e+003,4.4856411133e+003,4.4744873047e+003,4.4789741211e+003,4.4765385742e+003,4.5228203125e+003,4.5278203125e+003,4.5079487305e+003,4.5247436523e+003,4.5026923828e+003,
1.8593750000e+000,4.4494873047e+003,4.5237177734e+003,4.4865385742e+003,4.5220512695e+003,4.4939741211e+003,4.4807690430e+003,4.4652563477e+003,4.4707690430e+003,4.4680771484e+003,4.5147436523e+003,4.5203847656e+003,4.4985898438e+003,4.5153847656e+003,4.4930771484e+003,
1.8671875000e+000,4.4424360352e+003,4.5126923828e+003,4.4821796875e+003,4.5146152344e+003,4.5126923828e+003,4.4783334961e+003,4.4576923828e+003,4.4643588867e+003,4.4621796875e+003,4.5061538086e+003,4.5105126953e+003,4.4915385742e+003,4.5073076172e+003,4.4850000000e+003,
1.8750000000e+000,4.3888461914e+003,4.4644873047e+003,4.4282050781e+003,4.4671796875e+003,4.4494873047e+003,4.4271796875e+003,4.4174360352e+003,4.4238461914e+003,4.4211538086e+003,4.4614101563e+003,4.4711538086e+003,4.4483334961e+003,4.4603847656e+003,4.4411538086e+003,
1.8828125000e+000,4.3883334961e+003,4.4644873047e+003,4.4279487305e+003,4.4660258789e+003,4.4506411133e+003,4.4325639648e+003,4.4224360352e+003,4.4258974609e+003,4.4239741211e+003,4.4646152344e+003,4.4792309570e+003,4.4514101563e+003,4.4648715820e+003,4.4433334961e+003,
1.8906250000e+000,4.4108974609e+003,4.4902563477e+003,4.4516665039e+003,4.4810258789e+003,4.4775639648e+003,4.4592309570e+003,4.4443588867e+003,4.4578203125e+003,4.4570512695e+003,4.4953847656e+003,4.4932050781e+003,4.4780771484e+003,4.4997436523e+003,4.4698715820e+003,
1.8984375000e+000,4.3852563477e+003,4.4496152344e+003,4.4343588867e+003,4.4423076172e+003,4.4317949219e+003,4.4298715820e+003,4.4197436523e+003,4.4351284180e+003,4.4298715820e+003,4.4648715820e+003,4.4650000000e+003,4.4569228516e+003,4.4646152344e+003,4.4452563477e+003,
1.9062500000e+000,4.3925639648e+003,4.4537177734e+003,4.4416665039e+003,4.4500000000e+003,4.4478203125e+003,4.4380771484e+003,4.4283334961e+003,4.4420512695e+003,4.4367949219e+003,4.4708974609e+003,4.4770512695e+003,4.4658974609e+003,4.4698715820e+003,4.4510258789e+003,
1.9140625000e+000,4.3546152344e+003,4.4184614258e+003,4.3941025391e+003,4.4212822266e+003,4.4028203125e+003,4.3957690430e+003,4.3850000000e+003,4.4030771484e+003,4.3944873047e+003,4.4282050781e+003,4.4385898438e+003,4.4280771484e+003,4.4280771484e+003,4.4147436523e+003,
1.9218750000e+000,4.2951284180e+003,4.3602563477e+003,4.3362822266e+003,4.3552563477e+003,4.3102563477e+003,4.3308974609e+003,4.3226923828e+003,4.3319228516e+003,4.3323076172e+003,4.3584614258e+003,4.3641025391e+003,4.3569228516e+003,4.3662822266e+003,4.3535898438e+003,
1.9296875000e+000,4.3087177734e+003,4.3723076172e+003,4.3520512695e+003,4.3671796875e+003,4.3421796875e+003,4.3444873047e+003,4.3367949219e+003,4.3430771484e+003,4.3457690430e+003,4.3693588867e+003,4.3761538086e+003,4.3698715820e+003,4.3807690430e+003,4.3644873047e+003,
1.9375000000e+000,4.3298715820e+003,4.3908974609e+003,4.3728203125e+003,4.3847436523e+003,4.3847436523e+003,4.3633334961e+003,4.3556411133e+003,4.3615385742e+003,4.3644873047e+003,4.3880771484e+003,4.3967949219e+003,4.3912822266e+003,4.4021796875e+003,4.3846152344e+003,
1.9453125000e+000,4.3537177734e+003,4.4103847656e+003,4.3905126953e+003,4.3961538086e+003,4.4182050781e+003,4.3787177734e+003,4.3702563477e+003,4.3797436523e+003,4.3816665039e+003,4.4085898438e+003,4.4206411133e+003,4.4132050781e+003,4.4224360352e+003,4.4117949219e+003,
1.9531250000e+000,4.2641025391e+003,4.3115385742e+003,4.3071796875e+003,4.3075639648e+003,4.3075639648e+003,4.2984614258e+003,4.2896152344e+003,4.2955126953e+003,4.2992309570e+003,4.3166665039e+003,4.3278203125e+003,4.3275639648e+003,4.3260258789e+003,4.3266665039e+003,
1.9609375000e+000,4.2252563477e+003,4.2706411133e+003,4.2729487305e+003,4.2687177734e+003,4.2717949219e+003,4.2657690430e+003,4.2574360352e+003,4.2603847656e+003,4.2650000000e+003,4.2776923828e+003,4.2855126953e+003,4.2914101563e+003,4.2860258789e+003,4.2875639648e+003,
1.9687500000e+000,4.2079487305e+003,4.2541025391e+003,4.2575639648e+003,4.2478203125e+003,4.2564101563e+003,4.2520512695e+003,4.2444873047e+003,4.2458974609e+003,4.2511538086e+003,4.2611538086e+003,4.2660258789e+003,4.2746152344e+003,4.2683334961e+003,4.2696152344e+003,
1.9765625000e+000,4.2426923828e+003,4.2932050781e+003,4.2885898438e+003,4.2751284180e+003,4.2838461914e+003,4.2835898438e+003,4.2788461914e+003,4.2814101563e+003,4.2867949219e+003,4.2984614258e+003,4.3050000000e+003,4.3044873047e+003,4.3047436523e+003,4.3026923828e+003,
1.9843750000e+000,4.2657690430e+003,4.3156411133e+003,4.3091025391e+003,4.2982050781e+003,4.3033334961e+003,4.3023076172e+003,4.2985898438e+003,4.3024360352e+003,4.3069228516e+003,4.3216665039e+003,4.3316665039e+003,4.3247436523e+003,4.3289741211e+003,4.3243588867e+003,
1.9921875000e+000,4.2683334961e+003,4.3157690430e+003,4.3103847656e+003,4.3020512695e+003,4.3042309570e+003,4.3017949219e+003,4.2979487305e+003,4.3026923828e+003,4.3058974609e+003,4.3225639648e+003,4.3358974609e+003,4.3251284180e+003,4.3317949219e+003,4.3251284180e+003,
2.0000000000e+000,4.1510258789e+003,4.1969228516e+003,4.2002563477e+003,4.1884614258e+003,4.1665385742e+003,4.2006411133e+003,4.1929487305e+003,4.1907690430e+003,4.1950000000e+003,4.1956411133e+003,4.1989741211e+003,4.2084614258e+003,4.2017949219e+003,4.2028203125e+003,
2.0078125000e+000,4.1388461914e+003,4.1824360352e+003,4.1891025391e+003,4.1802563477e+003,4.1723076172e+003,4.1862822266e+003,4.1791025391e+003,4.1778203125e+003,4.1821796875e+003,4.1864101563e+003,4.1873076172e+003,4.1937177734e+003,4.1914101563e+003,4.1906411133e+003,
2.0156250000e+000,4.0864101563e+003,4.1244873047e+003,4.1324360352e+003,4.1329487305e+003,4.1457690430e+003,4.1221796875e+003,4.1234614258e+003,4.1176923828e+003,4.1206411133e+003,4.1192309570e+003,4.1323076172e+003,4.1350000000e+003,4.1320512695e+003,4.1329487305e+003,
2.0234375000e+000,4.3342309570e+003,4.3828203125e+003,4.3580771484e+003,4.3728203125e+003,4.3810258789e+003,4.3733334961e+003,4.3675639648e+003,4.3674360352e+003,4.3697436523e+003,4.3726923828e+003,4.3875639648e+003,4.3783334961e+003,4.3778203125e+003,4.3802563477e+003,
2.0312500000e+000,4.3779487305e+003,4.4294873047e+003,4.4016665039e+003,4.4139741211e+003,4.4289741211e+003,4.4188461914e+003,4.4097436523e+003,4.4143588867e+003,4.4138461914e+003,4.4298715820e+003,4.4353847656e+003,4.4223076172e+003,4.4283334961e+003,4.4262822266e+003,
2.0390625000e+000,4.3285898438e+003,4.3753847656e+003,4.3701284180e+003,4.3562822266e+003,4.3729487305e+003,4.3683334961e+003,4.3628203125e+003,4.3644873047e+003,4.3606411133e+003,4.3732050781e+003,4.3862822266e+003,4.3751284180e+003,4.3851284180e+003,4.3800000000e+003,
2.0468750000e+000,4.3148715820e+003,4.3625639648e+003,4.3616665039e+003,4.3482050781e+003,4.3600000000e+003,4.3615385742e+003,4.3533334961e+003,4.3579487305e+003,4.3570512695e+003,4.3703847656e+003,4.3856411133e+003,4.3752563477e+003,4.3762822266e+003,4.3783334961e+003,
2.0546875000e+000,4.2775639648e+003,4.3278203125e+003,4.3248715820e+003,4.3130771484e+003,4.3138461914e+003,4.3269228516e+003,4.3202563477e+003,4.3235898438e+003,4.3214101563e+003,4.3378203125e+003,4.3496152344e+003,4.3419228516e+003,4.3383334961e+003,4.3444873047e+003,
2.0625000000e+000,4.2538461914e+003,4.3062822266e+003,4.2993588867e+003,4.2901284180e+003,4.2780771484e+003,4.3041025391e+003,4.2996152344e+003,4.3006411133e+003,4.2969228516e+003,4.3119228516e+003,4.3226923828e+003,4.3175639648e+003,4.3125639648e+003,4.3193588867e+003,
2.0703125000e+000,4.2871796875e+003,4.3397436523e+003,4.3257690430e+003,4.3205126953e+003,4.3107690430e+003,4.3332050781e+003,4.3296152344e+003,4.3333334961e+003,4.3273076172e+003,4.3346152344e+003,4.3457690430e+003,4.3439741211e+003,4.3443588867e+003,4.3407690430e+003,
2.0781250000e+000,4.2279487305e+003,4.2707690430e+003,4.2694873047e+003,4.2510258789e+003,4.2964101563e+003,4.2698715820e+003,4.2657690430e+003,4.2764101563e+003,4.2715385742e+003,4.2816665039e+003,4.2805126953e+003,4.2878203125e+003,4.2847436523e+003,4.2803847656e+003,
2.0859375000e+000,4.1702563477e+003,4.2096152344e+003,4.2101284180e+003,4.1923076172e+003,4.2366665039e+003,4.2116665039e+003,4.2091025391e+003,4.2169228516e+003,4.2153847656e+003,4.2215385742e+003,4.2212822266e+003,4.2291025391e+003,4.2230771484e+003,4.2246152344e+003,
2.0937500000e+000,4.1101284180e+003,4.1465385742e+003,4.1478203125e+003,4.1337177734e+003,4.1652563477e+003,4.1506411133e+003,4.1502563477e+003,4.1558974609e+003,4.1584614258e+003,4.1567949219e+003,4.1620512695e+003,4.1675639648e+003,4.1589741211e+003,4.1664101563e+003,
2.1015625000e+000,3.9297436523e+003,3.9617949219e+003,3.9697436523e+003,3.9602563477e+003,3.9644870605e+003,3.9733332520e+003,3.9775642090e+003,3.9847436523e+003,3.9933332520e+003,3.9765385742e+003,3.9888461914e+003,3.9888461914e+003,3.9802563477e+003,3.9914101563e+003,
2.1093750000e+000,3.8020512695e+003,3.8297436523e+003,3.8447436523e+003,3.8325642090e+003,3.8321794434e+003,3.8500000000e+003,3.8560256348e+003,3.8632050781e+003,3.8741025391e+003,3.8519230957e+003,3.8584614258e+003,3.8614101563e+003,3.8558974609e+003,3.8641025391e+003,
2.1171875000e+000,3.6816667480e+003,3.7016667480e+003,3.7250000000e+003,3.7080769043e+003,3.7056411133e+003,3.7317949219e+003,3.7398718262e+003,3.7441025391e+003,3.7571794434e+003,3.7293588867e+003,3.7271794434e+003,3.7382050781e+003,3.7346154785e+003,3.7407692871e+003,
2.1250000000e+000,3.6028205566e+003,3.6117949219e+003,3.6438461914e+003,3.6233332520e+003,3.6178205566e+003,3.6493588867e+003,3.6602563477e+003,3.6588461914e+003,3.6746154785e+003,3.6397436523e+003,3.6325642090e+003,3.6534614258e+003,3.6478205566e+003,3.6558974609e+003,
2.1328125000e+000,3.5623076172e+003,3.5391025391e+003,3.5807692871e+003,3.5851281738e+003,3.5515385742e+003,3.5710256348e+003,3.5916667480e+003,3.5853845215e+003,3.6115385742e+003,3.5619230957e+003,3.5714101563e+003,3.5921794434e+003,3.5783332520e+003,3.5987180176e+003,
2.1406250000e+000,3.3912819824e+003,3.3344870605e+003,3.3869230957e+003,3.3916667480e+003,3.3356411133e+003,3.3938461914e+003,3.4124357910e+003,3.3976923828e+003,3.4241025391e+003,3.3601281738e+003,3.3585898438e+003,3.3935898438e+003,3.3811538086e+003,3.4076923828e+003,
2.1484375000e+000,3.4758974609e+003,3.4116667480e+003,3.4567949219e+003,3.4670512695e+003,3.4587180176e+003,3.4603845215e+003,3.4774357910e+003,3.4673076172e+003,3.4935898438e+003,3.4326923828e+003,3.4271794434e+003,3.4664101563e+003,3.4516667480e+003,3.4730769043e+003,
2.1562500000e+000,3.4497436523e+003,3.3814101563e+003,3.4310256348e+003,3.4421794434e+003,3.4164101563e+003,3.4317949219e+003,3.4498718262e+003,3.4393588867e+003,3.4650000000e+003,3.4058974609e+003,3.3964101563e+003,3.4370512695e+003,3.4234614258e+003,3.4442307129e+003,
2.1640625000e+000,3.3911538086e+003,3.2984614258e+003,3.3594870605e+003,3.3662819824e+003,3.3162819824e+003,3.3507692871e+003,3.3752563477e+003,3.3515385742e+003,3.3828205566e+003,3.3206411133e+003,3.3273076172e+003,3.3564101563e+003,3.3406411133e+003,3.3705129395e+003,
2.1718750000e+000,3.4251281738e+003,3.3306411133e+003,3.3883332520e+003,3.3937180176e+003,3.3520512695e+003,3.3785898438e+003,3.4046154785e+003,3.3789743652e+003,3.4097436523e+003,3.3494870605e+003,3.3608974609e+003,3.3874357910e+003,3.3703845215e+003,3.4006411133e+003,
2.1796875000e+000,3.4644870605e+003,3.3732050781e+003,3.4239743652e+003,3.4310256348e+003,3.3901281738e+003,3.4150000000e+003,3.4387180176e+003,3.4208974609e+003,3.4474357910e+003,3.3965385742e+003,3.3941025391e+003,3.4278205566e+003,3.4133332520e+003,3.4396154785e+003,
2.1875000000e+000,3.4194870605e+003,3.3252563477e+003,3.3788461914e+003,3.3894870605e+003,3.3379487305e+003,3.3689743652e+003,3.3911538086e+003,3.3778205566e+003,3.4048718262e+003,3.3543588867e+003,3.3415385742e+003,3.3817949219e+003,3.3682050781e+003,3.3946154785e+003,
2.1953125000e+000,3.3234614258e+003,3.2060256348e+003,3.2683332520e+003,3.2966667480e+003,3.2035898438e+003,3.2533332520e+003,3.2832050781e+003,3.2567949219e+003,3.2935898438e+003,3.2234614258e+003,3.2180769043e+003,3.2697436523e+003,3.2503845215e+003,3.2829487305e+003,
2.2031250000e+000,3.4065385742e+003,3.2857692871e+003,3.3434614258e+003,3.3750000000e+003,3.2757692871e+003,3.3285898438e+003,3.3600000000e+003,3.3323076172e+003,3.3687180176e+003,3.3000000000e+003,3.3016667480e+003,3.3480769043e+003,3.3289743652e+003,3.3592307129e+003,
2.2109375000e+000,3.5078205566e+003,3.3851281738e+003,3.4424357910e+003,3.4700000000e+003,3.3876923828e+003,3.4283332520e+003,3.4541025391e+003,3.4412819824e+003,3.4720512695e+003,3.4165385742e+003,3.4171794434e+003,3.4497436523e+003,3.4307692871e+003,3.4562819824e+003,
2.2187500000e+000,3.4417949219e+003,3.3170512695e+003,3.3819230957e+003,3.4033332520e+003,3.3398718262e+003,3.3671794434e+003,3.3903845215e+003,3.3815385742e+003,3.4108974609e+003,3.3561538086e+003,3.3530769043e+003,3.3858974609e+003,3.3629487305e+003,3.3910256348e+003,
2.2265625000e+000,3.3146154785e+003,3.1816667480e+003,3.2487180176e+003,3.2673076172e+003,3.2233332520e+003,3.2311538086e+003,3.2629487305e+003,3.2305129395e+003,3.2644870605e+003,3.1937180176e+003,3.1906411133e+003,3.2378205566e+003,3.2179487305e+003,3.2537180176e+003,
2.2343750000e+000,3.4225642090e+003,3.2894870605e+003,3.3467949219e+003,3.3711538086e+003,3.3216667480e+003,3.3302563477e+003,3.3625642090e+003,3.3276923828e+003,3.3619230957e+003,3.2951281738e+003,3.2903845215e+003,3.3362819824e+003,3.3237180176e+003,3.3571794434e+003,
2.2421875000e+000,3.5516667480e+003,3.4191025391e+003,3.4680769043e+003,3.4966667480e+003,3.4441025391e+003,3.4529487305e+003,3.4828205566e+003,3.4512819824e+003,3.4839743652e+003,3.4271794434e+003,3.4193588867e+003,3.4612819824e+003,3.4523076172e+003,3.4841025391e+003,
2.2500000000e+000,3.6444870605e+003,3.5298718262e+003,3.5620512695e+003,3.5748718262e+003,3.5462819824e+003,3.5514101563e+003,3.5746154785e+003,3.5543588867e+003,3.5819230957e+003,3.5487180176e+003,3.5412819824e+003,3.5666667480e+003,3.5574357910e+003,3.5794870605e+003,
2.2578125000e+000,3.6503845215e+003,3.5389743652e+003,3.5703845215e+003,3.5782050781e+003,3.5523076172e+003,3.5593588867e+003,3.5830769043e+003,3.5621794434e+003,3.5902563477e+003,3.5567949219e+003,3.5470512695e+003,3.5748718262e+003,3.5641025391e+003,3.5884614258e+003,
2.2656250000e+000,3.7026923828e+003,3.5943588867e+003,3.6202563477e+003,3.6311538086e+003,3.5701281738e+003,3.6116667480e+003,3.6312819824e+003,3.6100000000e+003,3.6392307129e+003,3.6101281738e+003,3.5969230957e+003,3.6270512695e+003,3.6189743652e+003,3.6370512695e+003,
2.2734375000e+000,3.7355129395e+003,3.6303845215e+003,3.6567949219e+003,3.6611538086e+003,3.6266667480e+003,3.6367949219e+003,3.6583332520e+003,3.6443588867e+003,3.6707692871e+003,3.6408974609e+003,3.6357692871e+003,3.6641025391e+003,3.6588461914e+003,3.6764101563e+003,
2.2812500000e+000,3.7551281738e+003,3.6517949219e+003,3.6773076172e+003,3.6783332520e+003,3.6666667480e+003,3.6517949219e+003,3.6738461914e+003,3.6606411133e+003,3.6878205566e+003,3.6628205566e+003,3.6584614258e+003,3.6843588867e+003,3.6747436523e+003,3.6985898438e+003,
2.2890625000e+000,3.8474357910e+003,3.7556411133e+003,3.7688461914e+003,3.7730769043e+003,3.7652563477e+003,3.7491025391e+003,3.7630769043e+003,3.7496154785e+003,3.7765385742e+003,3.7705129395e+003,3.7587180176e+003,3.7801281738e+003,3.7733332520e+003,3.7892307129e+003,
2.2968750000e+000,3.8691025391e+003,3.7776923828e+003,3.7943588867e+003,3.7973076172e+003,3.7817949219e+003,3.7760256348e+003,3.7879487305e+003,3.7767949219e+003,3.8011538086e+003,3.7946154785e+003,3.7816667480e+003,3.8052563477e+003,3.8028205566e+003,3.8116667480e+003,
2.3046875000e+000,3.8960256348e+003,3.8071794434e+003,3.8252563477e+003,3.8270512695e+003,3.8107692871e+003,3.8073076172e+003,3.8207692871e+003,3.8150000000e+003,3.8352563477e+003,3.8230769043e+003,3.8110256348e+003,3.8360256348e+003,3.8357692871e+003,3.8424357910e+003,
2.3125000000e+000,3.8958974609e+003,3.8108974609e+003,3.8217949219e+003,3.8279487305e+003,3.8110256348e+003,3.8075642090e+003,3.8224357910e+003,3.8164101563e+003,3.8366667480e+003,3.8235898438e+003,3.8124357910e+003,3.8353845215e+003,3.8316667480e+003,3.8430769043e+003,
2.3203125000e+000,3.8355129395e+003,3.7562819824e+003,3.7567949219e+003,3.7751281738e+003,3.7555129395e+003,3.7564101563e+003,3.7657692871e+003,3.7558974609e+003,3.7776923828e+003,3.7652563477e+003,3.7573076172e+003,3.7734614258e+003,3.7617949219e+003,3.7800000000e+003,
2.3281250000e+000,3.8469230957e+003,3.7662819824e+003,3.7719230957e+003,3.7900000000e+003,3.7714101563e+003,3.7692307129e+003,3.7783332520e+003,3.7669230957e+003,3.7882050781e+003,3.7773076172e+003,3.7703845215e+003,3.7832050781e+003,3.7762819824e+003,3.7907692871e+003,
2.3359375000e+000,3.9797436523e+003,3.9029487305e+003,3.9121794434e+003,3.9320512695e+003,3.8932050781e+003,3.8982050781e+003,3.9115385742e+003,3.8957692871e+003,3.9164101563e+003,3.9121794434e+003,3.9033332520e+003,3.9128205566e+003,3.9193588867e+003,3.9237180176e+003,
2.3437500000e+000,4.0737180176e+003,4.0051281738e+003,4.0069230957e+003,4.0287180176e+003,3.9775642090e+003,3.9911538086e+003,4.0042307129e+003,3.9884614258e+003,4.0089743652e+003,4.0100000000e+003,3.9966667480e+003,4.0080769043e+003,4.0166667480e+003,4.0184614258e+003,
2.3515625000e+000,4.1438461914e+003,4.0965385742e+003,4.0770512695e+003,4.0958974609e+003,4.0857692871e+003,4.0755129395e+003,4.0755129395e+003,4.0775642090e+003,4.0903845215e+003,4.1064101563e+003,4.0905129395e+003,4.0966665039e+003,4.0905129395e+003,4.1010258789e+003,
2.3593750000e+000,4.0811538086e+003,4.0329487305e+003,4.0180769043e+003,4.0338461914e+003,4.0453845215e+003,4.0182050781e+003,4.0183332520e+003,4.0208974609e+003,4.0308974609e+003,4.0476923828e+003,4.0383332520e+003,4.0397436523e+003,4.0306411133e+003,4.0446154785e+003,
2.3671875000e+000,4.0342307129e+003,3.9841025391e+003,3.9744870605e+003,3.9873076172e+003,4.0083332520e+003,3.9730769043e+003,3.9762819824e+003,3.9737180176e+003,3.9829487305e+003,3.9988461914e+003,3.9946154785e+003,3.9938461914e+003,3.9874357910e+003,4.0007692871e+003,
2.3750000000e+000,4.0406411133e+003,3.9903845215e+003,3.9816667480e+003,3.9920512695e+003,4.0105129395e+003,3.9775642090e+003,3.9841025391e+003,3.9751281738e+003,3.9853845215e+003,4.0008974609e+003,3.9974357910e+003,3.9973076172e+003,3.9975642090e+003,4.0064101563e+003,
2.3828125000e+000,4.2914101563e+003,4.2555126953e+003,4.2394873047e+003,4.2408974609e+003,4.2442309570e+003,4.2273076172e+003,4.2232050781e+003,4.2255126953e+003,4.2326923828e+003,4.2630771484e+003,4.2534614258e+003,4.2560258789e+003,4.2558974609e+003,4.2598715820e+003,
2.3906250000e+000,4.3073076172e+003,4.2788461914e+003,4.2585898438e+003,4.2612822266e+003,4.2692309570e+003,4.2469228516e+003,4.2437177734e+003,4.2453847656e+003,4.2502563477e+003,4.2850000000e+003,4.2771796875e+003,4.2761538086e+003,4.2766665039e+003,4.2789741211e+003,
2.3984375000e+000,4.3335898438e+003,4.3229487305e+003,4.2885898438e+003,4.2905126953e+003,4.3115385742e+003,4.2862822266e+003,4.2817949219e+003,4.2775639648e+003,4.2789741211e+003,4.3225639648e+003,4.3119228516e+003,4.3079487305e+003,4.3133334961e+003,4.3098715820e+003,
2.4062500000e+000,4.2980771484e+003,4.2911538086e+003,4.2635898438e+003,4.2676923828e+003,4.2600000000e+003,4.2607690430e+003,4.2519228516e+003,4.2544873047e+003,4.2589741211e+003,4.2932050781e+003,4.2873076172e+003,4.2830771484e+003,4.2806411133e+003,4.2852563477e+003,
2.4140625000e+000,4.2617949219e+003,4.2592309570e+003,4.2308974609e+003,4.2424360352e+003,4.2252563477e+003,4.2300000000e+003,4.2239741211e+003,4.2248715820e+003,4.2294873047e+003,4.2594873047e+003,4.2566665039e+003,4.2505126953e+003,4.2493588867e+003,4.2516665039e+003,
2.4218750000e+000,4.2861538086e+003,4.2820512695e+003,4.2593588867e+003,4.2651284180e+003,4.2807690430e+003,4.2598715820e+003,4.2562822266e+003,4.2515385742e+003,4.2525639648e+003,4.2835898438e+003,4.2811538086e+003,4.2752563477e+003,4.2757690430e+003,4.2716665039e+003,
2.4296875000e+000,4.2039741211e+003,4.2033334961e+003,4.1876923828e+003,4.1856411133e+003,4.2042309570e+003,4.1883334961e+003,4.1782050781e+003,4.1876923828e+003,4.1910258789e+003,4.2192309570e+003,4.2047436523e+003,4.2028203125e+003,4.2044873047e+003,4.2035898438e+003,
2.4375000000e+000,4.1091025391e+003,4.1087177734e+003,4.0974360352e+003,4.0941025391e+003,4.1085898438e+003,4.0948718262e+003,4.0880769043e+003,4.0970512695e+003,4.1014101563e+003,4.1239741211e+003,4.1091025391e+003,4.1121796875e+003,4.1093588867e+003,4.1129487305e+003,
2.4453125000e+000,4.0674357910e+003,4.0547436523e+003,4.0529487305e+003,4.0462819824e+003,4.0629487305e+003,4.0417949219e+003,4.0425642090e+003,4.0398718262e+003,4.0512819824e+003,4.0639743652e+003,4.0551281738e+003,4.0548718262e+003,4.0517949219e+003,4.0617949219e+003,
2.4531250000e+000,4.1206411133e+003,4.1093588867e+003,4.1037177734e+003,4.1050000000e+003,4.1129487305e+003,4.0953845215e+003,4.0952563477e+003,4.0910256348e+003,4.1026923828e+003,4.1162822266e+003,4.1074360352e+003,4.1047436523e+003,4.1053847656e+003,4.1132050781e+003,
2.4609375000e+000,4.1903847656e+003,4.1915385742e+003,4.1711538086e+003,4.1998715820e+003,4.1851284180e+003,4.1725639648e+003,4.1679487305e+003,4.1662822266e+003,4.1717949219e+003,4.1911538086e+003,4.1767949219e+003,4.1788461914e+003,4.1848715820e+003,4.1843588867e+003,
2.4687500000e+000,4.1980771484e+003,4.2028203125e+003,4.1782050781e+003,4.2175639648e+003,4.1991025391e+003,4.1829487305e+003,4.1751284180e+003,4.1761538086e+003,4.1791025391e+003,4.2007690430e+003,4.1828203125e+003,4.1897436523e+003,4.1943588867e+003,4.1916665039e+003,
2.4765625000e+000,4.2015385742e+003,4.2000000000e+003,4.1828203125e+003,4.2216665039e+003,4.1802563477e+003,4.1788461914e+003,4.1729487305e+003,4.1738461914e+003,4.1817949219e+003,4.2025639648e+003,4.1915385742e+003,4.1952563477e+003,4.1842309570e+003,4.1942309570e+003,
2.4843750000e+000,4.2088461914e+003,4.2069228516e+003,4.1916665039e+003,4.2292309570e+003,4.1757690430e+003,4.1855126953e+003,4.1810258789e+003,4.1810258789e+003,4.1897436523e+003,4.2115385742e+003,4.2058974609e+003,4.2019228516e+003,4.1929487305e+003,4.2034614258e+003,
2.4921875000e+000,4.2133334961e+003,4.2126923828e+003,4.1975639648e+003,4.2361538086e+003,4.1817949219e+003,4.1941025391e+003,4.1887177734e+003,4.1894873047e+003,4.1975639648e+003,4.2206411133e+003,4.2165385742e+003,4.2067949219e+003,4.2037177734e+003,4.2098715820e+003,
2.5000000000e+000,4.2084614258e+003,4.2088461914e+003,4.1934614258e+003,4.2324360352e+003,4.1915385742e+003,4.1962822266e+003,4.1889741211e+003,4.1919228516e+003,4.1988461914e+003,4.2219228516e+003,4.2141025391e+003,4.2043588867e+003,4.2055126953e+003,4.2060258789e+003,
2.5078125000e+000,4.1088461914e+003,4.1067949219e+003,4.0939743652e+003,4.1093588867e+003,4.1216665039e+003,4.1084614258e+003,4.1067949219e+003,4.1061538086e+003,4.1185898438e+003,4.1280771484e+003,4.1069228516e+003,4.1130771484e+003,4.1035898438e+003,4.1123076172e+003,
2.5156250000e+000,4.1051284180e+003,4.1019228516e+003,4.0915385742e+003,4.1046152344e+003,4.1110258789e+003,4.1007690430e+003,4.1003847656e+003,4.0978203125e+003,4.1107690430e+003,4.1191025391e+003,4.1024360352e+003,4.1055126953e+003,4.0988461914e+003,4.1083334961e+003,
2.5234375000e+000,4.1541025391e+003,4.1496152344e+003,4.1462822266e+003,4.1574360352e+003,4.1592309570e+003,4.1376923828e+003,4.1382050781e+003,4.1369228516e+003,4.1448715820e+003,4.1580771484e+003,4.1452563477e+003,4.1515385742e+003,4.1456411133e+003,4.1515385742e+003,
2.5312500000e+000,4.0798718262e+003,4.0750000000e+003,4.0653845215e+003,4.0715385742e+003,4.0757692871e+003,4.0638461914e+003,4.0664101563e+003,4.0616667480e+003,4.0687180176e+003,4.0862819824e+003,4.0805129395e+003,4.0716667480e+003,4.0732050781e+003,4.0853845215e+003,
2.5390625000e+000,4.0601281738e+003,4.0558974609e+003,4.0473076172e+003,4.0485898438e+003,4.0538461914e+003,4.0475642090e+003,4.0471794434e+003,4.0417949219e+003,4.0484614258e+003,4.0648718262e+003,4.0587180176e+003,4.0511538086e+003,4.0537180176e+003,4.0697436523e+003,
2.5468750000e+000,3.9761538086e+003,3.9725642090e+003,3.9651281738e+003,3.9598718262e+003,3.9662819824e+003,3.9658974609e+003,3.9598718262e+003,3.9615385742e+003,3.9730769043e+003,3.9807692871e+003,3.9617949219e+003,3.9726923828e+003,3.9647436523e+003,3.9842307129e+003,
2.5546875000e+000,3.8119230957e+003,3.7933332520e+003,3.7987180176e+003,3.7926923828e+003,3.7738461914e+003,3.7929487305e+003,3.8032050781e+003,3.7953845215e+003,3.8130769043e+003,3.8078205566e+003,3.7896154785e+003,3.8037180176e+003,3.8005129395e+003,3.8200000000e+003,
2.5625000000e+000,3.8292307129e+003,3.8071794434e+003,3.8132050781e+003,3.8065385742e+003,3.7929487305e+003,3.8048718262e+003,3.8170512695e+003,3.8080769043e+003,3.8284614258e+003,3.8184614258e+003,3.8017949219e+003,3.8157692871e+003,3.8135898438e+003,3.8352563477e+003,
2.5703125000e+000,3.9093588867e+003,3.8919230957e+003,3.8776923828e+003,3.8770512695e+003,3.8842307129e+003,3.8748718262e+003,3.8852563477e+003,3.8821794434e+003,3.9035898438e+003,3.8930769043e+003,3.8805129395e+003,3.8916667480e+003,3.8828205566e+003,3.9050000000e+003,
2.5781250000e+000,3.9017949219e+003,3.8808974609e+003,3.8693588867e+003,3.8687180176e+003,3.8771794434e+003,3.8710256348e+003,3.8812819824e+003,3.8773076172e+003,3.8956411133e+003,3.8879487305e+003,3.8755129395e+003,3.8850000000e+003,3.8761538086e+003,3.8967949219e+003,
2.5859375000e+000,3.9378205566e+003,3.9067949219e+003,3.9100000000e+003,3.9047436523e+003,3.9196154785e+003,3.9141025391e+003,3.9253845215e+003,3.9193588867e+003,3.9319230957e+003,3.9302563477e+003,3.9119230957e+003,3.9170512695e+003,3.9130769043e+003,3.9307692871e+003,
2.5937500000e+000,3.9796154785e+003,3.9485898438e+003,3.9534614258e+003,3.9464101563e+003,3.9661538086e+003,3.9553845215e+003,3.9670512695e+003,3.9614101563e+003,3.9730769043e+003,3.9728205566e+003,3.9510256348e+003,3.9564101563e+003,3.9526923828e+003,3.9702563477e+003,
2.6015625000e+000,3.9923076172e+003,3.9735898438e+003,3.9574357910e+003,3.9570512695e+003,3.9693588867e+003,3.9608974609e+003,3.9682050781e+003,3.9597436523e+003,3.9725642090e+003,3.9694870605e+003,3.9525642090e+003,3.9639743652e+003,3.9574357910e+003,3.9802563477e+003,
2.6093750000e+000,3.9751281738e+003,3.9571794434e+003,3.9391025391e+003,3.9392307129e+003,3.9465385742e+003,3.9444870605e+003,3.9494870605e+003,3.9397436523e+003,3.9521794434e+003,3.9494870605e+003,3.9360256348e+003,3.9460256348e+003,3.9410256348e+003,3.9641025391e+003,
2.6171875000e+000,3.9693588867e+003,3.9493588867e+003,3.9364101563e+003,3.9323076172e+003,3.9400000000e+003,3.9396154785e+003,3.9448718262e+003,3.9343588867e+003,3.9461538086e+003,3.9443588867e+003,3.9325642090e+003,3.9408974609e+003,3.9367949219e+003,3.9588461914e+003,
2.6250000000e+000,3.9783332520e+003,3.9555129395e+003,3.9494870605e+003,3.9400000000e+003,3.9538461914e+003,3.9473076172e+003,3.9562819824e+003,3.9448718262e+003,3.9565385742e+003,3.9551281738e+003,3.9425642090e+003,3.9501281738e+003,3.9466667480e+003,3.9662819824e+003,
2.6328125000e+000,4.0494870605e+003,4.0405129395e+003,4.0114101563e+003,4.0225642090e+003,4.0188461914e+003,4.0123076172e+003,4.0235898438e+003,4.0207692871e+003,4.0323076172e+003,4.0379487305e+003,4.0160256348e+003,4.0194870605e+003,4.0215385742e+003,4.0374357910e+003,
2.6406250000e+000,4.0551281738e+003,4.0458974609e+003,4.0201281738e+003,4.0303845215e+003,4.0139743652e+003,4.0208974609e+003,4.0273076172e+003,4.0271794434e+003,4.0371794434e+003,4.0484614258e+003,4.0253845215e+003,4.0284614258e+003,4.0289743652e+003,4.0479487305e+003,
2.6484375000e+000,4.1384614258e+003,4.1216665039e+003,4.1115385742e+003,4.1043588867e+003,4.1123076172e+003,4.1003847656e+003,4.1000000000e+003,4.1046152344e+003,4.1142309570e+003,4.1339741211e+003,4.1106411133e+003,4.1167949219e+003,4.1174360352e+003,4.1293588867e+003,
2.6562500000e+000,4.0862819824e+003,4.0814101563e+003,4.0594870605e+003,4.0503845215e+003,4.0758974609e+003,4.0589743652e+003,4.0610256348e+003,4.0679487305e+003,4.0756411133e+003,4.0887180176e+003,4.0755129395e+003,4.0776923828e+003,4.0793588867e+003,4.0874357910e+003,
2.6640625000e+000,4.0280769043e+003,4.0260256348e+003,4.0088461914e+003,3.9947436523e+003,4.0211538086e+003,4.0124357910e+003,4.0150000000e+003,4.0167949219e+003,4.0255129395e+003,4.0365385742e+003,4.0241025391e+003,4.0235898438e+003,4.0278205566e+003,4.0364101563e+003,
2.6718750000e+000,3.9315385742e+003,3.9270512695e+003,3.9243588867e+003,3.9033332520e+003,3.9451281738e+003,3.9314101563e+003,3.9342307129e+003,3.9276923828e+003,3.9406411133e+003,3.9479487305e+003,3.9287180176e+003,3.9325642090e+003,3.9425642090e+003,3.9442307129e+003,
2.6796875000e+000,3.9332050781e+003,3.9143588867e+003,3.9174357910e+003,3.9037180176e+003,3.9112819824e+003,3.9106411133e+003,3.9260256348e+003,3.9179487305e+003,3.9264101563e+003,3.9283332520e+003,3.9162819824e+003,3.9362819824e+003,3.9266667480e+003,3.9398718262e+003,
2.6875000000e+000,3.9430769043e+003,3.9232050781e+003,3.9246154785e+003,3.9103845215e+003,3.9180769043e+003,3.9233332520e+003,3.9367949219e+003,3.9243588867e+003,3.9341025391e+003,3.9346154785e+003,3.9278205566e+003,3.9446154785e+003,3.9364101563e+003,3.9483332520e+003,
2.6953125000e+000,3.9612819824e+003,3.9434614258e+003,3.9370512695e+003,3.9216667480e+003,3.9378205566e+003,3.9434614258e+003,3.9466667480e+003,3.9371794434e+003,3.9482050781e+003,3.9487180176e+003,3.9456411133e+003,3.9584614258e+003,3.9647436523e+003,3.9596154785e+003,
2.7031250000e+000,3.9587180176e+003,3.9398718262e+003,3.9335898438e+003,3.9162819824e+003,3.9157692871e+003,3.9324357910e+003,3.9384614258e+003,3.9344870605e+003,3.9429487305e+003,3.9446154785e+003,3.9380769043e+003,3.9548718262e+003,3.9605129395e+003,3.9544870605e+003,
2.7109375000e+000,3.9434614258e+003,3.9232050781e+003,3.9201281738e+003,3.8924357910e+003,3.8782050781e+003,3.9103845215e+003,3.9241025391e+003,3.9191025391e+003,3.9266667480e+003,3.9287180176e+003,3.9137180176e+003,3.9403845215e+003,3.9380769043e+003,3.9394870605e+003,
2.7187500000e+000,3.9396154785e+003,3.9198718262e+003,3.9185898438e+003,3.8866667480e+003,3.8884614258e+003,3.9100000000e+003,3.9244870605e+003,3.9150000000e+003,3.9250000000e+003,3.9262819824e+003,3.9078205566e+003,3.9387180176e+003,3.9323076172e+003,3.9382050781e+003,
2.7265625000e+000,3.9432050781e+003,3.9246154785e+003,3.9233332520e+003,3.8919230957e+003,3.9141025391e+003,3.9165385742e+003,3.9293588867e+003,3.9187180176e+003,3.9312819824e+003,3.9317949219e+003,3.9123076172e+003,3.9451281738e+003,3.9364101563e+003,3.9442307129e+003,
2.7343750000e+000,3.9533332520e+003,3.9367949219e+003,3.9305129395e+003,3.9124357910e+003,3.9397436523e+003,3.9208974609e+003,3.9307692871e+003,3.9321794434e+003,3.9434614258e+003,3.9448718262e+003,3.9314101563e+003,3.9625642090e+003,3.9508974609e+003,3.9566667480e+003,
2.7421875000e+000,3.9485898438e+003,3.9320512695e+003,3.9243588867e+003,3.9108974609e+003,3.9234614258e+003,3.9117949219e+003,3.9228205566e+003,3.9293588867e+003,3.9380769043e+003,3.9402563477e+003,3.9323076172e+003,3.9621794434e+003,3.9475642090e+003,3.9528205566e+003,
2.7500000000e+000,3.9423076172e+003,3.9253845215e+003,3.9183332520e+003,3.9039743652e+003,3.9051281738e+003,3.9048718262e+003,3.9176923828e+003,3.9235898438e+003,3.9310256348e+003,3.9338461914e+003,3.9300000000e+003,3.9585898438e+003,3.9421794434e+003,3.9480769043e+003,
2.7578125000e+000,3.9950000000e+003,3.9887180176e+003,3.9664101563e+003,3.9632050781e+003,3.9879487305e+003,3.9703845215e+003,3.9846154785e+003,3.9846154785e+003,3.9943588867e+003,3.9958974609e+003,3.9767949219e+003,4.0071794434e+003,3.9992307129e+003,3.9997436523e+003,
2.7656250000e+000,4.0193588867e+003,4.0100000000e+003,3.9873076172e+003,3.9906411133e+003,4.0010256348e+003,3.9921794434e+003,4.0071794434e+003,4.0075642090e+003,4.0160256348e+003,4.0185898438e+003,3.9979487305e+003,4.0312819824e+003,4.0201281738e+003,4.0206411133e+003,
2.7734375000e+000,4.0500000000e+003,4.0282050781e+003,4.0189743652e+003,4.0223076172e+003,4.0230769043e+003,4.0228205566e+003,4.0326923828e+003,4.0352563477e+003,4.0479487305e+003,4.0561538086e+003,4.0357692871e+003,4.0587180176e+003,4.0519230957e+003,4.0488461914e+003,
2.7812500000e+000,3.9220512695e+003,3.9139743652e+003,3.9053845215e+003,3.8920512695e+003,3.8860256348e+003,3.9071794434e+003,3.9205129395e+003,3.9220512695e+003,3.9405129395e+003,3.9312819824e+003,3.9200000000e+003,3.9374357910e+003,3.9273076172e+003,3.9248718262e+003,
2.7890625000e+000,3.8926923828e+003,3.8873076172e+003,3.8758974609e+003,3.8611538086e+003,3.8598718262e+003,3.8788461914e+003,3.8950000000e+003,3.8938461914e+003,3.9130769043e+003,3.9001281738e+003,3.8885898438e+003,3.9078205566e+003,3.8980769043e+003,3.8957692871e+003,
2.7968750000e+000,3.8312819824e+003,3.8082050781e+003,3.8112819824e+003,3.8007692871e+003,3.8125642090e+003,3.8029487305e+003,3.8251281738e+003,3.8247436523e+003,3.8410256348e+003,3.8293588867e+003,3.8141025391e+003,3.8457692871e+003,3.8287180176e+003,3.8346154785e+003,
2.8046875000e+000,3.7846154785e+003,3.7512819824e+003,3.7669230957e+003,3.7450000000e+003,3.7323076172e+003,3.7476923828e+003,3.7708974609e+003,3.7728205566e+003,3.7889743652e+003,3.7753845215e+003,3.7503845215e+003,3.7952563477e+003,3.7698718262e+003,3.7801281738e+003,
2.8125000000e+000,3.7825642090e+003,3.7466667480e+003,3.7662819824e+003,3.7403845215e+003,3.7337180176e+003,3.7458974609e+003,3.7696154785e+003,3.7693588867e+003,3.7858974609e+003,3.7716667480e+003,3.7444870605e+003,3.7928205566e+003,3.7655129395e+003,3.7776923828e+003,
2.8203125000e+000,3.7925642090e+003,3.7542307129e+003,3.7743588867e+003,3.7484614258e+003,3.7551281738e+003,3.7557692871e+003,3.7792307129e+003,3.7771794434e+003,3.7943588867e+003,3.7811538086e+003,3.7541025391e+003,3.8016667480e+003,3.7743588867e+003,3.7874357910e+003,
2.8281250000e+000,3.8330769043e+003,3.7958974609e+003,3.8039743652e+003,3.7891025391e+003,3.8075642090e+003,3.7992307129e+003,3.8178205566e+003,3.8162819824e+003,3.8326923828e+003,3.8248718262e+003,3.8044870605e+003,3.8385898438e+003,3.8169230957e+003,3.8257692871e+003,
2.8359375000e+000,3.8606411133e+003,3.8316667480e+003,3.8321794434e+003,3.8202563477e+003,3.8235898438e+003,3.8311538086e+003,3.8496154785e+003,3.8480769043e+003,3.8576923828e+003,3.8474357910e+003,3.8370512695e+003,3.8696154785e+003,3.8488461914e+003,3.8543588867e+003,
2.8437500000e+000,3.8452563477e+003,3.8155129395e+003,3.8183332520e+003,3.8017949219e+003,3.8138461914e+003,3.8123076172e+003,3.8333332520e+003,3.8316667480e+003,3.8432050781e+003,3.8303845215e+003,3.8194870605e+003,3.8557692871e+003,3.8334614258e+003,3.8401281738e+003,
2.8515625000e+000,3.8219230957e+003,3.7894870605e+003,3.7951281738e+003,3.7746154785e+003,3.7928205566e+003,3.7864101563e+003,3.8092307129e+003,3.8065385742e+003,3.8212819824e+003,3.8073076172e+003,3.7956411133e+003,3.8332050781e+003,3.8100000000e+003,3.8178205566e+003,
2.8593750000e+000,3.8429487305e+003,3.8069230957e+003,3.8144870605e+003,3.7902563477e+003,3.7955129395e+003,3.8101281738e+003,3.8335898438e+003,3.8226923828e+003,3.8389743652e+003,3.8279487305e+003,3.8201281738e+003,3.8514101563e+003,3.8298718262e+003,3.8375642090e+003,
2.8671875000e+000,3.9275642090e+003,3.8956411133e+003,3.8971794434e+003,3.8744870605e+003,3.8751281738e+003,3.8974357910e+003,3.9184614258e+003,3.9047436523e+003,3.9180769043e+003,3.9121794434e+003,3.9066667480e+003,3.9325642090e+003,3.9142307129e+003,3.9197436523e+003,
2.8750000000e+000,4.0489743652e+003,4.0260256348e+003,4.0153845215e+003,3.9980769043e+003,4.0052563477e+003,4.0198718262e+003,4.0365385742e+003,4.0246154785e+003,4.0342307129e+003,4.0370512695e+003,4.0300000000e+003,4.0507692871e+003,4.0371794434e+003,4.0385898438e+003,
2.8828125000e+000,4.2603847656e+003,4.2638461914e+003,4.2341025391e+003,4.2300000000e+003,4.2548715820e+003,4.2380771484e+003,4.2366665039e+003,4.2319228516e+003,4.2447436523e+003,4.2732050781e+003,4.2689741211e+003,4.2689741211e+003,4.2702563477e+003,4.2514101563e+003,
2.8906250000e+000,4.2919228516e+003,4.2987177734e+003,4.2669228516e+003,4.2612822266e+003,4.2825639648e+003,4.2743588867e+003,4.2680771484e+003,4.2637177734e+003,4.2748715820e+003,4.3047436523e+003,4.3026923828e+003,4.3001284180e+003,4.3033334961e+003,4.2839741211e+003,
2.8984375000e+000,4.3112822266e+003,4.3339741211e+003,4.2976923828e+003,4.2875639648e+003,4.3265385742e+003,4.3026923828e+003,4.2916665039e+003,4.3038461914e+003,4.3065385742e+003,4.3470512695e+003,4.3207690430e+003,4.3314101563e+003,4.3284614258e+003,4.3105126953e+003,
2.9062500000e+000,4.1628203125e+003,4.1885898438e+003,4.1588461914e+003,4.1473076172e+003,4.1742309570e+003,4.1607690430e+003,4.1600000000e+003,4.1661538086e+003,4.1764101563e+003,4.2024360352e+003,4.1942309570e+003,4.1935898438e+003,4.1878203125e+003,4.1725639648e+003,
2.9140625000e+000,4.1184614258e+003,4.1430771484e+003,4.1180771484e+003,4.1057690430e+003,4.1278203125e+003,4.1201284180e+003,4.1207690430e+003,4.1237177734e+003,4.1351284180e+003,4.1579487305e+003,4.1546152344e+003,4.1532050781e+003,4.1452563477e+003,4.1323076172e+003,
2.9218750000e+000,3.9612819824e+003,3.9732050781e+003,3.9688461914e+003,3.9551281738e+003,3.9702563477e+003,3.9730769043e+003,3.9739743652e+003,3.9682050781e+003,3.9774357910e+003,3.9901281738e+003,3.9771794434e+003,3.9947436523e+003,3.9841025391e+003,3.9758974609e+003,
2.9296875000e+000,3.9844870605e+003,3.9957692871e+003,3.9834614258e+003,3.9617949219e+003,3.9716667480e+003,3.9911538086e+003,3.9984614258e+003,3.9905129395e+003,4.0051281738e+003,4.0135898438e+003,3.9988461914e+003,4.0187180176e+003,4.0096154785e+003,4.0006411133e+003,
2.9375000000e+000,3.9987180176e+003,4.0089743652e+003,3.9971794434e+003,3.9766667480e+003,3.9926923828e+003,4.0048718262e+003,4.0117949219e+003,4.0057692871e+003,4.0226923828e+003,4.0346154785e+003,4.0194870605e+003,4.0376923828e+003,4.0285898438e+003,4.0176923828e+003,
2.9453125000e+000,3.9837180176e+003,3.9912819824e+003,3.9830769043e+003,3.9658974609e+003,3.9892307129e+003,3.9917949219e+003,3.9971794434e+003,3.9933332520e+003,4.0120512695e+003,4.0255129395e+003,4.0092307129e+003,4.0261538086e+003,4.0179487305e+003,4.0048718262e+003,
2.9531250000e+000,3.8761538086e+003,3.8755129395e+003,3.8776923828e+003,3.8589743652e+003,3.8870512695e+003,3.8879487305e+003,3.8955129395e+003,3.8916667480e+003,3.9100000000e+003,3.9151281738e+003,3.9017949219e+003,3.9175642090e+003,3.9071794434e+003,3.8973076172e+003,
2.9609375000e+000,3.8238461914e+003,3.8201281738e+003,3.8265385742e+003,3.8010256348e+003,3.8262819824e+003,3.8337180176e+003,3.8465385742e+003,3.8402563477e+003,3.8571794434e+003,3.8551281738e+003,3.8461538086e+003,3.8625642090e+003,3.8488461914e+003,3.8441025391e+003,
2.9687500000e+000,3.7875642090e+003,3.7801281738e+003,3.7906411133e+003,3.7602563477e+003,3.7839743652e+003,3.7878205566e+003,3.8087180176e+003,3.7992307129e+003,3.8160256348e+003,3.8053845215e+003,3.7989743652e+003,3.8197436523e+003,3.8052563477e+003,3.8044870605e+003,
2.9765625000e+000,3.7938461914e+003,3.7839743652e+003,3.7944870605e+003,3.7710256348e+003,3.7967949219e+003,3.7896154785e+003,3.8107692871e+003,3.7997436523e+003,3.8166667480e+003,3.8064101563e+003,3.7975642090e+003,3.8221794434e+003,3.8097436523e+003,3.8066667480e+003,
2.9843750000e+000,3.9502563477e+003,3.9411538086e+003,3.9333332520e+003,3.9303845215e+003,3.9452563477e+003,3.9387180176e+003,3.9523076172e+003,3.9323076172e+003,3.9400000000e+003,3.9469230957e+003,3.9369230957e+003,3.9661538086e+003,3.9508974609e+003,3.9474357910e+003,
2.9921875000e+000,4.0366667480e+003,4.0343588867e+003,4.0157692871e+003,4.0103845215e+003,4.0198718262e+003,4.0237180176e+003,4.0341025391e+003,4.0176923828e+003,4.0217949219e+003,4.0369230957e+003,4.0260256348e+003,4.0510256348e+003,4.0356411133e+003,4.0315385742e+003,
3.0000000000e+000,4.1016665039e+003,4.1056411133e+003,4.0805129395e+003,4.0712819824e+003,4.0814101563e+003,4.0884614258e+003,4.0960258789e+003,4.0870512695e+003,4.0888461914e+003,4.1107690430e+003,4.0969228516e+003,4.1166665039e+003,4.1042309570e+003,4.0966665039e+003,
3.0078125000e+000,4.1344873047e+003,4.1416665039e+003,4.1160258789e+003,4.1066665039e+003,4.1230771484e+003,4.1224360352e+003,4.1276923828e+003,4.1269228516e+003,4.1274360352e+003,4.1533334961e+003,4.1362822266e+003,4.1515385742e+003,4.1444873047e+003,4.1317949219e+003,
3.0156250000e+000,4.1194873047e+003,4.1324360352e+003,4.1097436523e+003,4.1100000000e+003,4.1164101563e+003,4.1110258789e+003,4.1137177734e+003,4.1239741211e+003,4.1208974609e+003,4.1476923828e+003,4.1437177734e+003,4.1460258789e+003,4.1405126953e+003,4.1265385742e+003,
3.0234375000e+000,4.0988461914e+003,4.1153847656e+003,4.0893588867e+003,4.0729487305e+003,4.0984614258e+003,4.0803845215e+003,4.0853845215e+003,4.0962822266e+003,4.1014101563e+003,4.1221796875e+003,4.1071796875e+003,4.1241025391e+003,4.1164101563e+003,4.1060258789e+003,
3.0312500000e+000,4.1229487305e+003,4.1458974609e+003,4.1237177734e+003,4.1187177734e+003,4.1350000000e+003,4.1093588867e+003,4.1152563477e+003,4.1300000000e+003,4.1353847656e+003,4.1623076172e+003,4.1479487305e+003,4.1506411133e+003,4.1519228516e+003,4.1298715820e+003,
3.0390625000e+000,4.0741025391e+003,4.0971796875e+003,4.0783332520e+003,4.0732050781e+003,4.0760256348e+003,4.0652563477e+003,4.0734614258e+003,4.0847436523e+003,4.0879487305e+003,4.1114101563e+003,4.1017949219e+003,4.1026923828e+003,4.1005126953e+003,4.0826923828e+003,
3.0468750000e+000,4.0543588867e+003,4.0621794434e+003,4.0543588867e+003,4.0535898438e+003,4.0692307129e+003,4.0500000000e+003,4.0583332520e+003,4.0550000000e+003,4.0565385742e+003,4.0678205566e+003,4.0667949219e+003,4.0729487305e+003,4.0664101563e+003,4.0530769043e+003,
3.0546875000e+000,4.1282050781e+003,4.1370512695e+003,4.1297436523e+003,4.1264101563e+003,4.1510258789e+003,4.1212822266e+003,4.1284614258e+003,4.1246152344e+003,4.1258974609e+003,4.1412822266e+003,4.1370512695e+003,4.1469228516e+003,4.1389741211e+003,4.1242309570e+003,
3.0625000000e+000,4.2844873047e+003,4.3089741211e+003,4.2883334961e+003,4.2721796875e+003,4.2955126953e+003,4.2693588867e+003,4.2735898438e+003,4.2779487305e+003,4.2767949219e+003,4.3078203125e+003,4.2946152344e+003,4.3043588867e+003,4.2951284180e+003,4.2800000000e+003,
3.0703125000e+000,4.3253847656e+003,4.3562822266e+003,4.3273076172e+003,4.3074360352e+003,4.3301284180e+003,4.3089741211e+003,4.3121796875e+003,4.3193588867e+003,4.3170512695e+003,4.3520512695e+003,4.3389741211e+003,4.3450000000e+003,4.3365385742e+003,4.3215385742e+003,
3.0781250000e+000,4.3546152344e+003,4.3832050781e+003,4.3598715820e+003,4.3510258789e+003,4.3798715820e+003,4.3523076172e+003,4.3535898438e+003,4.3551284180e+003,4.3496152344e+003,4.3848715820e+003,4.3844873047e+003,4.3808974609e+003,4.3744873047e+003,4.3541025391e+003,
3.0859375000e+000,4.3630771484e+003,4.3964101563e+003,4.3739741211e+003,4.3703847656e+003,4.3900000000e+003,4.3664101563e+003,4.3664101563e+003,4.3693588867e+003,4.3611538086e+003,4.4007690430e+003,4.3988461914e+003,4.3937177734e+003,4.3905126953e+003,4.3656411133e+003,
3.0937500000e+000,4.3616665039e+003,4.4130771484e+003,4.3796152344e+003,4.3771796875e+003,4.3774360352e+003,4.3688461914e+003,4.3678203125e+003,4.3803847656e+003,4.3680771484e+003,4.4111538086e+003,4.4023076172e+003,4.3984614258e+003,4.3988461914e+003,4.3721796875e+003,
3.1015625000e+000,4.3560258789e+003,4.4106411133e+003,4.3741025391e+003,4.3680771484e+003,4.3693588867e+003,4.3628203125e+003,4.3629487305e+003,4.3770512695e+003,4.3650000000e+003,4.4053847656e+003,4.3967949219e+003,4.3939741211e+003,4.3911538086e+003,4.3687177734e+003,
3.1093750000e+000,4.3832050781e+003,4.4330771484e+003,4.4039741211e+003,4.3969228516e+003,4.4296152344e+003,4.3980771484e+003,4.3944873047e+003,4.4057690430e+003,4.3965385742e+003,4.4407690430e+003,4.4361538086e+003,4.4280771484e+003,4.4185898438e+003,4.3969228516e+003,
3.1171875000e+000,4.3643588867e+003,4.4164101563e+003,4.3917949219e+003,4.3864101563e+003,4.4203847656e+003,4.3835898438e+003,4.3775639648e+003,4.3910258789e+003,4.3808974609e+003,4.4284614258e+003,4.4210258789e+003,4.4150000000e+003,4.4050000000e+003,4.3814101563e+003,
3.1250000000e+000,4.3119228516e+003,4.3657690430e+003,4.3471796875e+003,4.3420512695e+003,4.3673076172e+003,4.3339741211e+003,4.3285898438e+003,4.3434614258e+003,4.3323076172e+003,4.3785898438e+003,4.3684614258e+003,4.3665385742e+003,4.3560258789e+003,4.3328203125e+003,
3.1328125000e+000,4.2432050781e+003,4.2955126953e+003,4.2829487305e+003,4.2776923828e+003,4.2887177734e+003,4.2652563477e+003,4.2642309570e+003,4.2776923828e+003,4.2666665039e+003,4.3070512695e+003,4.2965385742e+003,4.2974360352e+003,4.2867949219e+003,4.2656411133e+003,
3.1406250000e+000,4.1587177734e+003,4.2010258789e+003,4.1871796875e+003,4.1789741211e+003,4.1971796875e+003,4.1811538086e+003,4.1885898438e+003,4.1885898438e+003,4.1821796875e+003,4.2029487305e+003,4.2061538086e+003,4.2017949219e+003,4.1892309570e+003,4.1738461914e+003,
3.1484375000e+000,4.2717949219e+003,4.3189741211e+003,4.2958974609e+003,4.2920512695e+003,4.2944873047e+003,4.2962822266e+003,4.2974360352e+003,4.2973076172e+003,4.2926923828e+003,4.3244873047e+003,4.3114101563e+003,4.3057690430e+003,4.3084614258e+003,4.2906411133e+003,
3.1562500000e+000,4.2714101563e+003,4.3160258789e+003,4.3010258789e+003,4.2939741211e+003,4.3071796875e+003,4.2967949219e+003,4.2930771484e+003,4.2966665039e+003,4.2894873047e+003,4.3216665039e+003,4.3069228516e+003,4.3102563477e+003,4.3039741211e+003,4.2921796875e+003,
3.1640625000e+000,4.2584614258e+003,4.3065385742e+003,4.2892309570e+003,4.2835898438e+003,4.3073076172e+003,4.2833334961e+003,4.2778203125e+003,4.2839741211e+003,4.2765385742e+003,4.3062822266e+003,4.2991025391e+003,4.2956411133e+003,4.2942309570e+003,4.2812822266e+003,
3.1718750000e+000,4.2666665039e+003,4.3284614258e+003,4.3020512695e+003,4.3057690430e+003,4.3212822266e+003,4.2966665039e+003,4.2961538086e+003,4.2978203125e+003,4.2925639648e+003,4.3292309570e+003,4.3275639648e+003,4.3073076172e+003,4.3156411133e+003,4.2973076172e+003,
3.1796875000e+000,4.2637177734e+003,4.3288461914e+003,4.2967949219e+003,4.3047436523e+003,4.3155126953e+003,4.2941025391e+003,4.2943588867e+003,4.2970512695e+003,4.2933334961e+003,4.3301284180e+003,4.3244873047e+003,4.3085898438e+003,4.3094873047e+003,4.2944873047e+003,
3.1875000000e+000,4.1457690430e+003,4.2060258789e+003,4.1728203125e+003,4.1915385742e+003,4.1933334961e+003,4.1782050781e+003,4.1742309570e+003,4.1873076172e+003,4.1856411133e+003,4.2098715820e+003,4.2039741211e+003,4.1946152344e+003,4.1832050781e+003,4.1774360352e+003,
3.1953125000e+000,4.0291025391e+003,4.0789743652e+003,4.0583332520e+003,4.0796154785e+003,4.0734614258e+003,4.0655129395e+003,4.0610256348e+003,4.0756411133e+003,4.0734614258e+003,4.0884614258e+003,4.0864101563e+003,4.0791025391e+003,4.0670512695e+003,4.0644870605e+003,
3.2031250000e+000,3.8373076172e+003,3.8537180176e+003,3.8756411133e+003,3.8853845215e+003,3.8817949219e+003,3.8737180176e+003,3.8858974609e+003,3.8783332520e+003,3.8819230957e+003,3.8765385742e+003,3.8723076172e+003,3.8869230957e+003,3.8797436523e+003,3.8792307129e+003,
3.2109375000e+000,3.8775642090e+003,3.8925642090e+003,3.9119230957e+003,3.9215385742e+003,3.9167949219e+003,3.9064101563e+003,3.9239743652e+003,3.9133332520e+003,3.9216667480e+003,3.9121794434e+003,3.9053845215e+003,3.9261538086e+003,3.9165385742e+003,3.9161538086e+003,
3.2187500000e+000,3.9169230957e+003,3.9348718262e+003,3.9416667480e+003,3.9605129395e+003,3.9216667480e+003,3.9321794434e+003,3.9500000000e+003,3.9470512695e+003,3.9597436523e+003,3.9457692871e+003,3.9460256348e+003,3.9638461914e+003,3.9446154785e+003,3.9491025391e+003,
3.2265625000e+000,3.8562819824e+003,3.8714101563e+003,3.8789743652e+003,3.9007692871e+003,3.8487180176e+003,3.8693588867e+003,3.8834614258e+003,3.8847436523e+003,3.8967949219e+003,3.8835898438e+003,3.8864101563e+003,3.8998718262e+003,3.8784614258e+003,3.8867949219e+003,
3.2343750000e+000,3.5607692871e+003,3.5471794434e+003,3.5791025391e+003,3.5996154785e+003,3.5774357910e+003,3.5725642090e+003,3.5847436523e+003,3.5796154785e+003,3.5919230957e+003,3.5715385742e+003,3.5562819824e+003,3.5842307129e+003,3.5624357910e+003,3.5800000000e+003,
3.2421875000e+000,3.5183332520e+003,3.4960256348e+003,3.5328205566e+003,3.5556411133e+003,3.5333332520e+003,3.5262819824e+003,3.5420512695e+003,3.5328205566e+003,3.5473076172e+003,3.5174357910e+003,3.5002563477e+003,3.5366667480e+003,3.5119230957e+003,3.5321794434e+003,
3.2500000000e+000,3.5100000000e+003,3.4821794434e+003,3.5200000000e+003,3.5457692871e+003,3.5105129395e+003,3.5133332520e+003,3.5326923828e+003,3.5212819824e+003,3.5371794434e+003,3.4996154785e+003,3.4853845215e+003,3.5256411133e+003,3.4976923828e+003,3.5203845215e+003,
3.2578125000e+000,3.5169230957e+003,3.4856411133e+003,3.5225642090e+003,3.5491025391e+003,3.4975642090e+003,3.5158974609e+003,3.5384614258e+003,3.5262819824e+003,3.5420512695e+003,3.5021794434e+003,3.4921794434e+003,3.5314101563e+003,3.5017949219e+003,3.5261538086e+003,
3.2656250000e+000,3.6026923828e+003,3.5535898438e+003,3.5912819824e+003,3.6070512695e+003,3.5732050781e+003,3.5705129395e+003,3.6038461914e+003,3.5865385742e+003,3.5979487305e+003,3.5743588867e+003,3.5588461914e+003,3.5896154785e+003,3.5728205566e+003,3.5938461914e+003,
3.2734375000e+000,3.8167949219e+003,3.7669230957e+003,3.7835898438e+003,3.8071794434e+003,3.7783332520e+003,3.7676923828e+003,3.7929487305e+003,3.7811538086e+003,3.7930769043e+003,3.7801281738e+003,3.7815385742e+003,3.7965385742e+003,3.7812819824e+003,3.7924357910e+003,
3.2812500000e+000,3.8056411133e+003,3.7593588867e+003,3.7751281738e+003,3.7948718262e+003,3.7658974609e+003,3.7578205566e+003,3.7819230957e+003,3.7705129395e+003,3.7825642090e+003,3.7730769043e+003,3.7697436523e+003,3.7902563477e+003,3.7715385742e+003,3.7824357910e+003,
3.2890625000e+000,3.7516667480e+003,3.7061538086e+003,3.7243588867e+003,3.7456411133e+003,3.6979487305e+003,3.7048718262e+003,3.7310256348e+003,3.7208974609e+003,3.7346154785e+003,3.7282050781e+003,3.7091025391e+003,3.7369230957e+003,3.7198718262e+003,3.7280769043e+003,
3.2968750000e+000,3.7188461914e+003,3.6684614258e+003,3.6917949219e+003,3.7161538086e+003,3.6576923828e+003,3.6735898438e+003,3.7021794434e+003,3.6921794434e+003,3.7064101563e+003,3.6966667480e+003,3.6776923828e+003,3.7043588867e+003,3.6862819824e+003,3.6956411133e+003,
3.3046875000e+000,3.7021794434e+003,3.6369230957e+003,3.6703845215e+003,3.6955129395e+003,3.6612819824e+003,3.6647436523e+003,3.6905129395e+003,3.6729487305e+003,3.6879487305e+003,3.6646154785e+003,3.6634614258e+003,3.6815385742e+003,3.6575642090e+003,3.6692307129e+003,
3.3125000000e+000,3.7132050781e+003,3.6500000000e+003,3.6742307129e+003,3.6985898438e+003,3.6643588867e+003,3.6716667480e+003,3.6934614258e+003,3.6833332520e+003,3.6987180176e+003,3.6824357910e+003,3.6557692871e+003,3.6837180176e+003,3.6638461914e+003,3.6742307129e+003,
3.3203125000e+000,3.7166667480e+003,3.6494870605e+003,3.6764101563e+003,3.7010256348e+003,3.6578205566e+003,3.6708974609e+003,3.6965385742e+003,3.6834614258e+003,3.6998718262e+003,3.6843588867e+003,3.6552563477e+003,3.6873076172e+003,3.6665385742e+003,3.6800000000e+003,
3.3281250000e+000,4.1476923828e+003,4.0894870605e+003,4.0917949219e+003,4.1366665039e+003,4.1033334961e+003,4.0798718262e+003,4.1064101563e+003,4.0807692871e+003,4.0928205566e+003,4.1021796875e+003,4.0952563477e+003,4.1083334961e+003,4.1019228516e+003,4.1006411133e+003,
3.3359375000e+000,4.2851284180e+003,4.2378203125e+003,4.2266665039e+003,4.2771796875e+003,4.2480771484e+003,4.2141025391e+003,4.2344873047e+003,4.2182050781e+003,4.2255126953e+003,4.2500000000e+003,4.2444873047e+003,4.2484614258e+003,4.2456411133e+003,4.2392309570e+003,
3.3437500000e+000,4.1884614258e+003,4.1541025391e+003,4.1393588867e+003,4.1835898438e+003,4.1491025391e+003,4.1285898438e+003,4.1378203125e+003,4.1441025391e+003,4.1487177734e+003,4.1829487305e+003,4.1733334961e+003,4.1707690430e+003,4.1632050781e+003,4.1594873047e+003,
3.3515625000e+000,4.0182050781e+003,3.9835898438e+003,3.9780769043e+003,4.0138461914e+003,3.9779487305e+003,3.9665385742e+003,3.9753845215e+003,3.9838461914e+003,3.9924357910e+003,4.0179487305e+003,4.0089743652e+003,4.0092307129e+003,3.9970512695e+003,3.9971794434e+003,
3.3593750000e+000,3.7798718262e+003,3.7321794434e+003,3.7478205566e+003,3.7829487305e+003,3.7403845215e+003,3.7303845215e+003,3.7517949219e+003,3.7401281738e+003,3.7591025391e+003,3.7564101563e+003,3.7494870605e+003,3.7665385742e+003,3.7541025391e+003,3.7565385742e+003,
3.3671875000e+000,3.8174357910e+003,3.7688461914e+003,3.7791025391e+003,3.8220512695e+003,3.7670512695e+003,3.7680769043e+003,3.7908974609e+003,3.7752563477e+003,3.7944870605e+003,3.7901281738e+003,3.7814101563e+003,3.7969230957e+003,3.7898718262e+003,3.7905129395e+003,
3.3750000000e+000,3.8819230957e+003,3.8358974609e+003,3.8370512695e+003,3.8855129395e+003,3.8207692871e+003,3.8353845215e+003,3.8573076172e+003,3.8394870605e+003,3.8584614258e+003,3.8556411133e+003,3.8455129395e+003,3.8558974609e+003,3.8541025391e+003,3.8534614258e+003,
3.3828125000e+000,3.9834614258e+003,3.9430769043e+003,3.9341025391e+003,3.9843588867e+003,3.9208974609e+003,3.9394870605e+003,3.9597436523e+003,3.9397436523e+003,3.9575642090e+003,3.9596154785e+003,3.9493588867e+003,3.9541025391e+003,3.9561538086e+003,3.9543588867e+003,
3.3906250000e+000,4.7960258789e+003,4.8170512695e+003,4.7465385742e+003,4.8262822266e+003,4.8183334961e+003,4.7452563477e+003,4.7425639648e+003,4.7464101563e+003,4.7450000000e+003,4.8110258789e+003,4.8035898438e+003,4.7706411133e+003,4.7924360352e+003,4.7653847656e+003,
3.3984375000e+000,4.4174360352e+003,4.4569228516e+003,4.4221796875e+003,4.4980771484e+003,4.4419228516e+003,4.4103847656e+003,4.3994873047e+003,4.4250000000e+003,4.4184614258e+003,4.4810258789e+003,4.4696152344e+003,4.4439741211e+003,4.4471796875e+003,4.4334614258e+003,
3.4062500000e+000,4.2855126953e+003,4.3238461914e+003,4.2935898438e+003,4.3751284180e+003,4.3198715820e+003,4.2830771484e+003,4.2784614258e+003,4.2964101563e+003,4.2911538086e+003,4.3446152344e+003,4.3319228516e+003,4.3146152344e+003,4.3171796875e+003,4.3074360352e+003,
3.4140625000e+000,4.1448715820e+003,4.1826923828e+003,4.1496152344e+003,4.2450000000e+003,4.1880771484e+003,4.1480771484e+003,4.1510258789e+003,4.1525639648e+003,4.1528203125e+003,4.1926923828e+003,4.1838461914e+003,4.1732050781e+003,4.1741025391e+003,4.1705126953e+003,
3.4218750000e+000,4.1212822266e+003,4.1570512695e+003,4.1253847656e+003,4.2194873047e+003,4.1567949219e+003,4.1262822266e+003,4.1294873047e+003,4.1247436523e+003,4.1296152344e+003,4.1641025391e+003,4.1573076172e+003,4.1488461914e+003,4.1469228516e+003,4.1473076172e+003,
3.4296875000e+000,4.1432050781e+003,4.1683334961e+003,4.1512822266e+003,4.2258974609e+003,4.1417949219e+003,4.1420512695e+003,4.1450000000e+003,4.1424360352e+003,4.1530771484e+003,4.1789741211e+003,4.1600000000e+003,4.1648715820e+003,4.1612822266e+003,4.1723076172e+003,
