Time (s);AF3;F7;F3;FC5;T7;P7;O1;O2;P8;T8;FC6;F4;F8;AF4;Sampling Rate
0.0000000000e+000;3.5953845215e+003;3.6998718262e+003;3.6601281738e+003;3.6635898438e+003;3.6888461914e+003;3.6466667480e+003;3.6664101563e+003;3.6489743652e+003;3.6828205566e+003;3.7656411133e+003;3.6934614258e+003;3.7553845215e+003;3.6893588867e+003;3.6689743652e+003;128
7.8125000000e-003;3.6692307129e+003;3.7707692871e+003;3.7310256348e+003;3.7388461914e+003;3.7652563477e+003;3.7016667480e+003;3.7251281738e+003;3.7164101563e+003;3.7628205566e+003;3.8398718262e+003;3.7755129395e+003;3.8203845215e+003;3.7617949219e+003;3.7369230957e+003;
1.5625000000e-002;3.7030769043e+003;3.8126923828e+003;3.7623076172e+003;3.7823076172e+003;3.8025642090e+003;3.7287180176e+003;3.7602563477e+003;3.7544870605e+003;3.8114101563e+003;3.8911538086e+003;3.8064101563e+003;3.8580769043e+003;3.8074357910e+003;3.7717949219e+003;
2.3437500000e-002;3.7657692871e+003;3.8838461914e+003;3.8253845215e+003;3.8473076172e+003;3.8726923828e+003;3.7962819824e+003;3.8258974609e+003;3.8260256348e+003;3.8773076172e+003;3.9608974609e+003;3.8703845215e+003;3.9246154785e+003;3.8733332520e+003;3.8366667480e+003;
3.1250000000e-002;3.8474357910e+003;3.9726923828e+003;3.9094870605e+003;3.9274357910e+003;3.9625642090e+003;3.8821794434e+003;3.9098718262e+003;3.9169230957e+003;3.9621794434e+003;4.0473076172e+003;3.9543588867e+003;4.0101281738e+003;3.9570512695e+003;3.9202563477e+003;
3.9062500000e-002;3.9900000000e+003;4.1184614258e+003;4.0584614258e+003;4.0598718262e+003;4.1102563477e+003;4.0282050781e+003;4.0564101563e+003;4.0660256348e+003;4.1076923828e+003;4.1892309570e+003;4.1024360352e+003;4.1526923828e+003;4.1016665039e+003;4.0626923828e+003;
4.6875000000e-002;4.3301284180e+003;4.4753847656e+003;4.3998715820e+003;4.4092309570e+003;4.4644873047e+003;4.3796152344e+003;4.4125639648e+003;4.4017949219e+003;4.4400000000e+003;4.5376923828e+003;4.4542309570e+003;4.4811538086e+003;4.4462822266e+003;4.3985898438e+003;
5.4687500000e-002;4.5587177734e+003;4.7234614258e+003;4.6325639648e+003;4.6432050781e+003;4.7155126953e+003;4.6114101563e+003;4.6460258789e+003;4.6348715820e+003;4.6674360352e+003;4.7792309570e+003;4.6857690430e+003;4.7126923828e+003;4.6787177734e+003;4.6287177734e+003;
6.2500000000e-002;4.8143588867e+003;5.0023076172e+003;4.8955126953e+003;4.8987177734e+003;4.9971796875e+003;4.8691025391e+003;4.9044873047e+003;4.8996152344e+003;4.9275639648e+003;5.0544873047e+003;4.9473076172e+003;4.9751284180e+003;4.9425639648e+003;4.8887177734e+003;
7.0312500000e-002;5.1669228516e+003;5.3957690430e+003;5.2712822266e+003;5.2441025391e+003;5.3885898438e+003;5.2382050781e+003;5.2688461914e+003;5.2876923828e+003;5.3129487305e+003;5.4644873047e+003;5.3339741211e+003;5.3516665039e+003;5.3278203125e+003;5.2605126953e+003;
7.8125000000e-002;5.1974360352e+003;5.4394873047e+003;5.3158974609e+003;5.2778203125e+003;5.4316665039e+003;5.2870512695e+003;5.3141025391e+003;5.3400000000e+003;5.3650000000e+003;5.5225639648e+003;5.3898715820e+003;5.3978203125e+003;5.3775639648e+003;5.3044873047e+003;
8.5937500000e-002;5.1728203125e+003;5.4242309570e+003;5.3047436523e+003;5.2615385742e+003;5.4203847656e+003;5.2811538086e+003;5.3067949219e+003;5.3324360352e+003;5.3566665039e+003;5.5157690430e+003;5.3871796875e+003;5.3879487305e+003;5.3680771484e+003;5.2921796875e+003;
9.3750000000e-002;5.4257690430e+003;5.7396152344e+003;5.6196152344e+003;5.5512822266e+003;5.7266665039e+003;5.5669228516e+003;5.5902563477e+003;5.6089741211e+003;5.6311538086e+003;5.8138461914e+003;5.6776923828e+003;5.6960258789e+003;5.6714101563e+003;5.5970512695e+003;
1.0156250000e-001;5.4234614258e+003;5.7525639648e+003;5.6296152344e+003;5.5628203125e+003;5.7315385742e+003;5.5755126953e+003;5.5975639648e+003;5.6215385742e+003;5.6401284180e+003;5.8288461914e+003;5.6956411133e+003;5.7088461914e+003;5.6842309570e+003;5.6114101563e+003;
1.0937500000e-001;5.5116665039e+003;5.8796152344e+003;5.7441025391e+003;5.6682050781e+003;5.8716665039e+003;5.6701284180e+003;5.7035898438e+003;5.7397436523e+003;5.7487177734e+003;5.9465385742e+003;5.8343588867e+003;5.8252563477e+003;5.8157690430e+003;5.7270512695e+003;
1.1718750000e-001;5.7834614258e+003;6.1830771484e+003;6.0467949219e+003;5.9479487305e+003;6.1537177734e+003;5.9528203125e+003;5.9828203125e+003;6.0334614258e+003;6.0444873047e+003;6.2570512695e+003;6.1376923828e+003;6.1306411133e+003;6.1130771484e+003;6.0276923828e+003;
1.2500000000e-001;5.8116665039e+003;6.2234614258e+003;6.0860258789e+003;5.9820512695e+003;6.1869228516e+003;5.9915385742e+003;6.0201284180e+003;6.0807690430e+003;6.0942309570e+003;6.3079487305e+003;6.1806411133e+003;6.1726923828e+003;6.1533334961e+003;6.0682050781e+003;
1.3281250000e-001;5.6307690430e+003;6.0644873047e+003;5.9371796875e+003;5.8251284180e+003;6.0402563477e+003;5.8417949219e+003;5.8769228516e+003;5.9512822266e+003;5.9643588867e+003;6.1626923828e+003;6.0275639648e+003;6.0175639648e+003;6.0010258789e+003;5.9110258789e+003;
1.4062500000e-001;5.5541025391e+003;6.0058974609e+003;5.8852563477e+003;5.7789741211e+003;5.9835898438e+003;5.8148715820e+003;5.8341025391e+003;5.9085898438e+003;5.9174360352e+003;6.1015385742e+003;5.9687177734e+003;5.9544873047e+003;5.9394873047e+003;5.8558974609e+003;
1.4843750000e-001;5.4503847656e+003;5.9092309570e+003;5.7898715820e+003;5.6830771484e+003;5.8806411133e+003;5.7339741211e+003;5.7457690430e+003;5.8219228516e+003;5.8307690430e+003;6.0058974609e+003;5.8701284180e+003;5.8587177734e+003;5.8398715820e+003;5.7616665039e+003;
1.5625000000e-001;5.2723076172e+003;5.7323076172e+003;5.6178203125e+003;5.5101284180e+003;5.7019228516e+003;5.5757690430e+003;5.5837177734e+003;5.6562822266e+003;5.6661538086e+003;5.8284614258e+003;5.6921796875e+003;5.6848715820e+003;5.6624360352e+003;5.5894873047e+003;
1.6406250000e-001;4.8744873047e+003;5.3193588867e+003;5.2219228516e+003;5.1212822266e+003;5.3051284180e+003;5.1997436523e+003;5.2087177734e+003;5.2575639648e+003;5.2720512695e+003;5.4089741211e+003;5.2802563477e+003;5.2815385742e+003;5.2578203125e+003;5.1908974609e+003;
1.7187500000e-001;4.6234614258e+003;5.0415385742e+003;4.9616665039e+003;4.8957690430e+003;5.0516665039e+003;4.9512822266e+003;4.9574360352e+003;4.9819228516e+003;5.0016665039e+003;5.1200000000e+003;5.0075639648e+003;5.0250000000e+003;4.9925639648e+003;4.9407690430e+003;
1.7968750000e-001;4.5689741211e+003;4.9826923828e+003;4.9033334961e+003;4.8475639648e+003;4.9900000000e+003;4.8971796875e+003;4.9007690430e+003;4.9241025391e+003;4.9435898438e+003;5.0574360352e+003;4.9511538086e+003;4.9691025391e+003;4.9346152344e+003;4.8887177734e+003;
1.8750000000e-001;4.4929487305e+003;4.9028203125e+003;4.8228203125e+003;4.7741025391e+003;4.9051284180e+003;4.8216665039e+003;4.8235898438e+003;4.8456411133e+003;4.8635898438e+003;4.9732050781e+003;4.8738461914e+003;4.8884614258e+003;4.8555126953e+003;4.8126923828e+003;
1.9531250000e-001;4.3252563477e+003;4.7191025391e+003;4.6446152344e+003;4.6006411133e+003;4.7193588867e+003;4.6475639648e+003;4.6501284180e+003;4.6610258789e+003;4.6753847656e+003;4.7794873047e+003;4.6947436523e+003;4.7044873047e+003;4.6765385742e+003;4.6341025391e+003;
2.0312500000e-001;4.2789741211e+003;4.6594873047e+003;4.5925639648e+003;4.5469228516e+003;4.6650000000e+003;4.5914101563e+003;4.5958974609e+003;4.5982050781e+003;4.6120512695e+003;4.7155126953e+003;4.6362822266e+003;4.6501284180e+003;4.6196152344e+003;4.5788461914e+003;
2.1093750000e-001;4.2660258789e+003;4.6333334961e+003;4.5730771484e+003;4.5255126953e+003;4.6443588867e+003;4.5652563477e+003;4.5725639648e+003;4.5687177734e+003;4.5830771484e+003;4.6867949219e+003;4.6105126953e+003;4.6311538086e+003;4.5952563477e+003;4.5576923828e+003;
2.1875000000e-001;4.0834614258e+003;4.4092309570e+003;4.3669228516e+003;4.3151284180e+003;4.3937177734e+003;4.3443588867e+003;4.3508974609e+003;4.3698715820e+003;4.3767949219e+003;4.4738461914e+003;4.4060258789e+003;4.4352563477e+003;4.3933334961e+003;4.3628203125e+003;
2.2656250000e-001;4.0326923828e+003;4.3488461914e+003;4.3106411133e+003;4.2587177734e+003;4.3364101563e+003;4.2843588867e+003;4.2907690430e+003;4.3142309570e+003;4.3223076172e+003;4.4156411133e+003;4.3497436523e+003;4.3779487305e+003;4.3343588867e+003;4.3065385742e+003;
2.3437500000e-001;3.9337180176e+003;4.2262822266e+003;4.1884614258e+003;4.1575639648e+003;4.2285898438e+003;4.1582050781e+003;4.1735898438e+003;4.1969228516e+003;4.2215385742e+003;4.2933334961e+003;4.2241025391e+003;4.2598715820e+003;4.2137177734e+003;4.1897436523e+003;
2.4218750000e-001;3.9235898438e+003;4.1943588867e+003;4.1597436523e+003;4.1314101563e+003;4.1834614258e+003;4.1410258789e+003;4.1546152344e+003;4.1810258789e+003;4.2065385742e+003;4.2553847656e+003;4.1885898438e+003;4.2217949219e+003;4.1803847656e+003;4.1557690430e+003;
2.5000000000e-001;3.9210256348e+003;4.1862822266e+003;4.1501284180e+003;4.1211538086e+003;4.1828203125e+003;4.1394873047e+003;4.1512822266e+003;4.1782050781e+003;4.1996152344e+003;4.2469228516e+003;4.1835898438e+003;4.2124360352e+003;4.1705126953e+003;4.1466665039e+003;
2.5781250000e-001;3.8452563477e+003;4.0898718262e+003;4.0584614258e+003;4.0398718262e+003;4.1060258789e+003;4.0724357910e+003;4.0764101563e+003;4.0873076172e+003;4.1051284180e+003;4.1521796875e+003;4.0867949219e+003;4.1189741211e+003;4.0821794434e+003;4.0543588867e+003;
2.6562500000e-001;3.7652563477e+003;3.9885898438e+003;3.9582050781e+003;3.9580769043e+003;4.0006411133e+003;3.9938461914e+003;3.9941025391e+003;3.9815385742e+003;4.0032050781e+003;4.0360256348e+003;3.9797436523e+003;4.0183332520e+003;3.9750000000e+003;3.9464101563e+003;
2.7343750000e-001;3.7651281738e+003;3.9819230957e+003;3.9501281738e+003;3.9551281738e+003;3.9993588867e+003;3.9856411133e+003;3.9883332520e+003;3.9700000000e+003;3.9920512695e+003;4.0242307129e+003;3.9689743652e+003;4.0073076172e+003;3.9648718262e+003;3.9362819824e+003;
2.8125000000e-001;3.7760256348e+003;3.9882050781e+003;3.9560256348e+003;3.9641025391e+003;4.0092307129e+003;3.9882050781e+003;3.9924357910e+003;3.9716667480e+003;3.9943588867e+003;4.0298718262e+003;3.9717949219e+003;4.0088461914e+003;3.9701281738e+003;3.9406411133e+003;
2.8906250000e-001;3.7764101563e+003;3.9826923828e+003;3.9544870605e+003;3.9576923828e+003;3.9979487305e+003;3.9817949219e+003;3.9833332520e+003;3.9637180176e+003;3.9864101563e+003;4.0307692871e+003;3.9675642090e+003;4.0050000000e+003;3.9689743652e+003;3.9402563477e+003;
2.9687500000e-001;3.8676923828e+003;4.0574357910e+003;4.0243588867e+003;4.0191025391e+003;4.0664101563e+003;4.0574357910e+003;4.0597436523e+003;4.0270512695e+003;4.0475642090e+003;4.0882050781e+003;4.0416667480e+003;4.0812819824e+003;4.0421794434e+003;4.0152563477e+003;
3.0468750000e-001;3.9635898438e+003;4.1482050781e+003;4.1132050781e+003;4.1066665039e+003;4.1607690430e+003;4.1389741211e+003;4.1450000000e+003;4.1117949219e+003;4.1324360352e+003;4.1748715820e+003;4.1323076172e+003;4.1680771484e+003;4.1317949219e+003;4.1019228516e+003;
3.1250000000e-001;4.0491025391e+003;4.2321796875e+003;4.1979487305e+003;4.1882050781e+003;4.2461538086e+003;4.2101284180e+003;4.2196152344e+003;4.1916665039e+003;4.2121796875e+003;4.2593588867e+003;4.2180771484e+003;4.2511538086e+003;4.2143588867e+003;4.1838461914e+003;
3.2031250000e-001;4.1126923828e+003;4.3028203125e+003;4.2717949219e+003;4.2562822266e+003;4.3030771484e+003;4.2585898438e+003;4.2721796875e+003;4.2593588867e+003;4.2771796875e+003;4.3328203125e+003;4.2916665039e+003;4.3280771484e+003;4.2800000000e+003;4.2570512695e+003;
3.2812500000e-001;4.1150000000e+003;4.3080771484e+003;4.2765385742e+003;4.2625639648e+003;4.2991025391e+003;4.2579487305e+003;4.2738461914e+003;4.2651284180e+003;4.2817949219e+003;4.3383334961e+003;4.2964101563e+003;4.3367949219e+003;4.2851284180e+003;4.2643588867e+003;
3.3593750000e-001;4.1264101563e+003;4.3175639648e+003;4.2857690430e+003;4.2750000000e+003;4.3047436523e+003;4.2641025391e+003;4.2828203125e+003;4.2776923828e+003;4.2944873047e+003;4.3502563477e+003;4.3062822266e+003;4.3501284180e+003;4.2991025391e+003;4.2766665039e+003;
3.4375000000e-001;4.3475639648e+003;4.5378203125e+003;4.5007690430e+003;4.4737177734e+003;4.5261538086e+003;4.4535898438e+003;4.4788461914e+003;4.5106411133e+003;4.5326923828e+003;4.5928203125e+003;4.5551284180e+003;4.5780771484e+003;4.5328203125e+003;4.5038461914e+003;
3.5156250000e-001;4.3651284180e+003;4.5612822266e+003;4.5223076172e+003;4.4929487305e+003;4.5466665039e+003;4.4796152344e+003;4.5037177734e+003;4.5356411133e+003;4.5558974609e+003;4.6184614258e+003;4.5782050781e+003;4.5969228516e+003;4.5535898438e+003;4.5223076172e+003;
3.5937500000e-001;4.3766665039e+003;4.5794873047e+003;4.5357690430e+003;4.5146152344e+003;4.5757690430e+003;4.5129487305e+003;4.5342309570e+003;4.5525639648e+003;4.5721796875e+003;4.6351284180e+003;4.5729487305e+003;4.5984614258e+003;4.5685898438e+003;4.5293588867e+003;
3.6718750000e-001;4.3869228516e+003;4.6005126953e+003;4.5525639648e+003;4.5367949219e+003;4.5997436523e+003;4.5467949219e+003;4.5570512695e+003;4.5705126953e+003;4.5892309570e+003;4.6551284180e+003;4.5932050781e+003;4.6166665039e+003;4.5802563477e+003;4.5448715820e+003;
3.7500000000e-001;4.3715385742e+003;4.5891025391e+003;4.5420512695e+003;4.5188461914e+003;4.5851284180e+003;4.5414101563e+003;4.5475639648e+003;4.5576923828e+003;4.5750000000e+003;4.6415385742e+003;4.5830771484e+003;4.6023076172e+003;4.5660258789e+003;4.5292309570e+003;
3.8281250000e-001;4.3724360352e+003;4.5961538086e+003;4.5421796875e+003;4.5133334961e+003;4.6044873047e+003;4.5484614258e+003;4.5512822266e+003;4.5582050781e+003;4.5758974609e+003;4.6428203125e+003;4.5866665039e+003;4.5935898438e+003;4.5737177734e+003;4.5279487305e+003;
3.9062500000e-001;4.3628203125e+003;4.5847436523e+003;4.5312822266e+003;4.5121796875e+003;4.5966665039e+003;4.5378203125e+003;4.5420512695e+003;4.5458974609e+003;4.5637177734e+003;4.6296152344e+003;4.5734614258e+003;4.5856411133e+003;4.5621796875e+003;4.5205126953e+003;
3.9843750000e-001;4.3303847656e+003;4.5493588867e+003;4.5001284180e+003;4.4853847656e+003;4.5560258789e+003;4.5061538086e+003;4.5105126953e+003;4.5024360352e+003;4.5208974609e+003;4.5844873047e+003;4.5297436523e+003;4.5570512695e+003;4.5224360352e+003;4.4882050781e+003;
4.0625000000e-001;4.3294873047e+003;4.5492309570e+003;4.5006411133e+003;4.4769228516e+003;4.5526923828e+003;4.5055126953e+003;4.5071796875e+003;4.4969228516e+003;4.5157690430e+003;4.5793588867e+003;4.5242309570e+003;4.5547436523e+003;4.5202563477e+003;4.4852563477e+003;
4.1406250000e-001;4.3473076172e+003;4.5620512695e+003;4.5237177734e+003;4.4955126953e+003;4.5700000000e+003;4.5170512695e+003;4.5155126953e+003;4.5050000000e+003;4.5197436523e+003;4.5898715820e+003;4.5467949219e+003;4.5748715820e+003;4.5384614258e+003;4.5074360352e+003;
4.2187500000e-001;4.3550000000e+003;4.5652563477e+003;4.5315385742e+003;4.5116665039e+003;4.5716665039e+003;4.5167949219e+003;4.5185898438e+003;4.5038461914e+003;4.5178203125e+003;4.5925639648e+003;4.5576923828e+003;4.5847436523e+003;4.5429487305e+003;4.5169228516e+003;
4.2968750000e-001;4.3992309570e+003;4.6065385742e+003;4.5743588867e+003;4.5574360352e+003;4.5992309570e+003;4.5401284180e+003;4.5494873047e+003;4.5330771484e+003;4.5480771484e+003;4.6280771484e+003;4.6003847656e+003;4.6291025391e+003;4.5787177734e+003;4.5610258789e+003;
4.3750000000e-001;4.4210258789e+003;4.6289741211e+003;4.5961538086e+003;4.5733334961e+003;4.6128203125e+003;4.5537177734e+003;4.5655126953e+003;4.5551284180e+003;4.5701284180e+003;4.6480771484e+003;4.6185898438e+003;4.6503847656e+003;4.5976923828e+003;4.5830771484e+003;
4.4531250000e-001;4.4514101563e+003;4.6556411133e+003;4.6256411133e+003;4.5971796875e+003;4.6319228516e+003;4.5689741211e+003;4.5902563477e+003;4.6070512695e+003;4.6173076172e+003;4.6850000000e+003;4.6457690430e+003;4.6802563477e+003;4.6275639648e+003;4.6153847656e+003;
4.5312500000e-001;4.4679487305e+003;4.6739741211e+003;4.6430771484e+003;4.6152563477e+003;4.6532050781e+003;4.5843588867e+003;4.6096152344e+003;4.6321796875e+003;4.6416665039e+003;4.7101284180e+003;4.6675639648e+003;4.6992309570e+003;4.6469228516e+003;4.6341025391e+003;
4.6093750000e-001;4.4856411133e+003;4.6966665039e+003;4.6626923828e+003;4.6323076172e+003;4.6792309570e+003;4.6047436523e+003;4.6324360352e+003;4.6576923828e+003;4.6680771484e+003;4.7375639648e+003;4.6924360352e+003;4.7206411133e+003;4.6684614258e+003;4.6556411133e+003;
4.6875000000e-001;4.4117949219e+003;4.6298715820e+003;4.5848715820e+003;4.5661538086e+003;4.6235898438e+003;4.5682050781e+003;4.5762822266e+003;4.6033334961e+003;4.6223076172e+003;4.6789741211e+003;4.6257690430e+003;4.6406411133e+003;4.6124360352e+003;4.5829487305e+003;
4.7656250000e-001;4.3961538086e+003;4.6142309570e+003;4.5680771484e+003;4.5524360352e+003;4.6101284180e+003;4.5576923828e+003;4.5625639648e+003;4.5860258789e+003;4.6050000000e+003;4.6634614258e+003;4.6071796875e+003;4.6239741211e+003;4.5964101563e+003;4.5667949219e+003;
4.8437500000e-001;4.4210258789e+003;4.6494873047e+003;4.5879487305e+003;4.5691025391e+003;4.6460258789e+003;4.5938461914e+003;4.5970512695e+003;4.6135898438e+003;4.6294873047e+003;4.6939741211e+003;4.6403847656e+003;4.6498715820e+003;4.6265385742e+003;4.6007690430e+003;
4.9218750000e-001;4.3741025391e+003;4.5858974609e+003;4.5414101563e+003;4.5020512695e+003;4.5797436523e+003;4.5497436523e+003;4.5437177734e+003;4.5455126953e+003;4.5682050781e+003;4.6257690430e+003;4.5692309570e+003;4.5889741211e+003;4.5617949219e+003;4.5397436523e+003;
5.0000000000e-001;4.4014101563e+003;4.6117949219e+003;4.5692309570e+003;4.5251284180e+003;4.6065385742e+003;4.5715385742e+003;4.5650000000e+003;4.5630771484e+003;4.5875639648e+003;4.6455126953e+003;4.5929487305e+003;4.6121796875e+003;4.5826923828e+003;4.5612822266e+003;
5.0781250000e-001;4.5394873047e+003;4.7621796875e+003;4.7044873047e+003;4.6746152344e+003;4.7533334961e+003;4.6946152344e+003;4.6942309570e+003;4.6893588867e+003;4.7041025391e+003;4.7782050781e+003;4.7457690430e+003;4.7548715820e+003;4.7274360352e+003;4.7001284180e+003;
5.1562500000e-001;4.5865385742e+003;4.8082050781e+003;4.7515385742e+003;4.7198715820e+003;4.7979487305e+003;4.7374360352e+003;4.7385898438e+003;4.7305126953e+003;4.7401284180e+003;4.8224360352e+003;4.7902563477e+003;4.8011538086e+003;4.7733334961e+003;4.7461538086e+003;
5.2343750000e-001;4.7044873047e+003;4.9237177734e+003;4.8750000000e+003;4.8212822266e+003;4.9129487305e+003;4.8474360352e+003;4.8501284180e+003;4.8410258789e+003;4.8424360352e+003;4.9384614258e+003;4.8985898438e+003;4.9175639648e+003;4.8856411133e+003;4.8589741211e+003;
5.3125000000e-001;4.7541025391e+003;4.9783334961e+003;4.9291025391e+003;4.8664101563e+003;4.9651284180e+003;4.8948715820e+003;4.8993588867e+003;4.8948715820e+003;4.8919228516e+003;4.9907690430e+003;4.9487177734e+003;4.9719228516e+003;4.9373076172e+003;4.9097436523e+003;
5.3906250000e-001;4.7902563477e+003;5.0341025391e+003;4.9714101563e+003;4.9162822266e+003;5.0082050781e+003;4.9267949219e+003;4.9457690430e+003;4.9616665039e+003;4.9494873047e+003;5.0470512695e+003;5.0114101563e+003;5.0308974609e+003;4.9932050781e+003;4.9612822266e+003;
5.4687500000e-001;4.7678203125e+003;5.0105126953e+003;4.9515385742e+003;4.8970512695e+003;4.9826923828e+003;4.9042309570e+003;4.9269228516e+003;4.9482050781e+003;4.9369228516e+003;5.0338461914e+003;5.0002563477e+003;5.0138461914e+003;4.9757690430e+003;4.9428203125e+003;
5.5468750000e-001;4.6897436523e+003;4.9253847656e+003;4.8808974609e+003;4.8166665039e+003;4.8956411133e+003;4.8297436523e+003;4.8524360352e+003;4.8805126953e+003;4.8737177734e+003;4.9647436523e+003;4.9342309570e+003;4.9417949219e+003;4.9035898438e+003;4.8717949219e+003;
5.6250000000e-001;4.6579487305e+003;4.8933334961e+003;4.8496152344e+003;4.7817949219e+003;4.8651284180e+003;4.7989741211e+003;4.8202563477e+003;4.8500000000e+003;4.8470512695e+003;4.9320512695e+003;4.9024360352e+003;4.9092309570e+003;4.8737177734e+003;4.8419228516e+003;
5.7031250000e-001;4.6530771484e+003;4.8921796875e+003;4.8358974609e+003;4.7748715820e+003;4.8746152344e+003;4.7987177734e+003;4.8196152344e+003;4.8524360352e+003;4.8651284180e+003;4.9316665039e+003;4.8943588867e+003;4.9008974609e+003;4.8691025391e+003;4.8343588867e+003;
5.7812500000e-001;4.6526923828e+003;4.8887177734e+003;4.8362822266e+003;4.7785898438e+003;4.8684614258e+003;4.8073076172e+003;4.8257690430e+003;4.8578203125e+003;4.8732050781e+003;4.9351284180e+003;4.8925639648e+003;4.9019228516e+003;4.8676923828e+003;4.8343588867e+003;
5.8593750000e-001;4.6371796875e+003;4.8707690430e+003;4.8237177734e+003;4.7691025391e+003;4.8447436523e+003;4.8046152344e+003;4.8176923828e+003;4.8478203125e+003;4.8646152344e+003;4.9229487305e+003;4.8747436523e+003;4.8870512695e+003;4.8529487305e+003;4.8210258789e+003;
5.9375000000e-001;4.6012822266e+003;4.8356411133e+003;4.7908974609e+003;4.7392309570e+003;4.8055126953e+003;4.7826923828e+003;4.7885898438e+003;4.8164101563e+003;4.8344873047e+003;4.8903847656e+003;4.8373076172e+003;4.8502563477e+003;4.8202563477e+003;4.7882050781e+003;
6.0156250000e-001;4.3658974609e+003;4.5907690430e+003;4.5510258789e+003;4.5032050781e+003;4.5996152344e+003;4.5600000000e+003;4.5579487305e+003;4.5698715820e+003;4.5915385742e+003;4.6365385742e+003;4.6001284180e+003;4.6046152344e+003;4.5778203125e+003;4.5505126953e+003;
6.0937500000e-001;4.3011538086e+003;4.5180771484e+003;4.4793588867e+003;4.4476923828e+003;4.4970512695e+003;4.4976923828e+003;4.4829487305e+003;4.4866665039e+003;4.5088461914e+003;4.5456411133e+003;4.5143588867e+003;4.5239741211e+003;4.4984614258e+003;4.4808974609e+003;
6.1718750000e-001;4.2796152344e+003;4.4996152344e+003;4.4565385742e+003;4.4267949219e+003;4.4814101563e+003;4.4724360352e+003;4.4623076172e+003;4.4614101563e+003;4.4798715820e+003;4.5193588867e+003;4.4924360352e+003;4.5037177734e+003;4.4744873047e+003;4.4597436523e+003;
6.2500000000e-001;4.2976923828e+003;4.5112822266e+003;4.4688461914e+003;4.4407690430e+003;4.4993588867e+003;4.4732050781e+003;4.4725639648e+003;4.4650000000e+003;4.4742309570e+003;4.5233334961e+003;4.5014101563e+003;4.5137177734e+003;4.4846152344e+003;4.4678203125e+003;
6.3281250000e-001;4.2261538086e+003;4.4093588867e+003;4.3943588867e+003;4.3458974609e+003;4.3905126953e+003;4.3794873047e+003;4.3794873047e+003;4.3765385742e+003;4.3774360352e+003;4.4270512695e+003;4.4166665039e+003;4.4380771484e+003;4.3971796875e+003;4.3892309570e+003;
6.4062500000e-001;4.1770512695e+003;4.3552563477e+003;4.3417949219e+003;4.2967949219e+003;4.3419228516e+003;4.3174360352e+003;4.3255126953e+003;4.3267949219e+003;4.3237177734e+003;4.3719228516e+003;4.3664101563e+003;4.3891025391e+003;4.3435898438e+003;4.3376923828e+003;
6.4843750000e-001;4.0315385742e+003;4.1965385742e+003;4.1888461914e+003;4.1584614258e+003;4.1832050781e+003;4.1570512695e+003;4.1767949219e+003;4.1851284180e+003;4.1782050781e+003;4.2188461914e+003;4.2128203125e+003;4.2415385742e+003;4.1900000000e+003;4.1867949219e+003;
6.5625000000e-001;3.9411538086e+003;4.0993588867e+003;4.0948718262e+003;4.0688461914e+003;4.0807692871e+003;4.0691025391e+003;4.0878205566e+003;4.0960258789e+003;4.0924357910e+003;4.1247436523e+003;4.1183334961e+003;4.1478203125e+003;4.0961538086e+003;4.0944870605e+003;
6.6406250000e-001;3.8684614258e+003;4.0117949219e+003;4.0039743652e+003;3.9791025391e+003;3.9850000000e+003;3.9991025391e+003;4.0085898438e+003;4.0135898438e+003;4.0264101563e+003;4.0355129395e+003;4.0338461914e+003;4.0514101563e+003;4.0080769043e+003;4.0076923828e+003;
6.7187500000e-001;3.9162819824e+003;4.0525642090e+003;4.0451281738e+003;4.0238461914e+003;4.0294870605e+003;4.0378205566e+003;4.0494870605e+003;4.0552563477e+003;4.0680769043e+003;4.0766667480e+003;4.0716667480e+003;4.0905129395e+003;4.0485898438e+003;4.0479487305e+003;
6.7968750000e-001;4.0203845215e+003;4.1424360352e+003;4.1382050781e+003;4.1260258789e+003;4.1264101563e+003;4.1292309570e+003;4.1462822266e+003;4.1500000000e+003;4.1610258789e+003;4.1720512695e+003;4.1588461914e+003;4.1792309570e+003;4.1444873047e+003;4.1388461914e+003;
6.8750000000e-001;4.0653845215e+003;4.1852563477e+003;4.1789741211e+003;4.1674360352e+003;4.1700000000e+003;4.1788461914e+003;4.1938461914e+003;4.1948715820e+003;4.2076923828e+003;4.2187177734e+003;4.2032050781e+003;4.2185898438e+003;4.1905126953e+003;4.1803847656e+003;
6.9531250000e-001;4.2602563477e+003;4.3932050781e+003;4.3711538086e+003;4.3461538086e+003;4.3897436523e+003;4.3964101563e+003;4.3974360352e+003;4.3937177734e+003;4.4169228516e+003;4.4266665039e+003;4.3998715820e+003;4.4057690430e+003;4.3843588867e+003;4.3719228516e+003;
7.0312500000e-001;4.3423076172e+003;4.4807690430e+003;4.4541025391e+003;4.4267949219e+003;4.4866665039e+003;4.4766665039e+003;4.4766665039e+003;4.4765385742e+003;4.5005126953e+003;4.5126923828e+003;4.4798715820e+003;4.4870512695e+003;4.4639741211e+003;4.4530771484e+003;
7.1093750000e-001;4.4016665039e+003;4.5469228516e+003;4.5144873047e+003;4.4888461914e+003;4.5594873047e+003;4.5337177734e+003;4.5333334961e+003;4.5388461914e+003;4.5614101563e+003;4.5771796875e+003;4.5402563477e+003;4.5479487305e+003;4.5235898438e+003;4.5129487305e+003;
7.1875000000e-001;4.4298715820e+003;4.5825639648e+003;4.5433334961e+003;4.5214101563e+003;4.5958974609e+003;4.5626923828e+003;4.5610258789e+003;4.5698715820e+003;4.5902563477e+003;4.6093588867e+003;4.5730771484e+003;4.5796152344e+003;4.5547436523e+003;4.5428203125e+003;
7.2656250000e-001;4.6705126953e+003;4.8330771484e+003;4.7842309570e+003;4.7414101563e+003;4.8185898438e+003;4.7947436523e+003;4.7897436523e+003;4.7871796875e+003;4.8023076172e+003;4.8448715820e+003;4.8221796875e+003;4.8139741211e+003;4.7989741211e+003;4.7765385742e+003;
7.3437500000e-001;4.6716665039e+003;4.8576923828e+003;4.8062822266e+003;4.7726923828e+003;4.8400000000e+003;4.8012822266e+003;4.8007690430e+003;4.7929487305e+003;4.7875639648e+003;4.8552563477e+003;4.8271796875e+003;4.8338461914e+003;4.8148715820e+003;4.7957690430e+003;
7.4218750000e-001;4.8048715820e+003;5.0001284180e+003;4.9464101563e+003;4.8926923828e+003;4.9660258789e+003;4.9182050781e+003;4.9234614258e+003;4.9235898438e+003;4.9097436523e+003;4.9894873047e+003;4.9685898438e+003;4.9771796875e+003;4.9505126953e+003;4.9321796875e+003;
7.5000000000e-001;4.7179487305e+003;4.9070512695e+003;4.8675639648e+003;4.8021796875e+003;4.8800000000e+003;4.8274360352e+003;4.8351284180e+003;4.8453847656e+003;4.8326923828e+003;4.9076923828e+003;4.8902563477e+003;4.8987177734e+003;4.8643588867e+003;4.8511538086e+003;
7.5781250000e-001;4.3762822266e+003;4.5588461914e+003;4.5361538086e+003;4.4843588867e+003;4.5478203125e+003;4.4939741211e+003;4.5065385742e+003;4.5238461914e+003;4.5180771484e+003;4.5639741211e+003;4.5612822266e+003;4.5684614258e+003;4.5352563477e+003;4.5293588867e+003;
7.6562500000e-001;4.4005126953e+003;4.5858974609e+003;4.5579487305e+003;4.5155126953e+003;4.5676923828e+003;4.5169228516e+003;4.5311538086e+003;4.5482050781e+003;4.5424360352e+003;4.5862822266e+003;4.5837177734e+003;4.5921796875e+003;4.5610258789e+003;4.5539741211e+003;
7.7343750000e-001;4.5144873047e+003;4.7024360352e+003;4.6651284180e+003;4.6207690430e+003;4.6656411133e+003;4.6224360352e+003;4.6370512695e+003;4.6591025391e+003;4.6550000000e+003;4.7014101563e+003;4.6883334961e+003;4.7038461914e+003;4.6669228516e+003;4.6623076172e+003;
7.8125000000e-001;4.5138461914e+003;4.7008974609e+003;4.6623076172e+003;4.6108974609e+003;4.6626923828e+003;4.6223076172e+003;4.6343588867e+003;4.6589741211e+003;4.6583334961e+003;4.7019228516e+003;4.6842309570e+003;4.7014101563e+003;4.6621796875e+003;4.6597436523e+003;
7.8906250000e-001;4.2903847656e+003;4.4633334961e+003;4.4457690430e+003;4.3943588867e+003;4.4498715820e+003;4.4300000000e+003;4.4282050781e+003;4.4474360352e+003;4.4557690430e+003;4.4748715820e+003;4.4608974609e+003;4.4719228516e+003;4.4397436523e+003;4.4397436523e+003;
7.9687500000e-001;4.2141025391e+003;4.3796152344e+003;4.3688461914e+003;4.3246152344e+003;4.3697436523e+003;4.3624360352e+003;4.3565385742e+003;4.3706411133e+003;4.3807690430e+003;4.3953847656e+003;4.3810258789e+003;4.3908974609e+003;4.3606411133e+003;4.3617949219e+003;
8.0468750000e-001;4.1141025391e+003;4.2674360352e+003;4.2525639648e+003;4.2230771484e+003;4.2584614258e+003;4.2605126953e+003;4.2515385742e+003;4.2544873047e+003;4.2682050781e+003;4.2834614258e+003;4.2646152344e+003;4.2734614258e+003;4.2484614258e+003;4.2485898438e+003;
8.1250000000e-001;4.0842307129e+003;4.2344873047e+003;4.2138461914e+003;4.1905126953e+003;4.2283334961e+003;4.2246152344e+003;4.2150000000e+003;4.2130771484e+003;4.2278203125e+003;4.2447436523e+003;4.2255126953e+003;4.2346152344e+003;4.2135898438e+003;4.2121796875e+003;
8.2031250000e-001;4.0619230957e+003;4.2108974609e+003;4.1865385742e+003;4.1687177734e+003;4.2080771484e+003;4.1980771484e+003;4.1866665039e+003;4.1810258789e+003;4.1958974609e+003;4.2129487305e+003;4.1956411133e+003;4.2056411133e+003;4.1875639648e+003;4.1861538086e+003;
8.2812500000e-001;4.0417949219e+003;4.1897436523e+003;4.1644873047e+003;4.1511538086e+003;4.1880771484e+003;4.1765385742e+003;4.1617949219e+003;4.1538461914e+003;4.1687177734e+003;4.1839741211e+003;4.1700000000e+003;4.1807690430e+003;4.1633334961e+003;4.1648715820e+003;
8.3593750000e-001;3.9317949219e+003;4.0488461914e+003;4.0457692871e+003;4.0224357910e+003;4.0438461914e+003;4.0635898438e+003;4.0400000000e+003;4.0205129395e+003;4.0325642090e+003;4.0407692871e+003;4.0387180176e+003;4.0602563477e+003;4.0255129395e+003;4.0417949219e+003;
8.4375000000e-001;3.9376923828e+003;4.0492307129e+003;4.0497436523e+003;4.0297436523e+003;4.0453845215e+003;4.0653845215e+003;4.0444870605e+003;4.0201281738e+003;4.0301281738e+003;4.0408974609e+003;4.0443588867e+003;4.0637180176e+003;4.0308974609e+003;4.0437180176e+003;
8.5156250000e-001;3.9991025391e+003;4.1041025391e+003;4.1091025391e+003;4.1094873047e+003;4.1001284180e+003;4.1102563477e+003;4.0992309570e+003;4.0723076172e+003;4.0755129395e+003;4.0969228516e+003;4.1002563477e+003;4.1237177734e+003;4.0898718262e+003;4.1023076172e+003;
8.5937500000e-001;3.9865385742e+003;4.0855129395e+003;4.0953845215e+003;4.0925642090e+003;4.0764101563e+003;4.0910256348e+003;4.0823076172e+003;4.0561538086e+003;4.0547436523e+003;4.0764101563e+003;4.0766667480e+003;4.1120512695e+003;4.0679487305e+003;4.0887180176e+003;
8.6718750000e-001;4.1000000000e+003;4.1906411133e+003;4.1966665039e+003;4.1784614258e+003;4.1723076172e+003;4.1680771484e+003;4.1751284180e+003;4.1539741211e+003;4.1438461914e+003;4.1703847656e+003;4.1815385742e+003;4.2134614258e+003;4.1682050781e+003;4.1892309570e+003;
8.7500000000e-001;4.2983334961e+003;4.3894873047e+003;4.3873076172e+003;4.3729487305e+003;4.3719228516e+003;4.3310258789e+003;4.3535898438e+003;4.3576923828e+003;4.3607690430e+003;4.3911538086e+003;4.4021796875e+003;4.4158974609e+003;4.3739741211e+003;4.3844873047e+003;
8.8281250000e-001;4.2987177734e+003;4.3887177734e+003;4.3887177734e+003;4.3728203125e+003;4.3685898438e+003;4.3307690430e+003;4.3502563477e+003;4.3642309570e+003;4.3700000000e+003;4.3983334961e+003;4.4028203125e+003;4.4183334961e+003;4.3767949219e+003;4.3860258789e+003;
8.9062500000e-001;4.1911538086e+003;4.2901284180e+003;4.2880771484e+003;4.2656411133e+003;4.2639741211e+003;4.2511538086e+003;4.2526923828e+003;4.2841025391e+003;4.2937177734e+003;4.3120512695e+003;4.2883334961e+003;4.3161538086e+003;4.2814101563e+003;4.2902563477e+003;
8.9843750000e-001;4.1912822266e+003;4.2900000000e+003;4.2782050781e+003;4.2651284180e+003;4.2737177734e+003;4.2810258789e+003;4.2816665039e+003;4.2801284180e+003;4.2962822266e+003;4.3029487305e+003;4.2952563477e+003;4.3042309570e+003;4.2802563477e+003;4.2783334961e+003;
9.0625000000e-001;4.3292309570e+003;4.4320512695e+003;4.4097436523e+003;4.4012822266e+003;4.4201284180e+003;4.4173076172e+003;4.4188461914e+003;4.4091025391e+003;4.4279487305e+003;4.4378203125e+003;4.4335898438e+003;4.4342309570e+003;4.4166665039e+003;4.4058974609e+003;
9.1406250000e-001;4.7551284180e+003;4.8771796875e+003;4.8396152344e+003;4.8273076172e+003;4.8671796875e+003;4.8284614258e+003;4.8241025391e+003;4.8333334961e+003;4.8580771484e+003;4.8976923828e+003;4.8621796875e+003;4.8655126953e+003;4.8471796875e+003;4.8348715820e+003;
9.2187500000e-001;4.7302563477e+003;4.8564101563e+003;4.8241025391e+003;4.8102563477e+003;4.8465385742e+003;4.8115385742e+003;4.8007690430e+003;4.8208974609e+003;4.8424360352e+003;4.8878203125e+003;4.8423076172e+003;4.8516665039e+003;4.8287177734e+003;4.8198715820e+003;
9.2968750000e-001;4.4737177734e+003;4.6029487305e+003;4.5812822266e+003;4.5753847656e+003;4.5978203125e+003;4.5808974609e+003;4.5614101563e+003;4.5784614258e+003;4.5910258789e+003;4.6332050781e+003;4.5939741211e+003;4.6128203125e+003;4.5812822266e+003;4.5725639648e+003;
9.3750000000e-001;4.3644873047e+003;4.4914101563e+003;4.4725639648e+003;4.4697436523e+003;4.4908974609e+003;4.4765385742e+003;4.4575639648e+003;4.4619228516e+003;4.4733334961e+003;4.5112822266e+003;4.4843588867e+003;4.5035898438e+003;4.4705126953e+003;4.4602563477e+003;
9.4531250000e-001;4.3252563477e+003;4.4405126953e+003;4.4216665039e+003;4.4107690430e+003;4.4403847656e+003;4.4201284180e+003;4.4056411133e+003;4.3914101563e+003;4.4110258789e+003;4.4402563477e+003;4.4375639648e+003;4.4505126953e+003;4.4187177734e+003;4.4139741211e+003;
9.5312500000e-001;4.3038461914e+003;4.4169228516e+003;4.3987177734e+003;4.3887177734e+003;4.4089741211e+003;4.3976923828e+003;4.3825639648e+003;4.3692309570e+003;4.3864101563e+003;4.4157690430e+003;4.4150000000e+003;4.4300000000e+003;4.3984614258e+003;4.3960258789e+003;
9.6093750000e-001;4.2607690430e+003;4.3728203125e+003;4.3558974609e+003;4.3498715820e+003;4.3565385742e+003;4.3564101563e+003;4.3416665039e+003;4.3271796875e+003;4.3374360352e+003;4.3688461914e+003;4.3696152344e+003;4.3889741211e+003;4.3571796875e+003;4.3560258789e+003;
9.6875000000e-001;4.2226923828e+003;4.3344873047e+003;4.3188461914e+003;4.3164101563e+003;4.3128203125e+003;4.3188461914e+003;4.3066665039e+003;4.2884614258e+003;4.2911538086e+003;4.3253847656e+003;4.3271796875e+003;4.3516665039e+003;4.3183334961e+003;4.3185898438e+003;
9.7656250000e-001;4.2351284180e+003;4.3334614258e+003;4.3333334961e+003;4.3206411133e+003;4.3146152344e+003;4.3041025391e+003;4.3079487305e+003;4.2917949219e+003;4.2946152344e+003;4.3275639648e+003;4.3323076172e+003;4.3628203125e+003;4.3133334961e+003;4.3269228516e+003;
9.8437500000e-001;4.2335898438e+003;4.3267949219e+003;4.3302563477e+003;4.3157690430e+003;4.3100000000e+003;4.2941025391e+003;4.3006411133e+003;4.2934614258e+003;4.2984614258e+003;4.3279487305e+003;4.3326923828e+003;4.3600000000e+003;4.3138461914e+003;4.3241025391e+003;
9.9218750000e-001;4.1439741211e+003;4.2288461914e+003;4.2412822266e+003;4.2319228516e+003;4.2206411133e+003;4.2061538086e+003;4.2129487305e+003;4.2335898438e+003;4.2380771484e+003;4.2529487305e+003;4.2498715820e+003;4.2756411133e+003;4.2315385742e+003;4.2339741211e+003;
1.0000000000e+000;4.0760256348e+003;4.1637177734e+003;4.1596152344e+003;4.1666665039e+003;4.1467949219e+003;4.1407690430e+003;4.1439741211e+003;4.1628203125e+003;4.1725639648e+003;4.1747436523e+003;4.1697436523e+003;4.1924360352e+003;4.1519228516e+003;4.1550000000e+003;
1.0078125000e+000;4.0687180176e+003;4.1537177734e+003;4.1466665039e+003;4.1547436523e+003;4.1355126953e+003;4.1329487305e+003;4.1353847656e+003;4.1508974609e+003;4.1648715820e+003;4.1658974609e+003;4.1565385742e+003;4.1780771484e+003;4.1412822266e+003;4.1437177734e+003;
1.0156250000e+000;4.0356411133e+003;4.1033334961e+003;4.1111538086e+003;4.1217949219e+003;4.0965385742e+003;4.1150000000e+003;4.1088461914e+003;4.1121796875e+003;4.1333334961e+003;4.1276923828e+003;4.1102563477e+003;4.1374360352e+003;4.0965385742e+003;4.1071796875e+003;
1.0234375000e+000;4.1025639648e+003;4.1735898438e+003;4.1674360352e+003;4.1828203125e+003;4.1685898438e+003;4.1793588867e+003;4.1689741211e+003;4.1633334961e+003;4.1878203125e+003;4.1876923828e+003;4.1796152344e+003;4.1907690430e+003;4.1628203125e+003;4.1634614258e+003;
1.0312500000e+000;4.1114101563e+003;4.1825639648e+003;4.1744873047e+003;4.1857690430e+003;4.1800000000e+003;4.1856411133e+003;4.1744873047e+003;4.1671796875e+003;4.1917949219e+003;4.1947436523e+003;4.1870512695e+003;4.1983334961e+003;4.1700000000e+003;4.1714101563e+003;
1.0390625000e+000;4.1188461914e+003;4.1888461914e+003;4.1806411133e+003;4.1887177734e+003;4.1898715820e+003;4.1893588867e+003;4.1767949219e+003;4.1685898438e+003;4.1939741211e+003;4.1980771484e+003;4.1889741211e+003;4.2044873047e+003;4.1742309570e+003;4.1775639648e+003;
1.0468750000e+000;4.1341025391e+003;4.2033334961e+003;4.1935898438e+003;4.2044873047e+003;4.2020512695e+003;4.1989741211e+003;4.1816665039e+003;4.1726923828e+003;4.1996152344e+003;4.2038461914e+003;4.1897436523e+003;4.2161538086e+003;4.1851284180e+003;4.1880771484e+003;
1.0546875000e+000;4.1252563477e+003;4.1969228516e+003;4.1857690430e+003;4.1985898438e+003;4.1903847656e+003;4.1912822266e+003;4.1735898438e+003;4.1619228516e+003;4.1874360352e+003;4.1929487305e+003;4.1785898438e+003;4.2075639648e+003;4.1758974609e+003;4.1791025391e+003;
1.0625000000e+000;4.0998715820e+003;4.1729487305e+003;4.1637177734e+003;4.1728203125e+003;4.1648715820e+003;4.1685898438e+003;4.1575639648e+003;4.1351284180e+003;4.1553847656e+003;4.1667949219e+003;4.1593588867e+003;4.1856411133e+003;4.1474360352e+003;4.1575639648e+003;
1.0703125000e+000;4.1024360352e+003;4.1711538086e+003;4.1661538086e+003;4.1728203125e+003;4.1655126953e+003;4.1683334961e+003;4.1603847656e+003;4.1358974609e+003;4.1537177734e+003;4.1685898438e+003;4.1660258789e+003;4.1884614258e+003;4.1478203125e+003;4.1601284180e+003;
1.0781250000e+000;4.1048715820e+003;4.1553847656e+003;4.1606411133e+003;4.1671796875e+003;4.1420512695e+003;4.1491025391e+003;4.1434614258e+003;4.1170512695e+003;4.1253847656e+003;4.1455126953e+003;4.1579487305e+003;4.1765385742e+003;4.1396152344e+003;4.1451284180e+003;
1.0859375000e+000;4.1493588867e+003;4.2015385742e+003;4.2014101563e+003;4.2069228516e+003;4.1824360352e+003;4.1848715820e+003;4.1842309570e+003;4.1521796875e+003;4.1578203125e+003;4.1796152344e+003;4.1943588867e+003;4.2142309570e+003;4.1803847656e+003;4.1844873047e+003;
1.0937500000e+000;4.2570512695e+003;4.3164101563e+003;4.3065385742e+003;4.3101284180e+003;4.2930771484e+003;4.2847436523e+003;4.2905126953e+003;4.2556411133e+003;4.2606411133e+003;4.2860258789e+003;4.2988461914e+003;4.3189741211e+003;4.2880771484e+003;4.2919228516e+003;
1.1015625000e+000;5.0138461914e+003;5.1233334961e+003;5.0815385742e+003;5.0626923828e+003;5.1102563477e+003;5.0339741211e+003;5.0506411133e+003;5.0650000000e+003;5.0671796875e+003;5.1211538086e+003;5.1011538086e+003;5.1042309570e+003;5.0869228516e+003;5.0653847656e+003;
1.1093750000e+000;5.1116665039e+003;5.2337177734e+003;5.1862822266e+003;5.1603847656e+003;5.2237177734e+003;5.1370512695e+003;5.1557690430e+003;5.1750000000e+003;5.1760258789e+003;5.2365385742e+003;5.2098715820e+003;5.2073076172e+003;5.1942309570e+003;5.1669228516e+003;
1.1171875000e+000;5.1961538086e+003;5.3393588867e+003;5.3026923828e+003;5.2532050781e+003;5.3238461914e+003;5.2560258789e+003;5.2635898438e+003;5.2924360352e+003;5.2916665039e+003;5.3619228516e+003;5.3273076172e+003;5.3170512695e+003;5.3035898438e+003;5.2794873047e+003;
1.1250000000e+000;5.1579487305e+003;5.3284614258e+003;5.2805126953e+003;5.2333334961e+003;5.3165385742e+003;5.2565385742e+003;5.2592309570e+003;5.2839741211e+003;5.2791025391e+003;5.3510258789e+003;5.3030771484e+003;5.2991025391e+003;5.2925639648e+003;5.2574360352e+003;
1.1328125000e+000;5.1733334961e+003;5.3550000000e+003;5.2996152344e+003;5.2533334961e+003;5.3446152344e+003;5.2776923828e+003;5.2810258789e+003;5.3020512695e+003;5.3016665039e+003;5.3726923828e+003;5.3237177734e+003;5.3187177734e+003;5.3147436523e+003;5.2776923828e+003;
1.1406250000e+000;5.2792309570e+003;5.4775639648e+003;5.4250000000e+003;5.3716665039e+003;5.4584614258e+003;5.3970512695e+003;5.3928203125e+003;5.4130771484e+003;5.4242309570e+003;5.4991025391e+003;5.4587177734e+003;5.4366665039e+003;5.4391025391e+003;5.4025639648e+003;
1.1484375000e+000;5.2919228516e+003;5.4973076172e+003;5.4438461914e+003;5.3896152344e+003;5.4808974609e+003;5.4156411133e+003;5.4114101563e+003;5.4342309570e+003;5.4425639648e+003;5.5230771484e+003;5.4798715820e+003;5.4592309570e+003;5.4593588867e+003;5.4221796875e+003;
1.1562500000e+000;5.2284614258e+003;5.4507690430e+003;5.3905126953e+003;5.3393588867e+003;5.4446152344e+003;5.3615385742e+003;5.3615385742e+003;5.3835898438e+003;5.3882050781e+003;5.4703847656e+003;5.4215385742e+003;5.4164101563e+003;5.4061538086e+003;5.3724360352e+003;
1.1640625000e+000;5.1682050781e+003;5.3935898438e+003;5.3348715820e+003;5.2855126953e+003;5.3878203125e+003;5.3039741211e+003;5.3047436523e+003;5.3233334961e+003;5.3296152344e+003;5.4055126953e+003;5.3615385742e+003;5.3594873047e+003;5.3470512695e+003;5.3165385742e+003;
1.1718750000e+000;5.0160258789e+003;5.2271796875e+003;5.1947436523e+003;5.1461538086e+003;5.2103847656e+003;5.1553847656e+003;5.1584614258e+003;5.1675639648e+003;5.1671796875e+003;5.2317949219e+003;5.2135898438e+003;5.2007690430e+003;5.1929487305e+003;5.1650000000e+003;
1.1796875000e+000;4.9856411133e+003;5.1967949219e+003;5.1667949219e+003;5.1208974609e+003;5.1782050781e+003;5.1261538086e+003;5.1310258789e+003;5.1398715820e+003;5.1315385742e+003;5.2011538086e+003;5.1834614258e+003;5.1734614258e+003;5.1625639648e+003;5.1365385742e+003;
1.1875000000e+000;4.9380771484e+003;5.1605126953e+003;5.1219228516e+003;5.0858974609e+003;5.1360258789e+003;5.0821796875e+003;5.0861538086e+003;5.0988461914e+003;5.0788461914e+003;5.1569228516e+003;5.1397436523e+003;5.1370512695e+003;5.1180771484e+003;5.0993588867e+003;
1.1953125000e+000;4.9310258789e+003;5.1569228516e+003;5.1144873047e+003;5.0806411133e+003;5.1284614258e+003;5.0752563477e+003;5.0784614258e+003;5.0928203125e+003;5.0729487305e+003;5.1485898438e+003;5.1364101563e+003;5.1333334961e+003;5.1144873047e+003;5.0976923828e+003;
1.2031250000e+000;5.0370512695e+003;5.2562822266e+003;5.2155126953e+003;5.1656411133e+003;5.2364101563e+003;5.1655126953e+003;5.1788461914e+003;5.2057690430e+003;5.2032050781e+003;5.2603847656e+003;5.2460258789e+003;5.2398715820e+003;5.2275639648e+003;5.2083334961e+003;
1.2109375000e+000;5.0585898438e+003;5.2792309570e+003;5.2387177734e+003;5.1856411133e+003;5.2619228516e+003;5.1873076172e+003;5.2029487305e+003;5.2375639648e+003;5.2392309570e+003;5.2925639648e+003;5.2708974609e+003;5.2629487305e+003;5.2502563477e+003;5.2302563477e+003;
1.2187500000e+000;5.0433334961e+003;5.2674360352e+003;5.2274360352e+003;5.1770512695e+003;5.2483334961e+003;5.1796152344e+003;5.1941025391e+003;5.2339741211e+003;5.2364101563e+003;5.2869228516e+003;5.2615385742e+003;5.2500000000e+003;5.2365385742e+003;5.2162822266e+003;
1.2265625000e+000;5.0701284180e+003;5.3085898438e+003;5.2530771484e+003;5.2139741211e+003;5.3052563477e+003;5.2382050781e+003;5.2446152344e+003;5.2733334961e+003;5.2765385742e+003;5.3219228516e+003;5.2856411133e+003;5.2715385742e+003;5.2694873047e+003;5.2425639648e+003;
1.2343750000e+000;5.1050000000e+003;5.3461538086e+003;5.2917949219e+003;5.2512822266e+003;5.3461538086e+003;5.2817949219e+003;5.2850000000e+003;5.3116665039e+003;5.3180771484e+003;5.3611538086e+003;5.3202563477e+003;5.3097436523e+003;5.3051284180e+003;5.2817949219e+003;
1.2421875000e+000;5.1308974609e+003;5.3776923828e+003;5.3252563477e+003;5.2887177734e+003;5.3743588867e+003;5.3196152344e+003;5.3093588867e+003;5.3356411133e+003;5.3442309570e+003;5.3887177734e+003;5.3691025391e+003;5.3408974609e+003;5.3332050781e+003;5.3183334961e+003;
1.2500000000e+000;5.1582050781e+003;5.4178203125e+003;5.3532050781e+003;5.3079487305e+003;5.4058974609e+003;5.3479487305e+003;5.3392309570e+003;5.3606411133e+003;5.3676923828e+003;5.4212822266e+003;5.3974360352e+003;5.3720512695e+003;5.3737177734e+003;5.3494873047e+003;
1.2578125000e+000;5.1934614258e+003;5.4521796875e+003;5.3930771484e+003;5.3400000000e+003;5.4362822266e+003;5.3875639648e+003;5.3778203125e+003;5.3924360352e+003;5.3980771484e+003;5.4544873047e+003;5.4270512695e+003;5.4061538086e+003;5.4114101563e+003;5.3847436523e+003;
1.2656250000e+000;5.2397436523e+003;5.4929487305e+003;5.4514101563e+003;5.3812822266e+003;5.4862822266e+003;5.4297436523e+003;5.4211538086e+003;5.4397436523e+003;5.4339741211e+003;5.4956411133e+003;5.4715385742e+003;5.4558974609e+003;5.4514101563e+003;5.4350000000e+003;
1.2734375000e+000;5.1958974609e+003;5.4516665039e+003;5.4067949219e+003;5.3402563477e+003;5.4485898438e+003;5.3801284180e+003;5.3769228516e+003;5.3985898438e+003;5.3867949219e+003;5.4467949219e+003;5.4282050781e+003;5.4138461914e+003;5.4051284180e+003;5.3937177734e+003;
1.2812500000e+000;5.2367949219e+003;5.5050000000e+003;5.4387177734e+003;5.3869228516e+003;5.4915385742e+003;5.4117949219e+003;5.4210258789e+003;5.4339741211e+003;5.4119228516e+003;5.4734614258e+003;5.4662822266e+003;5.4466665039e+003;5.4471796875e+003;5.4328203125e+003;
1.2890625000e+000;5.3748715820e+003;5.6501284180e+003;5.5744873047e+003;5.5226923828e+003;5.6278203125e+003;5.5451284180e+003;5.5584614258e+003;5.5670512695e+003;5.5419228516e+003;5.6111538086e+003;5.6079487305e+003;5.5815385742e+003;5.5878203125e+003;5.5687177734e+003;
1.2968750000e+000;5.8814101563e+003;6.1821796875e+003;6.0994873047e+003;6.0082050781e+003;6.1502563477e+003;6.0312822266e+003;6.0508974609e+003;6.0805126953e+003;6.0552563477e+003;6.1529487305e+003;6.1493588867e+003;6.1070512695e+003;6.1103847656e+003;6.0856411133e+003;
1.3046875000e+000;5.9988461914e+003;6.3088461914e+003;6.2234614258e+003;6.1242309570e+003;6.2769228516e+003;6.1438461914e+003;6.1643588867e+003;6.2056411133e+003;6.1817949219e+003;6.2821796875e+003;6.2682050781e+003;6.2297436523e+003;6.2342309570e+003;6.2089741211e+003;
1.3125000000e+000;6.2243588867e+003;6.5637177734e+003;6.4626923828e+003;6.3628203125e+003;6.5246152344e+003;6.3791025391e+003;6.3989741211e+003;6.4546152344e+003;6.4297436523e+003;6.5353847656e+003;6.4978203125e+003;6.4665385742e+003;6.4800000000e+003;6.4506411133e+003;
1.3203125000e+000;6.3685898438e+003;6.7344873047e+003;6.6210258789e+003;6.5148715820e+003;6.6889741211e+003;6.5389741211e+003;6.5582050781e+003;6.6191025391e+003;6.5925639648e+003;6.7083334961e+003;6.6651284180e+003;6.6246152344e+003;6.6442309570e+003;6.6084614258e+003;
1.3281250000e+000;6.7870512695e+003;7.1776923828e+003;7.0756411133e+003;6.9396152344e+003;7.1421796875e+003;6.9956411133e+003;7.0126923828e+003;7.0871796875e+003;7.0658974609e+003;7.1798715820e+003;7.1482050781e+003;7.0812822266e+003;7.1003847656e+003;7.0560258789e+003;
1.3359375000e+000;6.8393588867e+003;7.2167949219e+003;7.1324360352e+003;7.0007690430e+003;7.1919228516e+003;7.0587177734e+003;7.0733334961e+003;7.1452563477e+003;7.1276923828e+003;7.2206411133e+003;7.1943588867e+003;7.1396152344e+003;7.1498715820e+003;7.1138461914e+003;
1.3437500000e+000;6.8550000000e+003;7.2315385742e+003;7.1558974609e+003;7.0315385742e+003;7.2126923828e+003;7.0908974609e+003;7.1020512695e+003;7.1698715820e+003;7.1546152344e+003;7.2314101563e+003;7.2048715820e+003;7.1643588867e+003;7.1682050781e+003;7.1398715820e+003;
1.3515625000e+000;6.8450000000e+003;7.2591025391e+003;7.1828203125e+003;7.0461538086e+003;7.2475639648e+003;7.1296152344e+003;7.1266665039e+003;7.1764101563e+003;7.1646152344e+003;7.2710258789e+003;7.2265385742e+003;7.1828203125e+003;7.1935898438e+003;7.1485898438e+003;
1.3593750000e+000;6.8398715820e+003;7.2824360352e+003;7.2024360352e+003;7.0561538086e+003;7.2743588867e+003;7.1447436523e+003;7.1450000000e+003;7.1905126953e+003;7.1779487305e+003;7.2865385742e+003;7.2492309570e+003;7.1985898438e+003;7.2151284180e+003;7.1637177734e+003;
1.3671875000e+000;6.9006411133e+003;7.3625639648e+003;7.2789741211e+003;7.1403847656e+003;7.3415385742e+003;7.2391025391e+003;7.2360258789e+003;7.2797436523e+003;7.2628203125e+003;7.3543588867e+003;7.3320512695e+003;7.2816665039e+003;7.3028203125e+003;7.2557690430e+003;
1.3750000000e+000;6.9507690430e+003;7.3896152344e+003;7.3239741211e+003;7.1753847656e+003;7.3824360352e+003;7.2611538086e+003;7.2641025391e+003;7.3115385742e+003;7.2670512695e+003;7.3765385742e+003;7.3492309570e+003;7.3207690430e+003;7.3210258789e+003;7.2964101563e+003;
1.3828125000e+000;6.9808974609e+003;7.4198715820e+003;7.3533334961e+003;7.1987177734e+003;7.4153847656e+003;7.2811538086e+003;7.2876923828e+003;7.3373076172e+003;7.2875639648e+003;7.4037177734e+003;7.3758974609e+003;7.3482050781e+003;7.3453847656e+003;7.3220512695e+003;
1.3906250000e+000;7.0200000000e+003;7.4266665039e+003;7.3758974609e+003;7.2582050781e+003;7.4029487305e+003;7.3247436523e+003;7.3298715820e+003;7.3642309570e+003;7.3343588867e+003;7.4039741211e+003;7.3987177734e+003;7.3717949219e+003;7.3710258789e+003;7.3532050781e+003;
1.3984375000e+000;7.0370512695e+003;7.4476923828e+003;7.4012822266e+003;7.2961538086e+003;7.4225639648e+003;7.3547436523e+003;7.3596152344e+003;7.3925639648e+003;7.3691025391e+003;7.4262822266e+003;7.4255126953e+003;7.3956411133e+003;7.3989741211e+003;7.3820512695e+003;
1.4062500000e+000;7.1029487305e+003;7.5189741211e+003;7.4660258789e+003;7.3639741211e+003;7.4976923828e+003;7.4134614258e+003;7.4169228516e+003;7.4651284180e+003;7.4410258789e+003;7.5083334961e+003;7.4992309570e+003;7.4665385742e+003;7.4661538086e+003;7.4498715820e+003;
1.4140625000e+000;7.0897436523e+003;7.4944873047e+003;7.4398715820e+003;7.3315385742e+003;7.4725639648e+003;7.3824360352e+003;7.3833334961e+003;7.4423076172e+003;7.4146152344e+003;7.4892309570e+003;7.4756411133e+003;7.4469228516e+003;7.4373076172e+003;7.4242309570e+003;
1.4218750000e+000;6.6203847656e+003;7.1253847656e+003;7.0665385742e+003;6.9034614258e+003;7.0982050781e+003;6.9860258789e+003;6.9834614258e+003;7.0703847656e+003;7.0426923828e+003;7.1180771484e+003;7.1043588867e+003;7.0575639648e+003;7.0576923828e+003;7.0379487305e+003;
1.4296875000e+000;6.4167949219e+003;7.0120512695e+003;6.9380771484e+003;6.7500000000e+003;6.9865385742e+003;6.8482050781e+003;6.8470512695e+003;6.9442309570e+003;6.9184614258e+003;7.0025639648e+003;6.9814101563e+003;6.9170512695e+003;6.9335898438e+003;6.9021796875e+003;
1.4375000000e+000;6.1801284180e+003;6.8378203125e+003;6.7519228516e+003;6.5588461914e+003;6.8129487305e+003;6.6684614258e+003;6.6673076172e+003;6.7619228516e+003;6.7388461914e+003;6.8246152344e+003;6.7970512695e+003;6.7255126953e+003;6.7498715820e+003;6.7133334961e+003;
1.4453125000e+000;6.1494873047e+003;6.7644873047e+003;6.6878203125e+003;6.5158974609e+003;6.7380771484e+003;6.6201284180e+003;6.6169228516e+003;6.6965385742e+003;6.6753847656e+003;6.7473076172e+003;6.7285898438e+003;6.6658974609e+003;6.6826923828e+003;6.6541025391e+003;
1.4531250000e+000;6.1078203125e+003;6.6870512695e+003;6.6156411133e+003;6.4639741211e+003;6.6655126953e+003;6.5724360352e+003;6.5616665039e+003;6.6179487305e+003;6.6023076172e+003;6.6598715820e+003;6.6644873047e+003;6.5942309570e+003;6.6165385742e+003;6.5929487305e+003;
1.4609375000e+000;6.0993588867e+003;6.6947436523e+003;6.6196152344e+003;6.4600000000e+003;6.6746152344e+003;6.5783334961e+003;6.5641025391e+003;6.6187177734e+003;6.6051284180e+003;6.6648715820e+003;6.6680771484e+003;6.5930771484e+003;6.6228203125e+003;6.5960258789e+003;
1.4687500000e+000;6.1283334961e+003;6.7210258789e+003;6.6456411133e+003;6.4832050781e+003;6.6996152344e+003;6.6080771484e+003;6.5917949219e+003;6.6398715820e+003;6.6283334961e+003;6.6855126953e+003;6.6866665039e+003;6.6134614258e+003;6.6478203125e+003;6.6196152344e+003;
1.4765625000e+000;6.1966665039e+003;6.7744873047e+003;6.7003847656e+003;6.5398715820e+003;6.7517949219e+003;6.6655126953e+003;6.6507690430e+003;6.6907690430e+003;6.6793588867e+003;6.7324360352e+003;6.7324360352e+003;6.6637177734e+003;6.7002563477e+003;6.6716665039e+003;
1.4843750000e+000;6.3298715820e+003;6.9000000000e+003;6.8287177734e+003;6.6717949219e+003;6.8943588867e+003;6.7805126953e+003;6.7789741211e+003;6.8292309570e+003;6.7993588867e+003;6.8656411133e+003;6.8732050781e+003;6.7970512695e+003;6.8312822266e+003;6.8035898438e+003;
1.4921875000e+000;6.3060258789e+003;6.8680771484e+003;6.7985898438e+003;6.6441025391e+003;6.8438461914e+003;6.7570512695e+003;6.7511538086e+003;6.8069228516e+003;6.7514101563e+003;6.8221796875e+003;6.8462822266e+003;6.7674360352e+003;6.8005126953e+003;6.7816665039e+003;
1.5000000000e+000;6.2562822266e+003;6.8160258789e+003;6.7520512695e+003;6.5952563477e+003;6.8006411133e+003;6.7030771484e+003;6.7017949219e+003;6.7632050781e+003;6.7062822266e+003;6.7732050781e+003;6.7962822266e+003;6.7229487305e+003;6.7515385742e+003;6.7367949219e+003;
1.5078125000e+000;5.9897436523e+003;6.5358974609e+003;6.4906411133e+003;6.3385898438e+003;6.5319228516e+003;6.4338461914e+003;6.4344873047e+003;6.5087177734e+003;6.4567949219e+003;6.5051284180e+003;6.5308974609e+003;6.4669228516e+003;6.4817949219e+003;6.4756411133e+003;
1.5156250000e+000;5.4212822266e+003;5.9119228516e+003;5.8960258789e+003;5.7693588867e+003;5.8929487305e+003;5.8641025391e+003;5.8524360352e+003;5.9167949219e+003;5.8757690430e+003;5.8816665039e+003;5.9232050781e+003;5.8707690430e+003;5.8816665039e+003;5.8891025391e+003;
1.5234375000e+000;5.3407690430e+003;5.8162822266e+003;5.8048715820e+003;5.6838461914e+003;5.8088461914e+003;5.7696152344e+003;5.7589741211e+003;5.8260258789e+003;5.7907690430e+003;5.7869228516e+003;5.8310258789e+003;5.7807690430e+003;5.7910258789e+003;5.8020512695e+003;
1.5312500000e+000;5.1026923828e+003;5.5466665039e+003;5.5515385742e+003;5.4455126953e+003;5.5521796875e+003;5.5194873047e+003;5.5061538086e+003;5.5737177734e+003;5.5501284180e+003;5.5216665039e+003;5.5757690430e+003;5.5274360352e+003;5.5278203125e+003;5.5519228516e+003;
1.5390625000e+000;4.9689741211e+003;5.3973076172e+003;5.4088461914e+003;5.3130771484e+003;5.4005126953e+003;5.3912822266e+003;5.3728203125e+003;5.4324360352e+003;5.4129487305e+003;5.3726923828e+003;5.4311538086e+003;5.3824360352e+003;5.3814101563e+003;5.4094873047e+003;
1.5468750000e+000;4.7574360352e+003;5.1516665039e+003;5.1561538086e+003;5.0856411133e+003;5.1593588867e+003;5.1842309570e+003;5.1583334961e+003;5.1853847656e+003;5.1778203125e+003;5.1193588867e+003;5.1716665039e+003;5.1296152344e+003;5.1446152344e+003;5.1619228516e+003;
1.5546875000e+000;4.7450000000e+003;5.1294873047e+003;5.1305126953e+003;5.0637177734e+003;5.1432050781e+003;5.1607690430e+003;5.1369228516e+003;5.1565385742e+003;5.1526923828e+003;5.0912822266e+003;5.1412822266e+003;5.1046152344e+003;5.1207690430e+003;5.1366665039e+003;
1.5625000000e+000;4.7761538086e+003;5.1373076172e+003;5.1398715820e+003;5.0770512695e+003;5.1501284180e+003;5.1710258789e+003;5.1470512695e+003;5.1601284180e+003;5.1573076172e+003;5.0897436523e+003;5.1450000000e+003;5.1103847656e+003;5.1203847656e+003;5.1443588867e+003;
1.5703125000e+000;4.7956411133e+003;5.1442309570e+003;5.1506411133e+003;5.0903847656e+003;5.1521796875e+003;5.1857690430e+003;5.1596152344e+003;5.1726923828e+003;5.1658974609e+003;5.0969228516e+003;5.1570512695e+003;5.1196152344e+003;5.1262822266e+003;5.1552563477e+003;
1.5781250000e+000;4.7462822266e+003;5.0607690430e+003;5.0747436523e+003;5.0296152344e+003;5.0826923828e+003;5.1130771484e+003;5.0919228516e+003;5.1014101563e+003;5.0832050781e+003;5.0139741211e+003;5.0812822266e+003;5.0460258789e+003;5.0473076172e+003;5.0817949219e+003;
1.5859375000e+000;4.7211538086e+003;5.0265385742e+003;5.0394873047e+003;4.9989741211e+003;5.0541025391e+003;5.0756411133e+003;5.0583334961e+003;5.0653847656e+003;5.0469228516e+003;4.9748715820e+003;5.0416665039e+003;5.0101284180e+003;5.0110258789e+003;5.0461538086e+003;
1.5937500000e+000;4.7001284180e+003;4.9969228516e+003;5.0100000000e+003;4.9710258789e+003;5.0216665039e+003;5.0462822266e+003;5.0303847656e+003;5.0357690430e+003;5.0157690430e+003;4.9405126953e+003;5.0070512695e+003;4.9784614258e+003;4.9787177734e+003;5.0150000000e+003;
1.6015625000e+000;4.6769228516e+003;4.9639741211e+003;4.9811538086e+003;4.9402563477e+003;4.9801284180e+003;5.0192309570e+003;5.0023076172e+003;5.0064101563e+003;4.9823076172e+003;4.9048715820e+003;4.9738461914e+003;4.9466665039e+003;4.9442309570e+003;4.9832050781e+003;
1.6093750000e+000;4.6335898438e+003;4.8826923828e+003;4.9137177734e+003;4.8667949219e+003;4.9024360352e+003;4.9269228516e+003;4.9201284180e+003;4.9293588867e+003;4.8898715820e+003;4.8216665039e+003;4.9082050781e+003;4.8798715820e+003;4.8671796875e+003;4.9114101563e+003;
1.6171875000e+000;4.5289741211e+003;4.7370512695e+003;4.7852563477e+003;4.7276923828e+003;4.7275639648e+003;4.7755126953e+003;4.7751284180e+003;4.7930771484e+003;4.7633334961e+003;4.6870512695e+003;4.7687177734e+003;4.7502563477e+003;4.7502563477e+003;4.7902563477e+003;
1.6250000000e+000;4.4594873047e+003;4.6502563477e+003;4.7112822266e+003;4.6528203125e+003;4.6519228516e+003;4.6966665039e+003;4.6961538086e+003;4.7170512695e+003;4.6901284180e+003;4.6084614258e+003;4.6898715820e+003;4.6735898438e+003;4.6678203125e+003;4.7133334961e+003;
1.6328125000e+000;4.3039741211e+003;4.4751284180e+003;4.5375639648e+003;4.5016665039e+003;4.4962822266e+003;4.5246152344e+003;4.5221796875e+003;4.5501284180e+003;4.5273076172e+003;4.4307690430e+003;4.5157690430e+003;4.5042309570e+003;4.4858974609e+003;4.5411538086e+003;
1.6406250000e+000;4.1970512695e+003;4.3473076172e+003;4.3833334961e+003;4.3808974609e+003;4.3438461914e+003;4.4137177734e+003;4.3956411133e+003;4.4123076172e+003;4.4002563477e+003;4.2908974609e+003;4.3882050781e+003;4.3558974609e+003;4.3629487305e+003;4.4074360352e+003;
1.6484375000e+000;4.1632050781e+003;4.2984614258e+003;4.3441025391e+003;4.3435898438e+003;4.3116665039e+003;4.3788461914e+003;4.3598715820e+003;4.3708974609e+003;4.3615385742e+003;4.2506411133e+003;4.3446152344e+003;4.3162822266e+003;4.3210258789e+003;4.3670512695e+003;
1.6562500000e+000;4.1175639648e+003;4.2292309570e+003;4.2806411133e+003;4.2914101563e+003;4.2583334961e+003;4.3207690430e+003;4.3020512695e+003;4.3020512695e+003;4.2993588867e+003;4.1802563477e+003;4.2671796875e+003;4.2498715820e+003;4.2500000000e+003;4.3000000000e+003;
1.6640625000e+000;4.1202563477e+003;4.2250000000e+003;4.2717949219e+003;4.2862822266e+003;4.2439741211e+003;4.3156411133e+003;4.2961538086e+003;4.2926923828e+003;4.2921796875e+003;4.1703847656e+003;4.2576923828e+003;4.2378203125e+003;4.2406411133e+003;4.2906411133e+003;
1.6718750000e+000;4.1325639648e+003;4.2157690430e+003;4.2624360352e+003;4.2778203125e+003;4.2253847656e+003;4.3151284180e+003;4.2915385742e+003;4.2850000000e+003;4.2805126953e+003;4.1652563477e+003;4.2571796875e+003;4.2256411133e+003;4.2324360352e+003;4.2846152344e+003;
1.6796875000e+000;4.1310258789e+003;4.2088461914e+003;4.2532050781e+003;4.2764101563e+003;4.2287177734e+003;4.3106411133e+003;4.2858974609e+003;4.2802563477e+003;4.2752563477e+003;4.1616665039e+003;4.2511538086e+003;4.2207690430e+003;4.2287177734e+003;4.2812822266e+003;
1.6875000000e+000;4.1210258789e+003;4.1885898438e+003;4.2239741211e+003;4.2583334961e+003;4.2150000000e+003;4.2874360352e+003;4.2628203125e+003;4.2578203125e+003;4.2526923828e+003;4.1380771484e+003;4.2260258789e+003;4.2014101563e+003;4.2106411133e+003;4.2638461914e+003;
1.6953125000e+000;4.1119228516e+003;4.1712822266e+003;4.2085898438e+003;4.2360258789e+003;4.1925639648e+003;4.2678203125e+003;4.2448715820e+003;4.2374360352e+003;4.2294873047e+003;4.1146152344e+003;4.2062822266e+003;4.1861538086e+003;4.1914101563e+003;4.2479487305e+003;
1.7031250000e+000;4.1048715820e+003;4.1546152344e+003;4.1983334961e+003;4.2141025391e+003;4.1707690430e+003;4.2493588867e+003;4.2283334961e+003;4.2182050781e+003;4.2051284180e+003;4.0917949219e+003;4.1880771484e+003;4.1728203125e+003;4.1715385742e+003;4.2332050781e+003;
1.7109375000e+000;4.1051284180e+003;4.1373076172e+003;4.1924360352e+003;4.1988461914e+003;4.1524360352e+003;4.2305126953e+003;4.2112822266e+003;4.2003847656e+003;4.1778203125e+003;4.0720512695e+003;4.1716665039e+003;4.1617949219e+003;4.1517949219e+003;4.2187177734e+003;
1.7187500000e+000;4.1225639648e+003;4.1474360352e+003;4.2035898438e+003;4.2129487305e+003;4.1629487305e+003;4.2393588867e+003;4.2211538086e+003;4.2093588867e+003;4.1862822266e+003;4.0838461914e+003;4.1837177734e+003;4.1732050781e+003;4.1647436523e+003;4.2293588867e+003;
1.7265625000e+000;4.1771796875e+003;4.1957690430e+003;4.2506411133e+003;4.2600000000e+003;4.2094873047e+003;4.2834614258e+003;4.2682050781e+003;4.2525639648e+003;4.2317949219e+003;4.1308974609e+003;4.2338461914e+003;4.2202563477e+003;4.2167949219e+003;4.2773076172e+003;
1.7343750000e+000;5.0039741211e+003;5.0382050781e+003;5.0642309570e+003;5.0379487305e+003;5.0448715820e+003;5.0471796875e+003;5.0523076172e+003;5.0647436523e+003;5.0370512695e+003;4.9741025391e+003;5.0646152344e+003;5.0367949219e+003;5.0432050781e+003;5.0869228516e+003;
1.7421875000e+000;5.0635898438e+003;5.1028203125e+003;5.1285898438e+003;5.0982050781e+003;5.1100000000e+003;5.1029487305e+003;5.1087177734e+003;5.1308974609e+003;5.1046152344e+003;5.0478203125e+003;5.1285898438e+003;5.1006411133e+003;5.1060258789e+003;5.1471796875e+003;
1.7500000000e+000;5.1847436523e+003;5.2452563477e+003;5.2660258789e+003;5.2197436523e+003;5.2417949219e+003;5.2298715820e+003;5.2338461914e+003;5.2676923828e+003;5.2511538086e+003;5.1966665039e+003;5.2634614258e+003;5.2325639648e+003;5.2426923828e+003;5.2750000000e+003;
1.7578125000e+000;5.2771796875e+003;5.3541025391e+003;5.3733334961e+003;5.3144873047e+003;5.3388461914e+003;5.3421796875e+003;5.3411538086e+003;5.3817949219e+003;5.3573076172e+003;5.3112822266e+003;5.3811538086e+003;5.3426923828e+003;5.3456411133e+003;5.3762822266e+003;
1.7656250000e+000;5.3116665039e+003;5.3920512695e+003;5.4116665039e+003;5.3469228516e+003;5.3867949219e+003;5.3837177734e+003;5.3844873047e+003;5.4212822266e+003;5.3958974609e+003;5.3508974609e+003;5.4180771484e+003;5.3764101563e+003;5.3847436523e+003;5.4098715820e+003;
1.7734375000e+000;5.3239741211e+003;5.4273076172e+003;5.4403847656e+003;5.3767949219e+003;5.4400000000e+003;5.4353847656e+003;5.4298715820e+003;5.4697436523e+003;5.4452563477e+003;5.4015385742e+003;5.4435898438e+003;5.4016665039e+003;5.4211538086e+003;5.4380771484e+003;
1.7812500000e+000;4.8796152344e+003;4.9826923828e+003;5.0087177734e+003;4.9561538086e+003;4.9926923828e+003;5.0310258789e+003;5.0152563477e+003;5.0462822266e+003;5.0193588867e+003;4.9650000000e+003;5.0157690430e+003;4.9732050781e+003;4.9875639648e+003;5.0101284180e+003;
1.7890625000e+000;4.7852563477e+003;4.8817949219e+003;4.9134614258e+003;4.8644873047e+003;4.8993588867e+003;4.9387177734e+003;4.9234614258e+003;4.9412822266e+003;4.9158974609e+003;4.8515385742e+003;4.9112822266e+003;4.8752563477e+003;4.8861538086e+003;4.9134614258e+003;
1.7968750000e+000;4.8760258789e+003;4.9617949219e+003;4.9887177734e+003;4.9505126953e+003;4.9806411133e+003;5.0094873047e+003;4.9988461914e+003;4.9921796875e+003;4.9706411133e+003;4.9017949219e+003;4.9793588867e+003;4.9471796875e+003;4.9546152344e+003;4.9929487305e+003;
1.8046875000e+000;4.9067949219e+003;4.9917949219e+003;5.0196152344e+003;4.9769228516e+003;5.0017949219e+003;5.0374360352e+003;5.0271796875e+003;5.0201284180e+003;4.9958974609e+003;4.9337177734e+003;5.0170512695e+003;4.9779487305e+003;4.9867949219e+003;5.0228203125e+003;
1.8125000000e+000;4.8902563477e+003;4.9703847656e+003;5.0071796875e+003;4.9567949219e+003;4.9775639648e+003;5.0185898438e+003;5.0080771484e+003;5.0001284180e+003;4.9702563477e+003;4.9115385742e+003;5.0023076172e+003;4.9664101563e+003;4.9703847656e+003;5.0056411133e+003;
1.8203125000e+000;4.9025639648e+003;4.9797436523e+003;5.0165385742e+003;4.9702563477e+003;4.9910258789e+003;5.0243588867e+003;5.0135898438e+003;5.0065385742e+003;4.9756411133e+003;4.9160258789e+003;5.0039741211e+003;4.9776923828e+003;4.9783334961e+003;5.0156411133e+003;
1.8281250000e+000;4.9424360352e+003;5.0188461914e+003;5.0508974609e+003;5.0114101563e+003;5.0297436523e+003;5.0544873047e+003;5.0434614258e+003;5.0407690430e+003;5.0096152344e+003;4.9519228516e+003;5.0333334961e+003;5.0148715820e+003;5.0150000000e+003;5.0532050781e+003;
1.8359375000e+000;4.9715385742e+003;5.0498715820e+003;5.0789741211e+003;5.0382050781e+003;5.0461538086e+003;5.0719228516e+003;5.0582050781e+003;5.0715385742e+003;5.0410258789e+003;4.9930771484e+003;5.0652563477e+003;5.0458974609e+003;5.0514101563e+003;5.0876923828e+003;
1.8437500000e+000;4.9128203125e+003;4.9892309570e+003;5.0264101563e+003;4.9753847656e+003;4.9825639648e+003;5.0128203125e+003;4.9976923828e+003;5.0166665039e+003;4.9878203125e+003;4.9403847656e+003;5.0166665039e+003;4.9911538086e+003;4.9978203125e+003;5.0342309570e+003;
1.8515625000e+000;4.8219228516e+003;4.8934614258e+003;4.9407690430e+003;4.8810258789e+003;4.8921796875e+003;4.9211538086e+003;4.9060258789e+003;4.9278203125e+003;4.9024360352e+003;4.8494873047e+003;4.9335898438e+003;4.9025639648e+003;4.9083334961e+003;4.9464101563e+003;
1.8593750000e+000;4.3685898438e+003;4.4093588867e+003;4.4683334961e+003;4.4306411133e+003;4.4067949219e+003;4.4610258789e+003;4.4457690430e+003;4.4728203125e+003;4.4510258789e+003;4.3548715820e+003;4.4447436523e+003;4.4319228516e+003;4.4198715820e+003;4.4783334961e+003;
1.8671875000e+000;4.3356411133e+003;4.3691025391e+003;4.4305126953e+003;4.3938461914e+003;4.3619228516e+003;4.4283334961e+003;4.4111538086e+003;4.4334614258e+003;4.4089741211e+003;4.3100000000e+003;4.4058974609e+003;4.3892309570e+003;4.3784614258e+003;4.4396152344e+003;
1.8750000000e+000;4.4294873047e+003;4.4444873047e+003;4.4994873047e+003;4.4774360352e+003;4.4591025391e+003;4.5034614258e+003;4.4942309570e+003;4.5058974609e+003;4.4930771484e+003;4.3871796875e+003;4.4851284180e+003;4.4575639648e+003;4.4587177734e+003;4.5093588867e+003;
1.8828125000e+000;4.3623076172e+003;4.3738461914e+003;4.4238461914e+003;4.4001284180e+003;4.3761538086e+003;4.4480771484e+003;4.4306411133e+003;4.4383334961e+003;4.4330771484e+003;4.3260258789e+003;4.4115385742e+003;4.3834614258e+003;4.3960258789e+003;4.4460258789e+003;
1.8906250000e+000;4.3033334961e+003;4.3101284180e+003;4.3647436523e+003;4.3378203125e+003;4.3135898438e+003;4.3921796875e+003;4.3702563477e+003;4.3748715820e+003;4.3678203125e+003;4.2611538086e+003;4.3456411133e+003;4.3217949219e+003;4.3325639648e+003;4.3855126953e+003;
1.8984375000e+000;4.2943588867e+003;4.2755126953e+003;4.3375639648e+003;4.3247436523e+003;4.3039741211e+003;4.3603847656e+003;4.3410258789e+003;4.3293588867e+003;4.3221796875e+003;4.2206411133e+003;4.3006411133e+003;4.2901284180e+003;4.2915385742e+003;4.3439741211e+003;
1.9062500000e+000;4.3415385742e+003;4.3142309570e+003;4.3719228516e+003;4.3650000000e+003;4.3252563477e+003;4.3943588867e+003;4.3728203125e+003;4.3585898438e+003;4.3485898438e+003;4.2519228516e+003;4.3517949219e+003;4.3285898438e+003;4.3303847656e+003;4.3867949219e+003;
1.9140625000e+000;4.3343588867e+003;4.3037177734e+003;4.3624360352e+003;4.3479487305e+003;4.3094873047e+003;4.3808974609e+003;4.3600000000e+003;4.3460258789e+003;4.3315385742e+003;4.2357690430e+003;4.3388461914e+003;4.3179487305e+003;4.3215385742e+003;4.3780771484e+003;
1.9218750000e+000;4.3339741211e+003;4.2994873047e+003;4.3583334961e+003;4.3391025391e+003;4.3035898438e+003;4.3717949219e+003;4.3532050781e+003;4.3407690430e+003;4.3232050781e+003;4.2284614258e+003;4.3269228516e+003;4.3114101563e+003;4.3176923828e+003;4.3721796875e+003;
1.9296875000e+000;4.3250000000e+003;4.2821796875e+003;4.3414101563e+003;4.3287177734e+003;4.2823076172e+003;4.3497436523e+003;4.3339741211e+003;4.3288461914e+003;4.3087177734e+003;4.2173076172e+003;4.3005126953e+003;4.2919228516e+003;4.2965385742e+003;4.3503847656e+003;
1.9375000000e+000;4.2976923828e+003;4.2301284180e+003;4.3108974609e+003;4.2984614258e+003;4.2344873047e+003;4.3130771484e+003;4.3006411133e+003;4.2980771484e+003;4.2755126953e+003;4.1833334961e+003;4.2788461914e+003;4.2585898438e+003;4.2552563477e+003;4.3167949219e+003;
1.9453125000e+000;4.3291025391e+003;4.2524360352e+003;4.3406411133e+003;4.3232050781e+003;4.2676923828e+003;4.3371796875e+003;4.3288461914e+003;4.3298715820e+003;4.3067949219e+003;4.2143588867e+003;4.3071796875e+003;4.2870512695e+003;4.2860258789e+003;4.3435898438e+003;
1.9531250000e+000;4.3670512695e+003;4.2843588867e+003;4.3762822266e+003;4.3579487305e+003;4.3098715820e+003;4.3687177734e+003;4.3643588867e+003;4.3716665039e+003;4.3479487305e+003;4.2548715820e+003;4.3396152344e+003;4.3232050781e+003;4.3235898438e+003;4.3765385742e+003;
1.9609375000e+000;4.4161538086e+003;4.3385898438e+003;4.4174360352e+003;4.4110258789e+003;4.3644873047e+003;4.4138461914e+003;4.4141025391e+003;4.4325639648e+003;4.4075639648e+003;4.3114101563e+003;4.3847436523e+003;4.3721796875e+003;4.3700000000e+003;4.4220512695e+003;
1.9687500000e+000;4.4278203125e+003;4.3608974609e+003;4.4242309570e+003;4.4219228516e+003;4.3761538086e+003;4.4262822266e+003;4.4265385742e+003;4.4476923828e+003;4.4224360352e+003;4.3266665039e+003;4.4000000000e+003;4.3829487305e+003;4.3811538086e+003;4.4347436523e+003;
1.9765625000e+000;4.4315385742e+003;4.3734614258e+003;4.4243588867e+003;4.4198715820e+003;4.3780771484e+003;4.4307690430e+003;4.4296152344e+003;4.4516665039e+003;4.4256411133e+003;4.3333334961e+003;4.4071796875e+003;4.3846152344e+003;4.3856411133e+003;4.4391025391e+003;
1.9843750000e+000;4.4465385742e+003;4.3703847656e+003;4.4371796875e+003;4.4165385742e+003;4.3801284180e+003;4.4407690430e+003;4.4385898438e+003;4.4462822266e+003;4.4184614258e+003;4.3248715820e+003;4.4020512695e+003;4.3835898438e+003;4.3934614258e+003;4.4433334961e+003;
1.9921875000e+000;4.4925639648e+003;4.4264101563e+003;4.4788461914e+003;4.4621796875e+003;4.4267949219e+003;4.4914101563e+003;4.4861538086e+003;4.4925639648e+003;4.4660258789e+003;4.3734614258e+003;4.4492309570e+003;4.4276923828e+003;4.4400000000e+003;4.4903847656e+003;
2.0000000000e+000;4.6238461914e+003;4.5594873047e+003;4.6061538086e+003;4.5858974609e+003;4.5767949219e+003;4.6278203125e+003;4.6179487305e+003;4.6220512695e+003;4.5952563477e+003;4.5117949219e+003;4.5814101563e+003;4.5523076172e+003;4.5693588867e+003;4.6121796875e+003;
2.0078125000e+000;4.6344873047e+003;4.5716665039e+003;4.6216665039e+003;4.5902563477e+003;4.5951284180e+003;4.6316665039e+003;4.6226923828e+003;4.6220512695e+003;4.5928203125e+003;4.5096152344e+003;4.5856411133e+003;4.5646152344e+003;4.5733334961e+003;4.6166665039e+003;
2.0156250000e+000;4.6193588867e+003;4.5623076172e+003;4.6035898438e+003;4.5792309570e+003;4.5751284180e+003;4.6173076172e+003;4.6064101563e+003;4.6015385742e+003;4.5705126953e+003;4.4912822266e+003;4.5676923828e+003;4.5491025391e+003;4.5583334961e+003;4.6039741211e+003;
2.0234375000e+000;4.5742309570e+003;4.5155126953e+003;4.5547436523e+003;4.5382050781e+003;4.5269228516e+003;4.5770512695e+003;4.5639741211e+003;4.5580771484e+003;4.5179487305e+003;4.4588461914e+003;4.5279487305e+003;4.5093588867e+003;4.5214101563e+003;4.5626923828e+003;
2.0312500000e+000;4.5375639648e+003;4.4717949219e+003;4.5197436523e+003;4.4941025391e+003;4.4850000000e+003;4.5278203125e+003;4.5234614258e+003;4.5102563477e+003;4.4717949219e+003;4.4033334961e+003;4.4900000000e+003;4.4712822266e+003;4.4744873047e+003;4.5241025391e+003;
2.0390625000e+000;4.5939741211e+003;4.5294873047e+003;4.5738461914e+003;4.5537177734e+003;4.5371796875e+003;4.5766665039e+003;4.5730771484e+003;4.5597436523e+003;4.5224360352e+003;4.4547436523e+003;4.5407690430e+003;4.5238461914e+003;4.5279487305e+003;4.5788461914e+003;
2.0468750000e+000;4.6621796875e+003;4.5998715820e+003;4.6408974609e+003;4.6257690430e+003;4.6008974609e+003;4.6405126953e+003;4.6367949219e+003;4.6276923828e+003;4.5905126953e+003;4.5283334961e+003;4.6070512695e+003;4.5932050781e+003;4.5984614258e+003;4.6479487305e+003;
2.0546875000e+000;4.7692309570e+003;4.7148715820e+003;4.7498715820e+003;4.7326923828e+003;4.7005126953e+003;4.7470512695e+003;4.7443588867e+003;4.7452563477e+003;4.7088461914e+003;4.6597436523e+003;4.7247436523e+003;4.7125639648e+003;4.7193588867e+003;4.7624360352e+003;
2.0625000000e+000;4.9915385742e+003;4.9512822266e+003;4.9735898438e+003;4.9406411133e+003;4.9480771484e+003;4.9491025391e+003;4.9557690430e+003;4.9730771484e+003;4.9451284180e+003;4.8997436523e+003;4.9744873047e+003;4.9356411133e+003;4.9553847656e+003;4.9841025391e+003;
2.0703125000e+000;5.0121796875e+003;4.9742309570e+003;4.9984614258e+003;4.9647436523e+003;4.9814101563e+003;4.9676923828e+003;4.9750000000e+003;5.0023076172e+003;4.9760258789e+003;4.9297436523e+003;5.0028203125e+003;4.9616665039e+003;4.9821796875e+003;5.0087177734e+003;
2.0781250000e+000;4.9525639648e+003;4.9155126953e+003;4.9447436523e+003;4.9121796875e+003;4.9256411133e+003;4.9152563477e+003;4.9188461914e+003;4.9538461914e+003;4.9284614258e+003;4.8808974609e+003;4.9471796875e+003;4.9108974609e+003;4.9289741211e+003;4.9565385742e+003;
2.0859375000e+000;4.6737177734e+003;4.6351284180e+003;4.6757690430e+003;4.6464101563e+003;4.6310258789e+003;4.6661538086e+003;4.6551284180e+003;4.6885898438e+003;4.6660258789e+003;4.6110258789e+003;4.6647436523e+003;4.6434614258e+003;4.6530771484e+003;4.6887177734e+003;
2.0937500000e+000;4.5391025391e+003;4.4988461914e+003;4.5435898438e+003;4.5178203125e+003;4.4903847656e+003;4.5430771484e+003;4.5276923828e+003;4.5528203125e+003;4.5324360352e+003;4.4707690430e+003;4.5255126953e+003;4.5070512695e+003;4.5129487305e+003;4.5529487305e+003;
2.1015625000e+000;4.4471796875e+003;4.4056411133e+003;4.4528203125e+003;4.4334614258e+003;4.4007690430e+003;4.4566665039e+003;4.4410258789e+003;4.4558974609e+003;4.4374360352e+003;4.3682050781e+003;4.4284614258e+003;4.4094873047e+003;4.4133334961e+003;4.4566665039e+003;
2.1093750000e+000;4.5142309570e+003;4.4623076172e+003;4.4979487305e+003;4.4994873047e+003;4.4743588867e+003;4.5188461914e+003;4.5026923828e+003;4.4934614258e+003;4.4803847656e+003;4.4052563477e+003;4.4738461914e+003;4.4438461914e+003;4.4607690430e+003;4.5078203125e+003;
2.1171875000e+000;4.5673076172e+003;4.5155126953e+003;4.5511538086e+003;4.5453847656e+003;4.5214101563e+003;4.5706411133e+003;4.5521796875e+003;4.5437177734e+003;4.5292309570e+003;4.4583334961e+003;4.5269228516e+003;4.4983334961e+003;4.5125639648e+003;4.5591025391e+003;
2.1250000000e+000;4.5539741211e+003;4.5151284180e+003;4.5433334961e+003;4.5406411133e+003;4.5248715820e+003;4.5534614258e+003;4.5402563477e+003;4.5407690430e+003;4.5210258789e+003;4.4591025391e+003;4.5187177734e+003;4.4974360352e+003;4.5107690430e+003;4.5466665039e+003;
2.1328125000e+000;4.4780771484e+003;4.4217949219e+003;4.4606411133e+003;4.4574360352e+003;4.4376923828e+003;4.4697436523e+003;4.4682050781e+003;4.4614101563e+003;4.4307690430e+003;4.3637177734e+003;4.4344873047e+003;4.4175639648e+003;4.4285898438e+003;4.4696152344e+003;
2.1406250000e+000;4.5614101563e+003;4.4998715820e+003;4.5419228516e+003;4.5306411133e+003;4.5123076172e+003;4.5406411133e+003;4.5424360352e+003;4.5364101563e+003;4.5033334961e+003;4.4387177734e+003;4.5171796875e+003;4.4944873047e+003;4.5098715820e+003;4.5488461914e+003;
2.1484375000e+000;4.7643588867e+003;4.7158974609e+003;4.7469228516e+003;4.7338461914e+003;4.7097436523e+003;4.7201284180e+003;4.7258974609e+003;4.7315385742e+003;4.6996152344e+003;4.6555126953e+003;4.7305126953e+003;4.7017949219e+003;4.7280771484e+003;4.7564101563e+003;
2.1562500000e+000;4.7566665039e+003;4.7134614258e+003;4.7398715820e+003;4.7293588867e+003;4.7055126953e+003;4.7125639648e+003;4.7191025391e+003;4.7273076172e+003;4.6988461914e+003;4.6560258789e+003;4.7273076172e+003;4.7012822266e+003;4.7244873047e+003;4.7534614258e+003;
2.1640625000e+000;4.7543588867e+003;4.7119228516e+003;4.7385898438e+003;4.7212822266e+003;4.7091025391e+003;4.7080771484e+003;4.7165385742e+003;4.7350000000e+003;4.7165385742e+003;4.6635898438e+003;4.7334614258e+003;4.7060258789e+003;4.7225639648e+003;4.7537177734e+003;
2.1718750000e+000;4.7693588867e+003;4.7244873047e+003;4.7557690430e+003;4.7306411133e+003;4.7232050781e+003;4.7219228516e+003;4.7293588867e+003;4.7551284180e+003;4.7408974609e+003;4.6815385742e+003;4.7497436523e+003;4.7220512695e+003;4.7355126953e+003;4.7675639648e+003;
2.1796875000e+000;4.6910258789e+003;4.6521796875e+003;4.6842309570e+003;4.6598715820e+003;4.6403847656e+003;4.6720512695e+003;4.6628203125e+003;4.6860258789e+003;4.6734614258e+003;4.6116665039e+003;4.6652563477e+003;4.6474360352e+003;4.6610258789e+003;4.6905126953e+003;
2.1875000000e+000;4.6024360352e+003;4.5615385742e+003;4.5939741211e+003;4.5783334961e+003;4.5779487305e+003;4.5975639648e+003;4.5876923828e+003;4.5917949219e+003;4.5860258789e+003;4.5215385742e+003;4.5897436523e+003;4.5519228516e+003;4.5803847656e+003;4.5978203125e+003;
2.1953125000e+000;4.5773076172e+003;4.5298715820e+003;4.5676923828e+003;4.5514101563e+003;4.5560258789e+003;4.5658974609e+003;4.5584614258e+003;4.5628203125e+003;4.5608974609e+003;4.4905126953e+003;4.5652563477e+003;4.5251284180e+003;4.5519228516e+003;4.5702563477e+003;
2.2031250000e+000;4.5303847656e+003;4.4788461914e+003;4.5185898438e+003;4.5067949219e+003;4.5064101563e+003;4.5157690430e+003;4.5071796875e+003;4.5139741211e+003;4.5147436523e+003;4.4382050781e+003;4.5146152344e+003;4.4785898438e+003;4.5010258789e+003;4.5220512695e+003;
2.2109375000e+000;4.3542309570e+003;4.3033334961e+003;4.3373076172e+003;4.3508974609e+003;4.3165385742e+003;4.3544873047e+003;4.3341025391e+003;4.3416665039e+003;4.3417949219e+003;4.2589741211e+003;4.3265385742e+003;4.3069228516e+003;4.3202563477e+003;4.3452563477e+003;
2.2187500000e+000;4.2466665039e+003;4.1955126953e+003;4.2276923828e+003;4.2535898438e+003;4.2028203125e+003;4.2594873047e+003;4.2335898438e+003;4.2366665039e+003;4.2339741211e+003;4.1501284180e+003;4.2142309570e+003;4.1998715820e+003;4.2098715820e+003;4.2365385742e+003;
2.2265625000e+000;4.1567949219e+003;4.1010258789e+003;4.1351284180e+003;4.1669228516e+003;4.1079487305e+003;4.1773076172e+003;4.1498715820e+003;4.1470512695e+003;4.1405126953e+003;4.0553845215e+003;4.1194873047e+003;4.1064101563e+003;4.1147436523e+003;4.1439741211e+003;
2.2343750000e+000;4.0234614258e+003;3.9119230957e+003;3.9783332520e+003;4.0000000000e+003;3.9425642090e+003;3.9951281738e+003;3.9960256348e+003;3.9889743652e+003;3.9685898438e+003;3.8702563477e+003;3.9482050781e+003;3.9406411133e+003;3.9462819824e+003;3.9846154785e+003;
2.2421875000e+000;3.9967949219e+003;3.8833332520e+003;3.9470512695e+003;3.9667949219e+003;3.9058974609e+003;3.9629487305e+003;3.9634614258e+003;3.9565385742e+003;3.9323076172e+003;3.8382050781e+003;3.9184614258e+003;3.9101281738e+003;3.9171794434e+003;3.9534614258e+003;
2.2500000000e+000;3.8971794434e+003;3.7752563477e+003;3.8288461914e+003;3.8524357910e+003;3.7696154785e+003;3.8520512695e+003;3.8496154785e+003;3.8426923828e+003;3.8101281738e+003;3.7221794434e+003;3.8075642090e+003;3.7961538086e+003;3.7991025391e+003;3.8447436523e+003;
2.2578125000e+000;3.8714101563e+003;3.7205129395e+003;3.7898718262e+003;3.8141025391e+003;3.7335898438e+003;3.7907692871e+003;3.7996154785e+003;3.7935898438e+003;3.7735898438e+003;3.6739743652e+003;3.7614101563e+003;3.7489743652e+003;3.7553845215e+003;3.7985898438e+003;
2.2656250000e+000;3.8833332520e+003;3.7294870605e+003;3.7998718262e+003;3.8224357910e+003;3.7457692871e+003;3.7937180176e+003;3.8047436523e+003;3.8037180176e+003;3.7889743652e+003;3.6897436523e+003;3.7705129395e+003;3.7600000000e+003;3.7701281738e+003;3.8083332520e+003;
2.2734375000e+000;3.8256411133e+003;3.6633332520e+003;3.7280769043e+003;3.7717949219e+003;3.6698718262e+003;3.7315385742e+003;3.7369230957e+003;3.7407692871e+003;3.7307692871e+003;3.6317949219e+003;3.6992307129e+003;3.7037180176e+003;3.7048718262e+003;3.7539743652e+003;
2.2812500000e+000;3.8115385742e+003;3.6443588867e+003;3.7075642090e+003;3.7558974609e+003;3.6488461914e+003;3.7187180176e+003;3.7196154785e+003;3.7215385742e+003;3.7107692871e+003;3.6111538086e+003;3.6819230957e+003;3.6835898438e+003;3.6838461914e+003;3.7353845215e+003;
2.2890625000e+000;3.7996154785e+003;3.6250000000e+003;3.6907692871e+003;3.7287180176e+003;3.6319230957e+003;3.7098718262e+003;3.7030769043e+003;3.6991025391e+003;3.6887180176e+003;3.5875642090e+003;3.6666667480e+003;3.6600000000e+003;3.6634614258e+003;3.7111538086e+003;
2.2968750000e+000;3.7817949219e+003;3.6034614258e+003;3.6725642090e+003;3.7043588867e+003;3.6143588867e+003;3.6937180176e+003;3.6853845215e+003;3.6769230957e+003;3.6689743652e+003;3.5651281738e+003;3.6444870605e+003;3.6384614258e+003;3.6419230957e+003;3.6893588867e+003;
2.3046875000e+000;3.6798718262e+003;3.4920512695e+003;3.5608974609e+003;3.6067949219e+003;3.5207692871e+003;3.6010256348e+003;3.5933332520e+003;3.5761538086e+003;3.5756411133e+003;3.4611538086e+003;3.5306411133e+003;3.5262819824e+003;3.5289743652e+003;3.5789743652e+003;
2.3125000000e+000;3.6428205566e+003;3.4517949219e+003;3.5200000000e+003;3.5706411133e+003;3.4823076172e+003;3.5683332520e+003;3.5600000000e+003;3.5425642090e+003;3.5411538086e+003;3.4256411133e+003;3.4925642090e+003;3.4874357910e+003;3.4908974609e+003;3.5387180176e+003;
2.3203125000e+000;3.5879487305e+003;3.3848718262e+003;3.4576923828e+003;3.5089743652e+003;3.4056411133e+003;3.5182050781e+003;3.5064101563e+003;3.4861538086e+003;3.4842307129e+003;3.3660256348e+003;3.4274357910e+003;3.4258974609e+003;3.4306411133e+003;3.4744870605e+003;
2.3281250000e+000;3.5676923828e+003;3.3567949219e+003;3.4330769043e+003;3.4848718262e+003;3.3738461914e+003;3.4967949219e+003;3.4830769043e+003;3.4607692871e+003;3.4606411133e+003;3.3393588867e+003;3.3983332520e+003;3.3997436523e+003;3.4044870605e+003;3.4483332520e+003;
2.3359375000e+000;3.4793588867e+003;3.2424357910e+003;3.3364101563e+003;3.3829487305e+003;3.2866667480e+003;3.3855129395e+003;3.3755129395e+003;3.3516667480e+003;3.3487180176e+003;3.2224357910e+003;3.2919230957e+003;3.2939743652e+003;3.2908974609e+003;3.3452563477e+003;
2.3437500000e+000;3.4546154785e+003;3.2096154785e+003;3.3087180176e+003;3.3529487305e+003;3.2620512695e+003;3.3502563477e+003;3.3433332520e+003;3.3205129395e+003;3.3132050781e+003;3.1898718262e+003;3.2651281738e+003;3.2637180176e+003;3.2601281738e+003;3.3157692871e+003;
2.3515625000e+000;3.4329487305e+003;3.1834614258e+003;3.2825642090e+003;3.3293588867e+003;3.2338461914e+003;3.3216667480e+003;3.3165385742e+003;3.2950000000e+003;3.2838461914e+003;3.1650000000e+003;3.2415385742e+003;3.2379487305e+003;3.2365385742e+003;3.2906411133e+003;
2.3593750000e+000;3.4008974609e+003;3.1508974609e+003;3.2442307129e+003;3.2994870605e+003;3.1902563477e+003;3.2876923828e+003;3.2824357910e+003;3.2612819824e+003;3.2479487305e+003;3.1334614258e+003;3.2065385742e+003;3.2039743652e+003;3.2061538086e+003;3.2574357910e+003;
2.3671875000e+000;3.2337180176e+003;2.9697436523e+003;3.0505129395e+003;3.1321794434e+003;2.9978205566e+003;3.0914101563e+003;3.0915385742e+003;3.0638461914e+003;3.0539743652e+003;2.9307692871e+003;3.0067949219e+003;3.0165385742e+003;3.0212819824e+003;3.0711538086e+003;
2.3750000000e+000;3.1797436523e+003;2.8730769043e+003;2.9716667480e+003;3.0425642090e+003;2.8808974609e+003;2.9867949219e+003;2.9814101563e+003;2.9653845215e+003;2.9669230957e+003;2.8506411133e+003;2.9264101563e+003;2.9421794434e+003;2.9325642090e+003;2.9957692871e+003;
2.3828125000e+000;3.1541025391e+003;2.8438461914e+003;2.9398718262e+003;3.0107692871e+003;2.8452563477e+003;2.9575642090e+003;2.9503845215e+003;2.9297436523e+003;2.9373076172e+003;2.8207692871e+003;2.8973076172e+003;2.9085898438e+003;2.9039743652e+003;2.9662819824e+003;
2.3906250000e+000;3.1426923828e+003;2.8298718262e+003;2.9183332520e+003;2.9980769043e+003;2.8402563477e+003;2.9407692871e+003;2.9362819824e+003;2.9079487305e+003;2.9214101563e+003;2.7985898438e+003;2.8791025391e+003;2.8823076172e+003;2.8901281738e+003;2.9425642090e+003;
2.3984375000e+000;3.1783332520e+003;2.8541025391e+003;2.9387180176e+003;3.0216667480e+003;2.8824357910e+003;2.9766667480e+003;2.9675642090e+003;2.9415385742e+003;2.9511538086e+003;2.8250000000e+003;2.8919230957e+003;2.9100000000e+003;2.9082050781e+003;2.9597436523e+003;
2.4062500000e+000;3.1619230957e+003;2.8370512695e+003;2.9203845215e+003;3.0033332520e+003;2.8611538086e+003;2.9643588867e+003;2.9541025391e+003;2.9251281738e+003;2.9350000000e+003;2.8094870605e+003;2.8735898438e+003;2.8914101563e+003;2.8835898438e+003;2.9391025391e+003;
2.4140625000e+000;3.1279487305e+003;2.8011538086e+003;2.8783332520e+003;2.9728205566e+003;2.8234614258e+003;2.9376923828e+003;2.9302563477e+003;2.8912819824e+003;2.9010256348e+003;2.7723076172e+003;2.8367949219e+003;2.8465385742e+003;2.8465385742e+003;2.8955129395e+003;
2.4218750000e+000;3.1401281738e+003;2.8102563477e+003;2.8844870605e+003;2.9811538086e+003;2.8362819824e+003;2.9498718262e+003;2.9448718262e+003;2.9026923828e+003;2.9126923828e+003;2.7828205566e+003;2.8473076172e+003;2.8512819824e+003;2.8633332520e+003;2.9043588867e+003;
2.4296875000e+000;3.2367949219e+003;2.8880769043e+003;2.9723076172e+003;3.0451281738e+003;2.9267949219e+003;3.0333332520e+003;3.0285898438e+003;2.9880769043e+003;2.9944870605e+003;2.8710256348e+003;2.9319230957e+003;2.9362819824e+003;2.9517949219e+003;2.9923076172e+003;
2.4375000000e+000;3.2665385742e+003;2.9174357910e+003;3.0003845215e+003;3.0732050781e+003;2.9556411133e+003;3.0565385742e+003;3.0512819824e+003;3.0124357910e+003;3.0157692871e+003;2.8952563477e+003;2.9582050781e+003;2.9658974609e+003;2.9734614258e+003;3.0178205566e+003;
2.4453125000e+000;3.3392307129e+003;3.0030769043e+003;3.0657692871e+003;3.1537180176e+003;3.0251281738e+003;3.1221794434e+003;3.1178205566e+003;3.0819230957e+003;3.0820512695e+003;2.9667949219e+003;3.0312819824e+003;3.0393588867e+003;3.0442307129e+003;3.0851281738e+003;
2.4531250000e+000;3.3737180176e+003;3.0410256348e+003;3.0969230957e+003;3.1876923828e+003;3.0532050781e+003;3.1564101563e+003;3.1523076172e+003;3.1166667480e+003;3.1173076172e+003;3.0044870605e+003;3.0648718262e+003;3.0735898438e+003;3.0823076172e+003;3.1191025391e+003;
2.4609375000e+000;3.4003845215e+003;3.0646154785e+003;3.1228205566e+003;3.2093588867e+003;3.0732050781e+003;3.1817949219e+003;3.1783332520e+003;3.1411538086e+003;3.1430769043e+003;3.0333332520e+003;3.0882050781e+003;3.0985898438e+003;3.1106411133e+003;3.1456411133e+003;
2.4687500000e+000;3.4211538086e+003;3.0788461914e+003;3.1452563477e+003;3.2255129395e+003;3.0919230957e+003;3.1975642090e+003;3.1955129395e+003;3.1566667480e+003;3.1597436523e+003;3.0543588867e+003;3.1058974609e+003;3.1170512695e+003;3.1296154785e+003;3.1656411133e+003;
2.4765625000e+000;3.4097436523e+003;3.0783332520e+003;3.1419230957e+003;3.2394870605e+003;3.0975642090e+003;3.1615385742e+003;3.1626923828e+003;3.1337180176e+003;3.1314101563e+003;3.0447436523e+003;3.1041025391e+003;3.1165385742e+003;3.1166667480e+003;3.1564101563e+003;
2.4843750000e+000;3.5011538086e+003;3.1521794434e+003;3.2224357910e+003;3.2911538086e+003;3.1661538086e+003;3.2461538086e+003;3.2496154785e+003;3.2191025391e+003;3.2314101563e+003;3.1441025391e+003;3.1996154785e+003;3.2028205566e+003;3.2139743652e+003;3.2534614258e+003;
2.4921875000e+000;3.5591025391e+003;3.2141025391e+003;3.2798718262e+003;3.3585898438e+003;3.2388461914e+003;3.3041025391e+003;3.3082050781e+003;3.2800000000e+003;3.2932050781e+003;3.2050000000e+003;3.2614101563e+003;3.2633332520e+003;3.2746154785e+003;3.3135898438e+003;
2.5000000000e+000;3.8694870605e+003;3.5615385742e+003;3.5975642090e+003;3.6871794434e+003;3.5746154785e+003;3.6196154785e+003;3.6188461914e+003;3.5967949219e+003;3.6025642090e+003;3.5305129395e+003;3.5680769043e+003;3.5808974609e+003;3.5944870605e+003;3.6260256348e+003;
2.5078125000e+000;4.0457692871e+003;3.7517949219e+003;3.7855129395e+003;3.8646154785e+003;3.7630769043e+003;3.8124357910e+003;3.8066667480e+003;3.7934614258e+003;3.7965385742e+003;3.7430769043e+003;3.7729487305e+003;3.7703845215e+003;3.7869230957e+003;3.8092307129e+003;
2.5156250000e+000;4.0388461914e+003;3.7556411133e+003;3.7835898438e+003;3.8670512695e+003;3.7723076172e+003;3.8119230957e+003;3.8066667480e+003;3.7956411133e+003;3.8001281738e+003;3.7466667480e+003;3.7760256348e+003;3.7669230957e+003;3.7866667480e+003;3.8074357910e+003;
2.5234375000e+000;3.9860256348e+003;3.7235898438e+003;3.7516667480e+003;3.8293588867e+003;3.7503845215e+003;3.7747436523e+003;3.7728205566e+003;3.7594870605e+003;3.7620512695e+003;3.7097436523e+003;3.7260256348e+003;3.7265385742e+003;3.7533332520e+003;3.7670512695e+003;
2.5312500000e+000;3.9655129395e+003;3.7030769043e+003;3.7371794434e+003;3.8096154785e+003;3.7264101563e+003;3.7615385742e+003;3.7594870605e+003;3.7397436523e+003;3.7380769043e+003;3.6878205566e+003;3.7057692871e+003;3.7115385742e+003;3.7355129395e+003;3.7498718262e+003;
2.5390625000e+000;3.9862819824e+003;3.7364101563e+003;3.7602563477e+003;3.8325642090e+003;3.7483332520e+003;3.7976923828e+003;3.7933332520e+003;3.7621794434e+003;3.7537180176e+003;3.7074357910e+003;3.7369230957e+003;3.7367949219e+003;3.7550000000e+003;3.7757692871e+003;
2.5468750000e+000;4.0276923828e+003;3.7869230957e+003;3.8020512695e+003;3.8739743652e+003;3.7976923828e+003;3.8434614258e+003;3.8391025391e+003;3.8067949219e+003;3.7993588867e+003;3.7550000000e+003;3.7860256348e+003;3.7792307129e+003;3.7957692871e+003;3.8198718262e+003;
2.5546875000e+000;4.0973076172e+003;3.8502563477e+003;3.8812819824e+003;3.9393588867e+003;3.8700000000e+003;3.9128205566e+003;3.9129487305e+003;3.8857692871e+003;3.8846154785e+003;3.8443588867e+003;3.8610256348e+003;3.8555129395e+003;3.8694870605e+003;3.8917949219e+003;
2.5625000000e+000;4.1075639648e+003;3.8603845215e+003;3.8929487305e+003;3.9523076172e+003;3.8797436523e+003;3.9229487305e+003;3.9232050781e+003;3.8975642090e+003;3.8946154785e+003;3.8551281738e+003;3.8706411133e+003;3.8673076172e+003;3.8828205566e+003;3.9016667480e+003;
2.5703125000e+000;4.1717949219e+003;3.9474357910e+003;3.9598718262e+003;4.0241025391e+003;3.9571794434e+003;3.9861538086e+003;3.9848718262e+003;3.9641025391e+003;3.9552563477e+003;3.9243588867e+003;3.9452563477e+003;3.9398718262e+003;3.9579487305e+003;3.9735898438e+003;
2.5781250000e+000;4.2128203125e+003;4.0003845215e+003;4.0042307129e+003;4.0652563477e+003;4.0053845215e+003;4.0232050781e+003;4.0221794434e+003;4.0057692871e+003;3.9958974609e+003;3.9732050781e+003;3.9958974609e+003;3.9885898438e+003;4.0070512695e+003;4.0238461914e+003;
2.5859375000e+000;4.1896152344e+003;3.9733332520e+003;3.9943588867e+003;4.0376923828e+003;3.9829487305e+003;3.9876923828e+003;3.9866667480e+003;3.9912819824e+003;3.9853845215e+003;3.9780769043e+003;3.9914101563e+003;3.9910256348e+003;4.0083332520e+003;4.0291025391e+003;
2.5937500000e+000;4.1275639648e+003;3.9087180176e+003;3.9370512695e+003;3.9788461914e+003;3.9173076172e+003;3.9276923828e+003;3.9252563477e+003;3.9335898438e+003;3.9289743652e+003;3.9179487305e+003;3.9301281738e+003;3.9337180176e+003;3.9479487305e+003;3.9714101563e+003;
2.6015625000e+000;4.0721794434e+003;3.8558974609e+003;3.8855129395e+003;3.9284614258e+003;3.8589743652e+003;3.8755129395e+003;3.8723076172e+003;3.8802563477e+003;3.8773076172e+003;3.8598718262e+003;3.8753845215e+003;3.8785898438e+003;3.8905129395e+003;3.9173076172e+003;
2.6093750000e+000;4.0460256348e+003;3.8360256348e+003;3.8616667480e+003;3.9070512695e+003;3.8316667480e+003;3.8510256348e+003;3.8482050781e+003;3.8535898438e+003;3.8535898438e+003;3.8303845215e+003;3.8517949219e+003;3.8493588867e+003;3.8620512695e+003;3.8898718262e+003;
2.6171875000e+000;4.0503845215e+003;3.8506411133e+003;3.8728205566e+003;3.9169230957e+003;3.8450000000e+003;3.8662819824e+003;3.8603845215e+003;3.8596154785e+003;3.8676923828e+003;3.8412819824e+003;3.8639743652e+003;3.8553845215e+003;3.8787180176e+003;3.8882050781e+003;
2.6250000000e+000;4.0357692871e+003;3.8367949219e+003;3.8598718262e+003;3.9035898438e+003;3.8383332520e+003;3.8596154785e+003;3.8508974609e+003;3.8466667480e+003;3.8544870605e+003;3.8273076172e+003;3.8465385742e+003;3.8415385742e+003;3.8661538086e+003;3.8760256348e+003;
2.6328125000e+000;3.9975642090e+003;3.8169230957e+003;3.8230769043e+003;3.8800000000e+003;3.8243588867e+003;3.8482050781e+003;3.8346154785e+003;3.8291025391e+003;3.8330769043e+003;3.8053845215e+003;3.8192307129e+003;3.8074357910e+003;3.8398718262e+003;3.8497436523e+003;
2.6406250000e+000;4.0842307129e+003;3.9058974609e+003;3.9093588867e+003;3.9715385742e+003;3.9234614258e+003;3.9426923828e+003;3.9358974609e+003;3.9162819824e+003;3.9152563477e+003;3.8897436523e+003;3.9066667480e+003;3.8930769043e+003;3.9216667480e+003;3.9293588867e+003;
2.6484375000e+000;4.1780771484e+003;3.9992307129e+003;4.0076923828e+003;4.0660256348e+003;4.0217949219e+003;4.0342307129e+003;4.0302563477e+003;4.0089743652e+003;4.0083332520e+003;3.9861538086e+003;4.0000000000e+003;3.9852563477e+003;4.0188461914e+003;4.0228205566e+003;
2.6562500000e+000;4.3392309570e+003;4.1842309570e+003;4.1847436523e+003;4.2341025391e+003;4.1956411133e+003;4.2053847656e+003;4.2016665039e+003;4.1955126953e+003;4.1867949219e+003;4.1762822266e+003;4.1780771484e+003;4.1641025391e+003;4.1937177734e+003;4.1978203125e+003;
2.6640625000e+000;4.3516665039e+003;4.2148715820e+003;4.2042309570e+003;4.2444873047e+003;4.2060258789e+003;4.2262822266e+003;4.2176923828e+003;4.2110258789e+003;4.1969228516e+003;4.2033334961e+003;4.2041025391e+003;4.1864101563e+003;4.2121796875e+003;4.2175639648e+003;
2.6718750000e+000;4.3389741211e+003;4.1952563477e+003;4.1976923828e+003;4.2335898438e+003;4.1978203125e+003;4.2087177734e+003;4.2030771484e+003;4.1920512695e+003;4.1802563477e+003;4.1885898438e+003;4.1923076172e+003;4.1737177734e+003;4.2029487305e+003;4.2075639648e+003;
2.6796875000e+000;4.3182050781e+003;4.1682050781e+003;4.1828203125e+003;4.2166665039e+003;4.1847436523e+003;4.1821796875e+003;4.1802563477e+003;4.1667949219e+003;4.1578203125e+003;4.1641025391e+003;4.1715385742e+003;4.1538461914e+003;4.1848715820e+003;4.1892309570e+003;
2.6875000000e+000;4.2798715820e+003;4.1360258789e+003;4.1479487305e+003;4.1855126953e+003;4.1520512695e+003;4.1403847656e+003;4.1391025391e+003;4.1284614258e+003;4.1247436523e+003;4.1234614258e+003;4.1344873047e+003;4.1256411133e+003;4.1484614258e+003;4.1550000000e+003;
2.6953125000e+000;4.2939741211e+003;4.1671796875e+003;4.1666665039e+003;4.1971796875e+003;4.1478203125e+003;4.1508974609e+003;4.1411538086e+003;4.1385898438e+003;4.1473076172e+003;4.1541025391e+003;4.1615385742e+003;4.1605126953e+003;4.1733334961e+003;4.1875639648e+003;
2.7031250000e+000;4.3083334961e+003;4.1802563477e+003;4.1851284180e+003;4.2065385742e+003;4.1639741211e+003;4.1569228516e+003;4.1482050781e+003;4.1524360352e+003;4.1671796875e+003;4.1758974609e+003;4.1825639648e+003;4.1760258789e+003;4.1928203125e+003;4.2073076172e+003;
2.7109375000e+000;4.3035898438e+003;4.1732050781e+003;4.1842309570e+003;4.1971796875e+003;4.1641025391e+003;4.1456411133e+003;4.1384614258e+003;4.1517949219e+003;4.1715385742e+003;4.1779487305e+003;4.1844873047e+003;4.1710258789e+003;4.1910258789e+003;4.2060258789e+003;
2.7187500000e+000;4.2211538086e+003;4.0891025391e+003;4.1071796875e+003;4.1166665039e+003;4.0861538086e+003;4.0670512695e+003;4.0616667480e+003;4.0846154785e+003;4.1066665039e+003;4.1000000000e+003;4.1085898438e+003;4.0908974609e+003;4.1082050781e+003;4.1265385742e+003;
2.7265625000e+000;4.1728203125e+003;4.0424357910e+003;4.0596154785e+003;4.0746154785e+003;4.0353845215e+003;4.0261538086e+003;4.0217949219e+003;4.0419230957e+003;4.0615385742e+003;4.0485898438e+003;4.0575642090e+003;4.0443588867e+003;4.0588461914e+003;4.0782050781e+003;
2.7343750000e+000;4.1364101563e+003;4.0085898438e+003;4.0228205566e+003;4.0465385742e+003;3.9970512695e+003;3.9976923828e+003;3.9937180176e+003;4.0096154785e+003;4.0252563477e+003;4.0084614258e+003;4.0161538086e+003;4.0097436523e+003;4.0224357910e+003;4.0415385742e+003;
2.7421875000e+000;4.1065385742e+003;3.9687180176e+003;3.9893588867e+003;4.0276923828e+003;3.9903845215e+003;3.9942307129e+003;3.9921794434e+003;3.9848718262e+003;3.9842307129e+003;3.9642307129e+003;3.9860256348e+003;3.9739743652e+003;3.9908974609e+003;4.0087180176e+003;
2.7500000000e+000;4.1794873047e+003;4.0401281738e+003;4.0625642090e+003;4.0944870605e+003;4.0661538086e+003;4.0682050781e+003;4.0698718262e+003;4.0589743652e+003;4.0594870605e+003;4.0417949219e+003;4.0592307129e+003;4.0416667480e+003;4.0612819824e+003;4.0760256348e+003;
2.7578125000e+000;4.2058974609e+003;4.0805129395e+003;4.0980771484e+003;4.1150000000e+003;4.1041025391e+003;4.1024360352e+003;4.1046152344e+003;4.1019228516e+003;4.1002563477e+003;4.0820512695e+003;4.0852563477e+003;4.0742307129e+003;4.0841025391e+003;4.1030771484e+003;
2.7656250000e+000;3.9626923828e+003;3.8316667480e+003;3.8482050781e+003;3.8782050781e+003;3.8420512695e+003;3.8756411133e+003;3.8726923828e+003;3.8560256348e+003;3.8488461914e+003;3.8255129395e+003;3.8296154785e+003;3.8412819824e+003;3.8469230957e+003;3.8653845215e+003;
2.7734375000e+000;3.9176923828e+003;3.7833332520e+003;3.8005129395e+003;3.8342307129e+003;3.7896154785e+003;3.8328205566e+003;3.8275642090e+003;3.8044870605e+003;3.7985898438e+003;3.7729487305e+003;3.7808974609e+003;3.7961538086e+003;3.7993588867e+003;3.8175642090e+003;
2.7812500000e+000;3.8469230957e+003;3.7070512695e+003;3.7283332520e+003;3.7487180176e+003;3.7252563477e+003;3.7369230957e+003;3.7319230957e+003;3.7042307129e+003;3.7023076172e+003;3.6775642090e+003;3.7132050781e+003;3.7138461914e+003;3.7117949219e+003;3.7362819824e+003;
2.7890625000e+000;3.8444870605e+003;3.6848718262e+003;3.7179487305e+003;3.7452563477e+003;3.6942307129e+003;3.7161538086e+003;3.7144870605e+003;3.6878205566e+003;3.6955129395e+003;3.6738461914e+003;3.7047436523e+003;3.7202563477e+003;3.7125642090e+003;3.7389743652e+003;
2.7968750000e+000;3.8798718262e+003;3.7197436523e+003;3.7491025391e+003;3.7800000000e+003;3.7174357910e+003;3.7492307129e+003;3.7464101563e+003;3.7239743652e+003;3.7365385742e+003;3.7116667480e+003;3.7385898438e+003;3.7578205566e+003;3.7498718262e+003;3.7744870605e+003;
2.8046875000e+000;3.9314101563e+003;3.7839743652e+003;3.7967949219e+003;3.8208974609e+003;3.7751281738e+003;3.7796154785e+003;3.7824357910e+003;3.7892307129e+003;3.8028205566e+003;3.7723076172e+003;3.8020512695e+003;3.8030769043e+003;3.8088461914e+003;3.8244870605e+003;
2.8125000000e+000;3.9006411133e+003;3.7520512695e+003;3.7679487305e+003;3.7905129395e+003;3.7464101563e+003;3.7462819824e+003;3.7496154785e+003;3.7635898438e+003;3.7752563477e+003;3.7430769043e+003;3.7705129395e+003;3.7719230957e+003;3.7770512695e+003;3.7937180176e+003;
2.8203125000e+000;3.8624357910e+003;3.7056411133e+003;3.7324357910e+003;3.7521794434e+003;3.7053845215e+003;3.7185898438e+003;3.7185898438e+003;3.7350000000e+003;3.7435898438e+003;3.7065385742e+003;3.7214101563e+003;3.7343588867e+003;3.7321794434e+003;3.7514101563e+003;
2.8281250000e+000;3.8861538086e+003;3.7271794434e+003;3.7565385742e+003;3.7732050781e+003;3.7312819824e+003;3.7498718262e+003;3.7501281738e+003;3.7638461914e+003;3.7696154785e+003;3.7310256348e+003;3.7423076172e+003;3.7574357910e+003;3.7544870605e+003;3.7725642090e+003;
2.8359375000e+000;3.9332050781e+003;3.7748718262e+003;3.8042307129e+003;3.8192307129e+003;3.7848718262e+003;3.8020512695e+003;3.8053845215e+003;3.8157692871e+003;3.8176923828e+003;3.7787180176e+003;3.7912819824e+003;3.8034614258e+003;3.8032050781e+003;3.8188461914e+003;
2.8437500000e+000;4.0251281738e+003;3.8743588867e+003;3.8992307129e+003;3.9226923828e+003;3.8937180176e+003;3.8992307129e+003;3.9084614258e+003;3.9153845215e+003;3.9129487305e+003;3.8760256348e+003;3.8974357910e+003;3.8950000000e+003;3.9030769043e+003;3.9139743652e+003;
2.8515625000e+000;4.0303845215e+003;3.8843588867e+003;3.9060256348e+003;3.9351281738e+003;3.9041025391e+003;3.9089743652e+003;3.9169230957e+003;3.9243588867e+003;3.9232050781e+003;3.8862819824e+003;3.9096154785e+003;3.9023076172e+003;3.9105129395e+003;3.9206411133e+003;
2.8593750000e+000;3.9935898438e+003;3.8507692871e+003;3.8708974609e+003;3.9002563477e+003;3.8688461914e+003;3.8796154785e+003;3.8838461914e+003;3.8908974609e+003;3.8917949219e+003;3.8532050781e+003;3.8747436523e+003;3.8682050781e+003;3.8728205566e+003;3.8843588867e+003;
2.8671875000e+000;3.9697436523e+003;3.8262819824e+003;3.8441025391e+003;3.8596154785e+003;3.8426923828e+003;3.8698718262e+003;3.8753845215e+003;3.8555129395e+003;3.8567949219e+003;3.8151281738e+003;3.8115385742e+003;3.8248718262e+003;3.8380769043e+003;3.8446154785e+003;
2.8750000000e+000;4.0323076172e+003;3.8902563477e+003;3.9070512695e+003;3.9279487305e+003;3.9115385742e+003;3.9310256348e+003;3.9370512695e+003;3.9162819824e+003;3.9175642090e+003;3.8812819824e+003;3.8838461914e+003;3.8902563477e+003;3.8996154785e+003;3.9057692871e+003;
2.8828125000e+000;4.1483334961e+003;4.0174357910e+003;4.0262819824e+003;4.0430769043e+003;4.0442307129e+003;4.0457692871e+003;4.0466667480e+003;4.0220512695e+003;4.0207692871e+003;4.0073076172e+003;4.0226923828e+003;4.0151281738e+003;4.0178205566e+003;4.0297436523e+003;
2.8906250000e+000;4.2771796875e+003;4.1587177734e+003;4.1584614258e+003;4.1657690430e+003;4.1666665039e+003;4.1607690430e+003;4.1607690430e+003;4.1375639648e+003;4.1328203125e+003;4.1378203125e+003;4.1430771484e+003;4.1482050781e+003;4.1526923828e+003;4.1602563477e+003;
2.8984375000e+000;4.3091025391e+003;4.1888461914e+003;4.1929487305e+003;4.1944873047e+003;4.1969228516e+003;4.1870512695e+003;4.1889741211e+003;4.1643588867e+003;4.1597436523e+003;4.1678203125e+003;4.1743588867e+003;4.1837177734e+003;4.1851284180e+003;4.1906411133e+003;
2.9062500000e+000;4.3621796875e+003;4.2483334961e+003;4.2607690430e+003;4.2498715820e+003;4.2555126953e+003;4.2369228516e+003;4.2392309570e+003;4.2237177734e+003;4.2197436523e+003;4.2391025391e+003;4.2523076172e+003;4.2492309570e+003;4.2533334961e+003;4.2548715820e+003;
2.9140625000e+000;4.4344873047e+003;4.3424360352e+003;4.3412822266e+003;4.3362822266e+003;4.3328203125e+003;4.3052563477e+003;4.3105126953e+003;4.3232050781e+003;4.3201284180e+003;4.3334614258e+003;4.3411538086e+003;4.3362822266e+003;4.3444873047e+003;4.3448715820e+003;
2.9218750000e+000;4.4661538086e+003;4.3814101563e+003;4.3737177734e+003;4.3658974609e+003;4.3725639648e+003;4.3370512695e+003;4.3433334961e+003;4.3676923828e+003;4.3647436523e+003;4.3769228516e+003;4.3778203125e+003;4.3747436523e+003;4.3819228516e+003;4.3810258789e+003;
2.9296875000e+000;4.4560258789e+003;4.3762822266e+003;4.3666665039e+003;4.3533334961e+003;4.3702563477e+003;4.3326923828e+003;4.3376923828e+003;4.3710258789e+003;4.3667949219e+003;4.3789741211e+003;4.3721796875e+003;4.3710258789e+003;4.3751284180e+003;4.3752563477e+003;
2.9375000000e+000;4.3032050781e+003;4.2248715820e+003;4.2242309570e+003;4.2035898438e+003;4.2216665039e+003;4.2043588867e+003;4.2025639648e+003;4.2365385742e+003;4.2289741211e+003;4.2335898438e+003;4.2235898438e+003;4.2200000000e+003;4.2202563477e+003;4.2271796875e+003;
2.9453125000e+000;4.1234614258e+003;4.0452563477e+003;4.0488461914e+003;4.0382050781e+003;4.0502563477e+003;4.0607692871e+003;4.0579487305e+003;4.0698718262e+003;4.0666667480e+003;4.0469230957e+003;4.0483332520e+003;4.0343588867e+003;4.0473076172e+003;4.0478205566e+003;
2.9531250000e+000;4.1043588867e+003;4.0261538086e+003;4.0289743652e+003;4.0228205566e+003;4.0389743652e+003;4.0500000000e+003;4.0473076172e+003;4.0544870605e+003;4.0505129395e+003;4.0310256348e+003;4.0280769043e+003;4.0184614258e+003;4.0320512695e+003;4.0296154785e+003;
2.9609375000e+000;4.0861538086e+003;4.0062819824e+003;4.0101281738e+003;4.0091025391e+003;4.0262819824e+003;4.0378205566e+003;4.0341025391e+003;4.0383332520e+003;4.0316667480e+003;4.0171794434e+003;4.0071794434e+003;4.0032050781e+003;4.0152563477e+003;4.0124357910e+003;
2.9687500000e+000;4.0202563477e+003;3.9343588867e+003;3.9442307129e+003;3.9526923828e+003;3.9561538086e+003;3.9800000000e+003;3.9725642090e+003;3.9714101563e+003;3.9624357910e+003;3.9511538086e+003;3.9350000000e+003;3.9376923828e+003;3.9451281738e+003;3.9482050781e+003;
2.9765625000e+000;3.9710256348e+003;3.8837180176e+003;3.8953845215e+003;3.9051281738e+003;3.9016667480e+003;3.9341025391e+003;3.9255129395e+003;3.9180769043e+003;3.9129487305e+003;3.8934614258e+003;3.8821794434e+003;3.8866667480e+003;3.8902563477e+003;3.8985898438e+003;
2.9843750000e+000;3.9244870605e+003;3.8364101563e+003;3.8476923828e+003;3.8567949219e+003;3.8524357910e+003;3.8887180176e+003;3.8793588867e+003;3.8634614258e+003;3.8635898438e+003;3.8333332520e+003;3.8308974609e+003;3.8367949219e+003;3.8357692871e+003;3.8496154785e+003;
2.9921875000e+000;3.9032050781e+003;3.8006411133e+003;3.8116667480e+003;3.8406411133e+003;3.8274357910e+003;3.8493588867e+003;3.8380769043e+003;3.8085898438e+003;3.8030769043e+003;3.7950000000e+003;3.7966667480e+003;3.8015385742e+003;3.8070512695e+003;3.8155129395e+003;
3.0000000000e+000;3.9033332520e+003;3.7988461914e+003;3.8129487305e+003;3.8405129395e+003;3.8167949219e+003;3.8426923828e+003;3.8319230957e+003;3.8003845215e+003;3.7957692871e+003;3.7864101563e+003;3.7882050781e+003;3.7957692871e+003;3.8005129395e+003;3.8094870605e+003;
3.0078125000e+000;3.8939743652e+003;3.7888461914e+003;3.7991025391e+003;3.8401281738e+003;3.7869230957e+003;3.8144870605e+003;3.8025642090e+003;3.7698718262e+003;3.7717949219e+003;3.7523076172e+003;3.7691025391e+003;3.7814101563e+003;3.7778205566e+003;3.7935898438e+003;
3.0156250000e+000;3.8983332520e+003;3.7921794434e+003;3.7926923828e+003;3.8479487305e+003;3.8011538086e+003;3.8029487305e+003;3.8005129395e+003;3.7915385742e+003;3.7946154785e+003;3.7801281738e+003;3.7953845215e+003;3.7992307129e+003;3.8014101563e+003;3.8089743652e+003;
3.0234375000e+000;3.9391025391e+003;3.8325642090e+003;3.8323076172e+003;3.8814101563e+003;3.8420512695e+003;3.8334614258e+003;3.8348718262e+003;3.8364101563e+003;3.8393588867e+003;3.8219230957e+003;3.8329487305e+003;3.8339743652e+003;3.8378205566e+003;3.8423076172e+003;
3.0312500000e+000;4.0351281738e+003;3.9211538086e+003;3.9346154785e+003;3.9746154785e+003;3.9220512695e+003;3.9189743652e+003;3.9206411133e+003;3.9388461914e+003;3.9374357910e+003;3.9137180176e+003;3.9167949219e+003;3.9266667480e+003;3.9225642090e+003;3.9314101563e+003;
3.0390625000e+000;4.0252563477e+003;3.9116667480e+003;3.9250000000e+003;3.9679487305e+003;3.9128205566e+003;3.9160256348e+003;3.9141025391e+003;3.9325642090e+003;3.9326923828e+003;3.9101281738e+003;3.9101281738e+003;3.9225642090e+003;3.9185898438e+003;3.9289743652e+003;
3.0468750000e+000;3.9447436523e+003;3.8388461914e+003;3.8423076172e+003;3.8902563477e+003;3.8462819824e+003;3.8553845215e+003;3.8429487305e+003;3.8587180176e+003;3.8641025391e+003;3.8416667480e+003;3.8356411133e+003;3.8460256348e+003;3.8485898438e+003;3.8557692871e+003;
3.0546875000e+000;3.8878205566e+003;3.7855129395e+003;3.7839743652e+003;3.8346154785e+003;3.7916667480e+003;3.8108974609e+003;3.7932050781e+003;3.8033332520e+003;3.8084614258e+003;3.7832050781e+003;3.7780769043e+003;3.7858974609e+003;3.7910256348e+003;3.7953845215e+003;
3.0625000000e+000;3.7835898438e+003;3.6776923828e+003;3.6721794434e+003;3.7273076172e+003;3.6756411133e+003;3.7364101563e+003;3.7126923828e+003;3.6969230957e+003;3.6992307129e+003;3.6626923828e+003;3.6615385742e+003;3.6658974609e+003;3.6716667480e+003;3.6773076172e+003;
3.0703125000e+000;3.6696154785e+003;3.5451281738e+003;3.5608974609e+003;3.6132050781e+003;3.5852563477e+003;3.6070512695e+003;3.5911538086e+003;3.5707692871e+003;3.5820512695e+003;3.5411538086e+003;3.5397436523e+003;3.5498718262e+003;3.5502563477e+003;3.5703845215e+003;
3.0781250000e+000;3.6405129395e+003;3.5132050781e+003;3.5302563477e+003;3.5847436523e+003;3.5535898438e+003;3.5728205566e+003;3.5579487305e+003;3.5338461914e+003;3.5460256348e+003;3.5043588867e+003;3.5097436523e+003;3.5189743652e+003;3.5197436523e+003;3.5385898438e+003;
3.0859375000e+000;3.6424357910e+003;3.5132050781e+003;3.5274357910e+003;3.5828205566e+003;3.5430769043e+003;3.5726923828e+003;3.5575642090e+003;3.5282050781e+003;3.5397436523e+003;3.4991025391e+003;3.5097436523e+003;3.5166667480e+003;3.5192307129e+003;3.5338461914e+003;
3.0937500000e+000;3.6966667480e+003;3.5629487305e+003;3.5697436523e+003;3.6207692871e+003;3.5706411133e+003;3.6250000000e+003;3.6094870605e+003;3.5746154785e+003;3.5817949219e+003;3.5473076172e+003;3.5567949219e+003;3.5621794434e+003;3.5666667480e+003;3.5765385742e+003;
3.1015625000e+000;3.7139743652e+003;3.5791025391e+003;3.5830769043e+003;3.6333332520e+003;3.5869230957e+003;3.6367949219e+003;3.6232050781e+003;3.5901281738e+003;3.5955129395e+003;3.5633332520e+003;3.5701281738e+003;3.5773076172e+003;3.5811538086e+003;3.5924357910e+003;
3.1093750000e+000;3.7166667480e+003;3.5816667480e+003;3.5839743652e+003;3.6360256348e+003;3.5943588867e+003;3.6310256348e+003;3.6193588867e+003;3.5898718262e+003;3.5946154785e+003;3.5639743652e+003;3.5696154785e+003;3.5787180176e+003;3.5816667480e+003;3.5950000000e+003;
3.1171875000e+000;3.6729487305e+003;3.5180769043e+003;3.5389743652e+003;3.5792307129e+003;3.5091025391e+003;3.5630769043e+003;3.5524357910e+003;3.5202563477e+003;3.5220512695e+003;3.5133332520e+003;3.5289743652e+003;3.5378205566e+003;3.5357692871e+003;3.5506411133e+003;
3.1250000000e+000;3.7010256348e+003;3.5453845215e+003;3.5625642090e+003;3.6011538086e+003;3.5442307129e+003;3.5767949219e+003;3.5730769043e+003;3.5487180176e+003;3.5517949219e+003;3.5428205566e+003;3.5597436523e+003;3.5638461914e+003;3.5678205566e+003;3.5792307129e+003;
3.1328125000e+000;3.7180769043e+003;3.5607692871e+003;3.5724357910e+003;3.6162819824e+003;3.5643588867e+003;3.5585898438e+003;3.5626923828e+003;3.5679487305e+003;3.5776923828e+003;3.5532050781e+003;3.5661538086e+003;3.5780769043e+003;3.5707692871e+003;3.5885898438e+003;
3.1406250000e+000;3.6850000000e+003;3.5271794434e+003;3.5441025391e+003;3.5770512695e+003;3.5203845215e+003;3.5473076172e+003;3.5406411133e+003;3.5452563477e+003;3.5511538086e+003;3.5303845215e+003;3.5321794434e+003;3.5473076172e+003;3.5465385742e+003;3.5576923828e+003;
3.1484375000e+000;3.6825642090e+003;3.5264101563e+003;3.5411538086e+003;3.5756411133e+003;3.5237180176e+003;3.5535898438e+003;3.5462819824e+003;3.5502563477e+003;3.5548718262e+003;3.5321794434e+003;3.5332050781e+003;3.5452563477e+003;3.5501281738e+003;3.5560256348e+003;
3.1562500000e+000;3.6388461914e+003;3.4688461914e+003;3.4932050781e+003;3.5384614258e+003;3.4803845215e+003;3.5233332520e+003;3.5192307129e+003;3.5117949219e+003;3.5248718262e+003;3.4876923828e+003;3.4860256348e+003;3.4958974609e+003;3.4852563477e+003;3.5000000000e+003;
3.1640625000e+000;3.6157692871e+003;3.4433332520e+003;3.4679487305e+003;3.5174357910e+003;3.4573076172e+003;3.5065385742e+003;3.5012819824e+003;3.4897436523e+003;3.5041025391e+003;3.4675642090e+003;3.4606411133e+003;3.4717949219e+003;3.4579487305e+003;3.4748718262e+003;
3.1718750000e+000;3.5624357910e+003;3.4001281738e+003;3.4116667480e+003;3.4721794434e+003;3.4192307129e+003;3.4630769043e+003;3.4546154785e+003;3.4356411133e+003;3.4439743652e+003;3.4134614258e+003;3.4007692871e+003;3.4182050781e+003;3.4117949219e+003;3.4243588867e+003;
3.1796875000e+000;3.5480769043e+003;3.3906411133e+003;3.3962819824e+003;3.4623076172e+003;3.4117949219e+003;3.4478205566e+003;3.4393588867e+003;3.4158974609e+003;3.4203845215e+003;3.3923076172e+003;3.3816667480e+003;3.4008974609e+003;3.4000000000e+003;3.4096154785e+003;
3.1875000000e+000;3.5982050781e+003;3.4250000000e+003;3.4393588867e+003;3.5065385742e+003;3.4417949219e+003;3.4837180176e+003;3.4774357910e+003;3.4489743652e+003;3.4523076172e+003;3.4278205566e+003;3.4311538086e+003;3.4370512695e+003;3.4373076172e+003;3.4460256348e+003;
3.1953125000e+000;3.6146154785e+003;3.4355129395e+003;3.4525642090e+003;3.5158974609e+003;3.4501281738e+003;3.4953845215e+003;3.4891025391e+003;3.4612819824e+003;3.4651281738e+003;3.4426923828e+003;3.4483332520e+003;3.4510256348e+003;3.4488461914e+003;3.4588461914e+003;
3.2031250000e+000;3.6180769043e+003;3.4442307129e+003;3.4529487305e+003;3.5135898438e+003;3.4541025391e+003;3.4896154785e+003;3.4828205566e+003;3.4512819824e+003;3.4535898438e+003;3.4358974609e+003;3.4424357910e+003;3.4506411133e+003;3.4475642090e+003;3.4611538086e+003;
3.2109375000e+000;3.6225642090e+003;3.4557692871e+003;3.4583332520e+003;3.5208974609e+003;3.4598718262e+003;3.4924357910e+003;3.4847436523e+003;3.4489743652e+003;3.4500000000e+003;3.4337180176e+003;3.4405129395e+003;3.4557692871e+003;3.4528205566e+003;3.4680769043e+003;
3.2187500000e+000;3.7319230957e+003;3.5569230957e+003;3.5726923828e+003;3.6347436523e+003;3.5526923828e+003;3.5980769043e+003;3.5924357910e+003;3.5574357910e+003;3.5584614258e+003;3.5429487305e+003;3.5533332520e+003;3.5752563477e+003;3.5723076172e+003;3.5812819824e+003;
3.2265625000e+000;3.7724357910e+003;3.5914101563e+003;3.6132050781e+003;3.6733332520e+003;3.5925642090e+003;3.6308974609e+003;3.6294870605e+003;3.6026923828e+003;3.6051281738e+003;3.5925642090e+003;3.5996154785e+003;3.6157692871e+003;3.6157692871e+003;3.6197436523e+003;
3.2343750000e+000;3.7791025391e+003;3.5980769043e+003;3.6203845215e+003;3.6800000000e+003;3.6055129395e+003;3.6300000000e+003;3.6324357910e+003;3.6148718262e+003;3.6189743652e+003;3.6096154785e+003;3.6103845215e+003;3.6223076172e+003;3.6239743652e+003;3.6252563477e+003;
3.2421875000e+000;3.7443588867e+003;3.5683332520e+003;3.5870512695e+003;3.6474357910e+003;3.5803845215e+003;3.5921794434e+003;3.5957692871e+003;3.5853845215e+003;3.5910256348e+003;3.5817949219e+003;3.5760256348e+003;3.5888461914e+003;3.5891025391e+003;3.5915385742e+003;
3.2500000000e+000;3.6724357910e+003;3.4952563477e+003;3.5105129395e+003;3.5703845215e+003;3.5043588867e+003;3.5194870605e+003;3.5156411133e+003;3.5134614258e+003;3.5283332520e+003;3.4969230957e+003;3.4988461914e+003;3.5174357910e+003;3.5080769043e+003;3.5206411133e+003;
3.2578125000e+000;3.6301281738e+003;3.4543588867e+003;3.4694870605e+003;3.5498718262e+003;3.4488461914e+003;3.4764101563e+003;3.4738461914e+003;3.4667949219e+003;3.4838461914e+003;3.4570512695e+003;3.4601281738e+003;3.4710256348e+003;3.4717949219e+003;3.4758974609e+003;
3.2656250000e+000;3.6083332520e+003;3.4353845215e+003;3.4465385742e+003;3.5251281738e+003;3.4312819824e+003;3.4638461914e+003;3.4584614258e+003;3.4474357910e+003;3.4667949219e+003;3.4339743652e+003;3.4341025391e+003;3.4479487305e+003;3.4501281738e+003;3.4542307129e+003;
3.2734375000e+000;3.5966667480e+003;3.4175642090e+003;3.4369230957e+003;3.4978205566e+003;3.4305129395e+003;3.4600000000e+003;3.4557692871e+003;3.4400000000e+003;3.4617949219e+003;3.4242307129e+003;3.4160256348e+003;3.4362819824e+003;3.4342307129e+003;3.4398718262e+003;
3.2812500000e+000;3.6896154785e+003;3.5082050781e+003;3.5261538086e+003;3.6046154785e+003;3.5241025391e+003;3.5566667480e+003;3.5512819824e+003;3.5246154785e+003;3.5438461914e+003;3.5157692871e+003;3.5161538086e+003;3.5265385742e+003;3.5341025391e+003;3.5326923828e+003;
3.2890625000e+000;3.7493588867e+003;3.5746154785e+003;3.5862819824e+003;3.6697436523e+003;3.5974357910e+003;3.6189743652e+003;3.6142307129e+003;3.5828205566e+003;3.6015385742e+003;3.5739743652e+003;3.5791025391e+003;3.5879487305e+003;3.5932050781e+003;3.5928205566e+003;
3.2968750000e+000;3.9423076172e+003;3.7832050781e+003;3.7864101563e+003;3.8571794434e+003;3.8169230957e+003;3.8073076172e+003;3.8092307129e+003;3.7742307129e+003;3.7894870605e+003;3.7748718262e+003;3.7771794434e+003;3.7837180176e+003;3.7812819824e+003;3.7852563477e+003;
3.3046875000e+000;4.0371794434e+003;3.8871794434e+003;3.8856411133e+003;3.9479487305e+003;3.9133332520e+003;3.9024357910e+003;3.9051281738e+003;3.8721794434e+003;3.8848718262e+003;3.8803845215e+003;3.8765385742e+003;3.8815385742e+003;3.8791025391e+003;3.8821794434e+003;
3.3125000000e+000;4.1556411133e+003;4.0257692871e+003;4.0185898438e+003;4.0676923828e+003;4.0275642090e+003;4.0373076172e+003;4.0333332520e+003;4.0005129395e+003;4.0069230957e+003;4.0167949219e+003;4.0005129395e+003;4.0148718262e+003;4.0207692871e+003;4.0162819824e+003;
3.3203125000e+000;4.2028203125e+003;4.0773076172e+003;4.0703845215e+003;4.1132050781e+003;4.0873076172e+003;4.0797436523e+003;4.0791025391e+003;4.0474357910e+003;4.0520512695e+003;4.0655129395e+003;4.0483332520e+003;4.0657692871e+003;4.0738461914e+003;4.0664101563e+003;
3.3281250000e+000;4.3183334961e+003;4.2003847656e+003;4.1967949219e+003;4.2324360352e+003;4.2243588867e+003;4.1841025391e+003;4.1916665039e+003;4.1742309570e+003;4.1735898438e+003;4.1976923828e+003;4.1824360352e+003;4.1958974609e+003;4.2023076172e+003;4.1923076172e+003;
3.3359375000e+000;4.3408974609e+003;4.2264101563e+003;4.2270512695e+003;4.2644873047e+003;4.2464101563e+003;4.2114101563e+003;4.2187177734e+003;4.2089741211e+003;4.2061538086e+003;4.2324360352e+003;4.2215385742e+003;4.2307690430e+003;4.2311538086e+003;4.2248715820e+003;
3.3437500000e+000;4.3385898438e+003;4.2406411133e+003;4.2402563477e+003;4.2739741211e+003;4.2487177734e+003;4.2196152344e+003;4.2243588867e+003;4.2280771484e+003;4.2325639648e+003;4.2530771484e+003;4.2392309570e+003;4.2480771484e+003;4.2425639648e+003;4.2375639648e+003;
3.3515625000e+000;4.3474360352e+003;4.2561538086e+003;4.2506411133e+003;4.2776923828e+003;4.2656411133e+003;4.2217949219e+003;4.2298715820e+003;4.2379487305e+003;4.2474360352e+003;4.2674360352e+003;4.2458974609e+003;4.2566665039e+003;4.2571796875e+003;4.2450000000e+003;
3.3593750000e+000;4.3466665039e+003;4.2605126953e+003;4.2511538086e+003;4.2750000000e+003;4.2688461914e+003;4.2161538086e+003;4.2278203125e+003;4.2389741211e+003;4.2511538086e+003;4.2710258789e+003;4.2462822266e+003;4.2574360352e+003;4.2623076172e+003;4.2442309570e+003;
3.3671875000e+000;4.3348715820e+003;4.2519228516e+003;4.2411538086e+003;4.2674360352e+003;4.2550000000e+003;4.2048715820e+003;4.2185898438e+003;4.2303847656e+003;4.2423076172e+003;4.2616665039e+003;4.2406411133e+003;4.2494873047e+003;4.2555126953e+003;4.2350000000e+003;
3.3750000000e+000;4.3476923828e+003;4.2738461914e+003;4.2775639648e+003;4.3091025391e+003;4.2851284180e+003;4.2429487305e+003;4.2516665039e+003;4.2682050781e+003;4.2762822266e+003;4.2947436523e+003;4.2773076172e+003;4.2858974609e+003;4.2873076172e+003;4.2652563477e+003;
3.3828125000e+000;4.1561538086e+003;4.1035898438e+003;4.0829487305e+003;4.1315385742e+003;4.1046152344e+003;4.0923076172e+003;4.0869230957e+003;4.0823076172e+003;4.0951281738e+003;4.1080771484e+003;4.0861538086e+003;4.1015385742e+003;4.0942307129e+003;4.0767949219e+003;
3.3906250000e+000;4.0996152344e+003;4.0450000000e+003;4.0291025391e+003;4.0751281738e+003;4.0446154785e+003;4.0441025391e+003;4.0367949219e+003;4.0267949219e+003;4.0382050781e+003;4.0479487305e+003;4.0338461914e+003;4.0443588867e+003;4.0360256348e+003;4.0194870605e+003;
3.3984375000e+000;4.0157692871e+003;3.9505129395e+003;3.9550000000e+003;3.9943588867e+003;3.9656411133e+003;3.9634614258e+003;3.9573076172e+003;3.9452563477e+003;3.9501281738e+003;3.9596154785e+003;3.9492307129e+003;3.9594870605e+003;3.9557692871e+003;3.9344870605e+003;
3.4062500000e+000;3.9402563477e+003;3.8774357910e+003;3.8775642090e+003;3.9323076172e+003;3.9028205566e+003;3.8961538086e+003;3.8938461914e+003;3.8712819824e+003;3.8744870605e+003;3.8791025391e+003;3.8691025391e+003;3.8933332520e+003;3.8823076172e+003;3.8647436523e+003;
3.4140625000e+000;3.9178205566e+003;3.8560256348e+003;3.8534614258e+003;3.9078205566e+003;3.8784614258e+003;3.8720512695e+003;3.8721794434e+003;3.8482050781e+003;3.8520512695e+003;3.8552563477e+003;3.8496154785e+003;3.8734614258e+003;3.8589743652e+003;3.8452563477e+003;
3.4218750000e+000;3.8965385742e+003;3.8237180176e+003;3.8297436523e+003;3.8766667480e+003;3.8458974609e+003;3.8412819824e+003;3.8430769043e+003;3.8255129395e+003;3.8264101563e+003;3.8319230957e+003;3.8321794434e+003;3.8485898438e+003;3.8371794434e+003;3.8250000000e+003;
3.4296875000e+000;3.8887180176e+003;3.8078205566e+003;3.8207692871e+003;3.8652563477e+003;3.8287180176e+003;3.8285898438e+003;3.8297436523e+003;3.8166667480e+003;3.8150000000e+003;3.8211538086e+003;3.8224357910e+003;3.8369230957e+003;3.8261538086e+003;3.8148718262e+003;
