Time (s);AF3;F7;F3;FC5;T7;P7;O1;O2;P8;T8;FC6;F4;F8;AF4;Sampling Rate
0.0000000000e+000;4.0203845215e+003;4.0153845215e+003;4.0124357910e+003;4.0080769043e+003;4.0205129395e+003;4.0069230957e+003;4.0116667480e+003;4.0193588867e+003;4.0273076172e+003;4.0532050781e+003;4.0174357910e+003;4.0329487305e+003;4.0083332520e+003;4.0073076172e+003;128
7.8125000000e-003;4.0298718262e+003;4.0244870605e+003;4.0206411133e+003;4.0212819824e+003;4.0335898438e+003;4.0151281738e+003;4.0221794434e+003;4.0250000000e+003;4.0280769043e+003;4.0573076172e+003;4.0229487305e+003;4.0389743652e+003;4.0156411133e+003;4.0143588867e+003;
1.5625000000e-002;4.0879487305e+003;4.0956411133e+003;4.0747436523e+003;4.0812819824e+003;4.0978203125e+003;4.0711538086e+003;4.0797436523e+003;4.0744870605e+003;4.0730769043e+003;4.1091025391e+003;4.0791025391e+003;4.0901281738e+003;4.0746154785e+003;4.0698718262e+003;
2.3437500000e-002;4.0992309570e+003;4.0982050781e+003;4.0835898438e+003;4.0802563477e+003;4.1042309570e+003;4.0864101563e+003;4.0942307129e+003;4.0817949219e+003;4.0824357910e+003;4.1214101563e+003;4.0858974609e+003;4.0984614258e+003;4.0837180176e+003;4.0812819824e+003;
3.1250000000e-002;4.1258974609e+003;4.1194873047e+003;4.1094873047e+003;4.1044873047e+003;4.1319228516e+003;4.1110258789e+003;4.1182050781e+003;4.1130771484e+003;4.1152563477e+003;4.1562822266e+003;4.1153847656e+003;4.1294873047e+003;4.1124360352e+003;4.1076923828e+003;
3.9062500000e-002;4.1150000000e+003;4.1058974609e+003;4.1005126953e+003;4.0973076172e+003;4.1219228516e+003;4.1034614258e+003;4.1083334961e+003;4.1085898438e+003;4.1139741211e+003;4.1523076172e+003;4.1093588867e+003;4.1255126953e+003;4.1037177734e+003;4.0979487305e+003;
4.6875000000e-002;4.0833332520e+003;4.0794870605e+003;4.0733332520e+003;4.0761538086e+003;4.0966665039e+003;4.0794870605e+003;4.0842307129e+003;4.0812819824e+003;4.0973076172e+003;4.1203847656e+003;4.0819230957e+003;4.0966665039e+003;4.0724357910e+003;4.0678205566e+003;
5.4687500000e-002;4.1152563477e+003;4.1151284180e+003;4.1042309570e+003;4.1056411133e+003;4.1291025391e+003;4.1082050781e+003;4.1152563477e+003;4.1133334961e+003;4.1337177734e+003;4.1525639648e+003;4.1135898438e+003;4.1241025391e+003;4.1038461914e+003;4.0993588867e+003;
6.2500000000e-002;4.1142309570e+003;4.1078203125e+003;4.1000000000e+003;4.0907692871e+003;4.0960258789e+003;4.1039741211e+003;4.1096152344e+003;4.1244873047e+003;4.1389741211e+003;4.1626923828e+003;4.1160258789e+003;4.1251284180e+003;4.1075639648e+003;4.0998715820e+003;
7.0312500000e-002;4.1867949219e+003;4.1855126953e+003;4.1758974609e+003;4.1606411133e+003;4.1969228516e+003;4.1625639648e+003;4.1730771484e+003;4.1858974609e+003;4.2055126953e+003;4.2284614258e+003;4.1907690430e+003;4.1985898438e+003;4.1878203125e+003;4.1741025391e+003;
7.8125000000e-002;4.1989741211e+003;4.2019228516e+003;4.1897436523e+003;4.1758974609e+003;4.2229487305e+003;4.1714101563e+003;4.1832050781e+003;4.1952563477e+003;4.2178203125e+003;4.2424360352e+003;4.2035898438e+003;4.2105126953e+003;4.2003847656e+003;4.1861538086e+003;
8.5937500000e-002;4.1905126953e+003;4.1970512695e+003;4.1810258789e+003;4.1707690430e+003;4.2178203125e+003;4.1624360352e+003;4.1756411133e+003;4.1838461914e+003;4.2069228516e+003;4.2341025391e+003;4.1942309570e+003;4.2001284180e+003;4.1901284180e+003;4.1753847656e+003;
9.3750000000e-002;4.1965385742e+003;4.2052563477e+003;4.1835898438e+003;4.1766665039e+003;4.2167949219e+003;4.1673076172e+003;4.1817949219e+003;4.1864101563e+003;4.2078203125e+003;4.2380771484e+003;4.1980771484e+003;4.2019228516e+003;4.1932050781e+003;4.1770512695e+003;
1.0156250000e-001;4.1557690430e+003;4.1551284180e+003;4.1446152344e+003;4.1279487305e+003;4.1569228516e+003;4.1353847656e+003;4.1380771484e+003;4.1553847656e+003;4.1642309570e+003;4.1925639648e+003;4.1538461914e+003;4.1587177734e+003;4.1457690430e+003;4.1346152344e+003;
1.0937500000e-001;4.1188461914e+003;4.1191025391e+003;4.1102563477e+003;4.0923076172e+003;4.1264101563e+003;4.1060258789e+003;4.1083334961e+003;4.1161538086e+003;4.1244873047e+003;4.1508974609e+003;4.1171796875e+003;4.1215385742e+003;4.1094873047e+003;4.0979487305e+003;
1.1718750000e-001;4.1516665039e+003;4.1539741211e+003;4.1421796875e+003;4.1300000000e+003;4.1637177734e+003;4.1428203125e+003;4.1433334961e+003;4.1464101563e+003;4.1466665039e+003;4.1842309570e+003;4.1564101563e+003;4.1633334961e+003;4.1487177734e+003;4.1392309570e+003;
1.2500000000e-001;4.1119228516e+003;4.1103847656e+003;4.1039741211e+003;4.0969228516e+003;4.1197436523e+003;4.1052563477e+003;4.1043588867e+003;4.1065385742e+003;4.1038461914e+003;4.1428203125e+003;4.1165385742e+003;4.1265385742e+003;4.1082050781e+003;4.1032050781e+003;
1.3281250000e-001;4.0688461914e+003;4.0638461914e+003;4.0585898438e+003;4.0571794434e+003;4.0726923828e+003;4.0623076172e+003;4.0664101563e+003;4.0548718262e+003;4.0551281738e+003;4.0912819824e+003;4.0680769043e+003;4.0783332520e+003;4.0611538086e+003;4.0598718262e+003;
1.4062500000e-001;4.0225642090e+003;4.0176923828e+003;4.0142307129e+003;4.0097436523e+003;4.0224357910e+003;4.0230769043e+003;4.0221794434e+003;4.0152563477e+003;4.0225642090e+003;4.0473076172e+003;4.0192307129e+003;4.0379487305e+003;4.0123076172e+003;4.0148718262e+003;
1.4843750000e-001;4.0458974609e+003;4.0403845215e+003;4.0373076172e+003;4.0321794434e+003;4.0388461914e+003;4.0421794434e+003;4.0419230957e+003;4.0382050781e+003;4.0478205566e+003;4.0689743652e+003;4.0417949219e+003;4.0583332520e+003;4.0332050781e+003;4.0367949219e+003;
1.5625000000e-001;4.0892307129e+003;4.0837180176e+003;4.0814101563e+003;4.0724357910e+003;4.0871794434e+003;4.0785898438e+003;4.0819230957e+003;4.0844870605e+003;4.1010258789e+003;4.1206411133e+003;4.0875642090e+003;4.0984614258e+003;4.0769230957e+003;4.0770512695e+003;
1.6406250000e-001;4.0767949219e+003;4.0717949219e+003;4.0693588867e+003;4.0621794434e+003;4.0869230957e+003;4.0673076172e+003;4.0717949219e+003;4.0719230957e+003;4.0914101563e+003;4.1103847656e+003;4.0748718262e+003;4.0857692871e+003;4.0653845215e+003;4.0628205566e+003;
1.7187500000e-001;4.2197436523e+003;4.2114101563e+003;4.1984614258e+003;4.1951284180e+003;4.2251284180e+003;4.1819228516e+003;4.1896152344e+003;4.1975639648e+003;4.2207690430e+003;4.2425639648e+003;4.2082050781e+003;4.2187177734e+003;4.2056411133e+003;4.2005126953e+003;
1.7968750000e-001;4.2562822266e+003;4.2466665039e+003;4.2324360352e+003;4.2233334961e+003;4.2462822266e+003;4.2080771484e+003;4.2161538086e+003;4.2324360352e+003;4.2543588867e+003;4.2808974609e+003;4.2458974609e+003;4.2556411133e+003;4.2417949219e+003;4.2379487305e+003;
1.8750000000e-001;4.2429487305e+003;4.2339741211e+003;4.2202563477e+003;4.2057690430e+003;4.2251284180e+003;4.1935898438e+003;4.2026923828e+003;4.2194873047e+003;4.2393588867e+003;4.2700000000e+003;4.2356411133e+003;4.2441025391e+003;4.2289741211e+003;4.2253847656e+003;
1.9531250000e-001;4.3069228516e+003;4.2983334961e+003;4.2932050781e+003;4.2796152344e+003;4.2976923828e+003;4.2666665039e+003;4.2778203125e+003;4.2764101563e+003;4.2912822266e+003;4.3248715820e+003;4.2926923828e+003;4.3041025391e+003;4.2870512695e+003;4.2826923828e+003;
2.0312500000e-001;4.2991025391e+003;4.2893588867e+003;4.2841025391e+003;4.2694873047e+003;4.2876923828e+003;4.2589741211e+003;4.2691025391e+003;4.2635898438e+003;4.2758974609e+003;4.3091025391e+003;4.2791025391e+003;4.2920512695e+003;4.2750000000e+003;4.2707690430e+003;
2.1093750000e-001;4.3612822266e+003;4.3589741211e+003;4.3396152344e+003;4.3173076172e+003;4.3643588867e+003;4.3150000000e+003;4.3316665039e+003;4.3264101563e+003;4.3311538086e+003;4.3757690430e+003;4.3433334961e+003;4.3520512695e+003;4.3364101563e+003;4.3278203125e+003;
2.1875000000e-001;4.3356411133e+003;4.3352563477e+003;4.3166665039e+003;4.2956411133e+003;4.3450000000e+003;4.2966665039e+003;4.3098715820e+003;4.3064101563e+003;4.3096152344e+003;4.3525639648e+003;4.3201284180e+003;4.3301284180e+003;4.3116665039e+003;4.3041025391e+003;
2.2656250000e-001;4.3041025391e+003;4.3062822266e+003;4.2900000000e+003;4.2747436523e+003;4.3158974609e+003;4.2785898438e+003;4.2856411133e+003;4.2753847656e+003;4.2801284180e+003;4.3144873047e+003;4.2879487305e+003;4.2980771484e+003;4.2839741211e+003;4.2705126953e+003;
2.3437500000e-001;4.3217949219e+003;4.3251284180e+003;4.3067949219e+003;4.2948715820e+003;4.3264101563e+003;4.2960258789e+003;4.3039741211e+003;4.2917949219e+003;4.2989741211e+003;4.3328203125e+003;4.3066665039e+003;4.3146152344e+003;4.3052563477e+003;4.2860258789e+003;
2.4218750000e-001;4.2292309570e+003;4.2307690430e+003;4.2108974609e+003;4.2091025391e+003;4.2297436523e+003;4.2102563477e+003;4.2173076172e+003;4.2020512695e+003;4.2165385742e+003;4.2461538086e+003;4.2180771484e+003;4.2212822266e+003;4.2129487305e+003;4.1944873047e+003;
2.5000000000e-001;4.2471796875e+003;4.2430771484e+003;4.2251284180e+003;4.2139741211e+003;4.2760258789e+003;4.2225639648e+003;4.2265385742e+003;4.2180771484e+003;4.2407690430e+003;4.2596152344e+003;4.2369228516e+003;4.2383334961e+003;4.2303847656e+003;4.2158974609e+003;
2.5781250000e-001;4.2282050781e+003;4.2225639648e+003;4.2057690430e+003;4.1971796875e+003;4.2517949219e+003;4.2041025391e+003;4.2084614258e+003;4.2038461914e+003;4.2261538086e+003;4.2430771484e+003;4.2203847656e+003;4.2252563477e+003;4.2139741211e+003;4.2008974609e+003;
2.6562500000e-001;4.2057690430e+003;4.1992309570e+003;4.1819228516e+003;4.1791025391e+003;4.2189741211e+003;4.1833334961e+003;4.1892309570e+003;4.1843588867e+003;4.2044873047e+003;4.2202563477e+003;4.1982050781e+003;4.2060258789e+003;4.1929487305e+003;4.1815385742e+003;
2.7343750000e-001;4.2696152344e+003;4.2655126953e+003;4.2410258789e+003;4.2424360352e+003;4.2702563477e+003;4.2420512695e+003;4.2519228516e+003;4.2480771484e+003;4.2629487305e+003;4.2833334961e+003;4.2594873047e+003;4.2655126953e+003;4.2569228516e+003;4.2478203125e+003;
2.8125000000e-001;4.3126923828e+003;4.3111538086e+003;4.2852563477e+003;4.2824360352e+003;4.3165385742e+003;4.2829487305e+003;4.2923076172e+003;4.2943588867e+003;4.3069228516e+003;4.3300000000e+003;4.3038461914e+003;4.3076923828e+003;4.3006411133e+003;4.2928203125e+003;
2.8906250000e-001;4.3179487305e+003;4.3175639648e+003;4.2944873047e+003;4.2864101563e+003;4.3276923828e+003;4.2903847656e+003;4.2978203125e+003;4.3044873047e+003;4.3152563477e+003;4.3378203125e+003;4.3101284180e+003;4.3138461914e+003;4.3064101563e+003;4.3000000000e+003;
2.9687500000e-001;4.2973076172e+003;4.2911538086e+003;4.2766665039e+003;4.2633334961e+003;4.2982050781e+003;4.2617949219e+003;4.2707690430e+003;4.2798715820e+003;4.2926923828e+003;4.3107690430e+003;4.2824360352e+003;4.2889741211e+003;4.2816665039e+003;4.2764101563e+003;
3.0468750000e-001;4.2602563477e+003;4.2575639648e+003;4.2394873047e+003;4.2280771484e+003;4.2630771484e+003;4.2274360352e+003;4.2343588867e+003;4.2406411133e+003;4.2521796875e+003;4.2694873047e+003;4.2452563477e+003;4.2526923828e+003;4.2434614258e+003;4.2410258789e+003;
3.1250000000e-001;4.3200000000e+003;4.3187177734e+003;4.2933334961e+003;4.2848715820e+003;4.3094873047e+003;4.2821796875e+003;4.2879487305e+003;4.2921796875e+003;4.3023076172e+003;4.3250000000e+003;4.3035898438e+003;4.3069228516e+003;4.3051284180e+003;4.3002563477e+003;
3.2031250000e-001;4.2921796875e+003;4.2879487305e+003;4.2685898438e+003;4.2526923828e+003;4.2794873047e+003;4.2570512695e+003;4.2644873047e+003;4.2652563477e+003;4.2751284180e+003;4.2984614258e+003;4.2730771484e+003;4.2800000000e+003;4.2803847656e+003;4.2751284180e+003;
3.2812500000e-001;4.3353847656e+003;4.3305126953e+003;4.3098715820e+003;4.2925639648e+003;4.3356411133e+003;4.2944873047e+003;4.3024360352e+003;4.3030771484e+003;4.3129487305e+003;4.3387177734e+003;4.3139741211e+003;4.3203847656e+003;4.3217949219e+003;4.3150000000e+003;
3.3593750000e-001;4.4080771484e+003;4.4037177734e+003;4.3808974609e+003;4.3665385742e+003;4.4182050781e+003;4.3637177734e+003;4.3710258789e+003;4.3752563477e+003;4.3787177734e+003;4.4142309570e+003;4.3882050781e+003;4.3966665039e+003;4.3901284180e+003;4.3815385742e+003;
3.4375000000e-001;4.4287177734e+003;4.4293588867e+003;4.4002563477e+003;4.3848715820e+003;4.4315385742e+003;4.3869228516e+003;4.3974360352e+003;4.3983334961e+003;4.4007690430e+003;4.4342309570e+003;4.4103847656e+003;4.4158974609e+003;4.4125639648e+003;4.4023076172e+003;
3.5156250000e-001;4.5074360352e+003;4.5139741211e+003;4.4744873047e+003;4.4550000000e+003;4.5055126953e+003;4.4655126953e+003;4.4788461914e+003;4.4821796875e+003;4.4896152344e+003;4.5171796875e+003;4.4930771484e+003;4.4921796875e+003;4.4947436523e+003;4.4838461914e+003;
3.5937500000e-001;4.5023076172e+003;4.5058974609e+003;4.4693588867e+003;4.4503847656e+003;4.5047436523e+003;4.4624360352e+003;4.4737177734e+003;4.4789741211e+003;4.4887177734e+003;4.5138461914e+003;4.4876923828e+003;4.4882050781e+003;4.4874360352e+003;4.4791025391e+003;
3.6718750000e-001;4.5026923828e+003;4.5001284180e+003;4.4691025391e+003;4.4539741211e+003;4.5051284180e+003;4.4580771484e+003;4.4746152344e+003;4.4760258789e+003;4.4821796875e+003;4.5064101563e+003;4.4817949219e+003;4.4828203125e+003;4.4800000000e+003;4.4694873047e+003;
3.7500000000e-001;4.5314101563e+003;4.5292309570e+003;4.4975639648e+003;4.4800000000e+003;4.5282050781e+003;4.4835898438e+003;4.4997436523e+003;4.5082050781e+003;4.5132050781e+003;4.5392309570e+003;4.5128203125e+003;4.5128203125e+003;4.5125639648e+003;4.5003847656e+003;
3.8281250000e-001;4.4888461914e+003;4.4858974609e+003;4.4593588867e+003;4.4389741211e+003;4.4869228516e+003;4.4487177734e+003;4.4570512695e+003;4.4724360352e+003;4.4798715820e+003;4.5048715820e+003;4.4769228516e+003;4.4829487305e+003;4.4775639648e+003;4.4705126953e+003;
3.9062500000e-001;4.4773076172e+003;4.4738461914e+003;4.4478203125e+003;4.4269228516e+003;4.4767949219e+003;4.4367949219e+003;4.4447436523e+003;4.4569228516e+003;4.4671796875e+003;4.4908974609e+003;4.4670512695e+003;4.4741025391e+003;4.4644873047e+003;4.4611538086e+003;
3.9843750000e-001;4.5400000000e+003;4.5342309570e+003;4.5078203125e+003;4.4788461914e+003;4.5065385742e+003;4.4756411133e+003;4.4905126953e+003;4.5124360352e+003;4.5271796875e+003;4.5551284180e+003;4.5341025391e+003;4.5321796875e+003;4.5198715820e+003;4.5198715820e+003;
4.0625000000e-001;4.5115385742e+003;4.5042309570e+003;4.4824360352e+003;4.4537177734e+003;4.4744873047e+003;4.4501284180e+003;4.4643588867e+003;4.4860258789e+003;4.5011538086e+003;4.5282050781e+003;4.5065385742e+003;4.5030771484e+003;4.4933334961e+003;4.4925639648e+003;
4.1406250000e-001;4.5115385742e+003;4.5042309570e+003;4.4824360352e+003;4.4537177734e+003;4.4744873047e+003;4.4501284180e+003;4.4643588867e+003;4.4860258789e+003;4.5011538086e+003;4.5282050781e+003;4.5065385742e+003;4.5030771484e+003;4.4933334961e+003;4.4925639648e+003;
4.2187500000e-001;4.5016665039e+003;4.4930771484e+003;4.4744873047e+003;4.4464101563e+003;4.4738461914e+003;4.4441025391e+003;4.4587177734e+003;4.4752563477e+003;4.4905126953e+003;4.5171796875e+003;4.4969228516e+003;4.4923076172e+003;4.4858974609e+003;4.4835898438e+003;
4.2968750000e-001;4.5551284180e+003;4.5410258789e+003;4.5270512695e+003;4.4933334961e+003;4.5465385742e+003;4.4902563477e+003;4.5103847656e+003;4.5279487305e+003;4.5346152344e+003;4.5710258789e+003;4.5561538086e+003;4.5567949219e+003;4.5408974609e+003;4.5392309570e+003;
4.3750000000e-001;4.5107690430e+003;4.4982050781e+003;4.4832050781e+003;4.4555126953e+003;4.4942309570e+003;4.4483334961e+003;4.4683334961e+003;4.4824360352e+003;4.4878203125e+003;4.5220512695e+003;4.5076923828e+003;4.5101284180e+003;4.4948715820e+003;4.4921796875e+003;
4.4531250000e-001;4.5026923828e+003;4.4967949219e+003;4.4728203125e+003;4.4484614258e+003;4.4965385742e+003;4.4501284180e+003;4.4615385742e+003;4.4710258789e+003;4.4761538086e+003;4.5092309570e+003;4.4932050781e+003;4.4925639648e+003;4.4841025391e+003;4.4812822266e+003;
4.5312500000e-001;4.4746152344e+003;4.4692309570e+003;4.4473076172e+003;4.4194873047e+003;4.4712822266e+003;4.4303847656e+003;4.4379487305e+003;4.4465385742e+003;4.4489741211e+003;4.4801284180e+003;4.4678203125e+003;4.4658974609e+003;4.4550000000e+003;4.4566665039e+003;
4.6093750000e-001;4.4732050781e+003;4.4692309570e+003;4.4475639648e+003;4.4205126953e+003;4.4628203125e+003;4.4341025391e+003;4.4451284180e+003;4.4482050781e+003;4.4470512695e+003;4.4757690430e+003;4.4680771484e+003;4.4623076172e+003;4.4547436523e+003;4.4585898438e+003;
4.6875000000e-001;4.4800000000e+003;4.4820512695e+003;4.4570512695e+003;4.4456411133e+003;4.4892309570e+003;4.4521796875e+003;4.4566665039e+003;4.4584614258e+003;4.4732050781e+003;4.4937177734e+003;4.4810258789e+003;4.4701284180e+003;4.4685898438e+003;4.4673076172e+003;
4.7656250000e-001;4.4888461914e+003;4.4928203125e+003;4.4650000000e+003;4.4538461914e+003;4.4906411133e+003;4.4611538086e+003;4.4656411133e+003;4.4629487305e+003;4.4816665039e+003;4.4985898438e+003;4.4875639648e+003;4.4730771484e+003;4.4742309570e+003;4.4737177734e+003;
4.8437500000e-001;4.5453847656e+003;4.5538461914e+003;4.5200000000e+003;4.5025639648e+003;4.5279487305e+003;4.5069228516e+003;4.5180771484e+003;4.5205126953e+003;4.5401284180e+003;4.5614101563e+003;4.5429487305e+003;4.5296152344e+003;4.5321796875e+003;4.5314101563e+003;
4.9218750000e-001;4.5351284180e+003;4.5437177734e+003;4.5114101563e+003;4.4898715820e+003;4.5205126953e+003;4.4938461914e+003;4.5067949219e+003;4.5146152344e+003;4.5315385742e+003;4.5564101563e+003;4.5347436523e+003;4.5269228516e+003;4.5252563477e+003;4.5247436523e+003;
5.0000000000e-001;4.5100000000e+003;4.5119228516e+003;4.4902563477e+003;4.4564101563e+003;4.5207690430e+003;4.4642309570e+003;4.4757690430e+003;4.4955126953e+003;4.5074360352e+003;4.5326923828e+003;4.5219228516e+003;4.5160258789e+003;4.5089741211e+003;4.5100000000e+003;
5.0781250000e-001;4.4984614258e+003;4.4993588867e+003;4.4794873047e+003;4.4462822266e+003;4.5030771484e+003;4.4553847656e+003;4.4650000000e+003;4.4888461914e+003;4.5006411133e+003;4.5226923828e+003;4.5150000000e+003;4.5064101563e+003;4.5011538086e+003;4.5019228516e+003;
5.1562500000e-001;4.4626923828e+003;4.4619228516e+003;4.4416665039e+003;4.4193588867e+003;4.4498715820e+003;4.4252563477e+003;4.4371796875e+003;4.4552563477e+003;4.4670512695e+003;4.4847436523e+003;4.4778203125e+003;4.4715385742e+003;4.4683334961e+003;4.4651284180e+003;
5.2343750000e-001;4.4967949219e+003;4.4938461914e+003;4.4711538086e+003;4.4525639648e+003;4.4832050781e+003;4.4523076172e+003;4.4689741211e+003;4.4835898438e+003;4.4958974609e+003;4.5155126953e+003;4.5079487305e+003;4.5035898438e+003;4.5002563477e+003;4.4955126953e+003;
5.3125000000e-001;4.4993588867e+003;4.4937177734e+003;4.4760258789e+003;4.4489741211e+003;4.4965385742e+003;4.4470512695e+003;4.4620512695e+003;4.4857690430e+003;4.4952563477e+003;4.5210258789e+003;4.5115385742e+003;4.5092309570e+003;4.4969228516e+003;4.5028203125e+003;
5.3906250000e-001;4.4275639648e+003;4.4246152344e+003;4.4094873047e+003;4.3810258789e+003;4.4242309570e+003;4.3862822266e+003;4.3979487305e+003;4.4158974609e+003;4.4230771484e+003;4.4450000000e+003;4.4400000000e+003;4.4361538086e+003;4.4260258789e+003;4.4317949219e+003;
5.4687500000e-001;4.3938461914e+003;4.3932050781e+003;4.3784614258e+003;4.3502563477e+003;4.3888461914e+003;4.3598715820e+003;4.3703847656e+003;4.3802563477e+003;4.3862822266e+003;4.4050000000e+003;4.4048715820e+003;4.3982050781e+003;4.3938461914e+003;4.3950000000e+003;
5.5468750000e-001;4.4070512695e+003;4.4064101563e+003;4.3912822266e+003;4.3646152344e+003;4.4000000000e+003;4.3733334961e+003;4.3839741211e+003;4.3893588867e+003;4.3964101563e+003;4.4147436523e+003;4.4162822266e+003;4.4079487305e+003;4.4082050781e+003;4.4041025391e+003;
5.6250000000e-001;4.4565385742e+003;4.4592309570e+003;4.4342309570e+003;4.4192309570e+003;4.4578203125e+003;4.4221796875e+003;4.4273076172e+003;4.4312822266e+003;4.4450000000e+003;4.4679487305e+003;4.4606411133e+003;4.4535898438e+003;4.4538461914e+003;4.4530771484e+003;
5.7031250000e-001;4.5032050781e+003;4.5080771484e+003;4.4776923828e+003;4.4643588867e+003;4.5061538086e+003;4.4652563477e+003;4.4708974609e+003;4.4773076172e+003;4.4914101563e+003;4.5146152344e+003;4.5062822266e+003;4.4951284180e+003;4.5000000000e+003;4.4979487305e+003;
5.7812500000e-001;4.5006411133e+003;4.5058974609e+003;4.4767949219e+003;4.4666665039e+003;4.4814101563e+003;4.4647436523e+003;4.4725639648e+003;4.4826923828e+003;4.4941025391e+003;4.5166665039e+003;4.5053847656e+003;4.4953847656e+003;4.5005126953e+003;4.4942309570e+003;
5.8593750000e-001;4.6950000000e+003;4.7017949219e+003;4.6624360352e+003;4.6335898438e+003;4.6947436523e+003;4.6410258789e+003;4.6539741211e+003;4.6701284180e+003;4.6807690430e+003;4.7115385742e+003;4.6955126953e+003;4.6805126953e+003;4.6902563477e+003;4.6826923828e+003;
5.9375000000e-001;4.7343588867e+003;4.7382050781e+003;4.6997436523e+003;4.6694873047e+003;4.7416665039e+003;4.6739741211e+003;4.6866665039e+003;4.7085898438e+003;4.7187177734e+003;4.7508974609e+003;4.7321796875e+003;4.7171796875e+003;4.7257690430e+003;4.7198715820e+003;
6.0156250000e-001;4.8423076172e+003;4.8478203125e+003;4.8023076172e+003;4.7774360352e+003;4.8328203125e+003;4.7684614258e+003;4.7903847656e+003;4.8047436523e+003;4.8133334961e+003;4.8476923828e+003;4.8262822266e+003;4.8094873047e+003;4.8232050781e+003;4.8132050781e+003;
6.0937500000e-001;4.8205126953e+003;4.8247436523e+003;4.7871796875e+003;4.7492309570e+003;4.8047436523e+003;4.7469228516e+003;4.7667949219e+003;4.7921796875e+003;4.7964101563e+003;4.8353847656e+003;4.8060258789e+003;4.7910258789e+003;4.7948715820e+003;4.7916665039e+003;
6.1718750000e-001;4.7503847656e+003;4.7507690430e+003;4.7214101563e+003;4.6821796875e+003;4.7400000000e+003;4.6819228516e+003;4.6989741211e+003;4.7238461914e+003;4.7266665039e+003;4.7623076172e+003;4.7374360352e+003;4.7206411133e+003;4.7232050781e+003;4.7206411133e+003;
6.2500000000e-001;4.6398715820e+003;4.6435898438e+003;4.6137177734e+003;4.5791025391e+003;4.6334614258e+003;4.5842309570e+003;4.5974360352e+003;4.6180771484e+003;4.6207690430e+003;4.6471796875e+003;4.6328203125e+003;4.6137177734e+003;4.6174360352e+003;4.6141025391e+003;
6.3281250000e-001;4.6079487305e+003;4.6148715820e+003;4.5802563477e+003;4.5520512695e+003;4.6010258789e+003;4.5588461914e+003;4.5714101563e+003;4.5871796875e+003;4.5887177734e+003;4.6123076172e+003;4.6010258789e+003;4.5850000000e+003;4.5858974609e+003;4.5862822266e+003;
6.4062500000e-001;4.6126923828e+003;4.6183334961e+003;4.5801284180e+003;4.5635898438e+003;4.6079487305e+003;4.5665385742e+003;4.5821796875e+003;4.5911538086e+003;4.5906411133e+003;4.6124360352e+003;4.6053847656e+003;4.5926923828e+003;4.5882050781e+003;4.5943588867e+003;
6.4843750000e-001;4.6107690430e+003;4.6126923828e+003;4.5794873047e+003;4.5634614258e+003;4.6076923828e+003;4.5650000000e+003;4.5810258789e+003;4.5923076172e+003;4.5917949219e+003;4.6134614258e+003;4.6065385742e+003;4.5943588867e+003;4.5867949219e+003;4.5933334961e+003;
6.5625000000e-001;4.4841025391e+003;4.4832050781e+003;4.4610258789e+003;4.4420512695e+003;4.4817949219e+003;4.4511538086e+003;4.4625639648e+003;4.4696152344e+003;4.4706411133e+003;4.4856411133e+003;4.4869228516e+003;4.4755126953e+003;4.4657690430e+003;4.4694873047e+003;
6.6406250000e-001;4.5079487305e+003;4.5078203125e+003;4.4820512695e+003;4.4639741211e+003;4.5056411133e+003;4.4716665039e+003;4.4829487305e+003;4.4905126953e+003;4.4933334961e+003;4.5098715820e+003;4.5115385742e+003;4.4985898438e+003;4.4917949219e+003;4.4956411133e+003;
6.7187500000e-001;4.5439741211e+003;4.5419228516e+003;4.5164101563e+003;4.4980771484e+003;4.5421796875e+003;4.5034614258e+003;4.5133334961e+003;4.5270512695e+003;4.5316665039e+003;4.5516665039e+003;4.5498715820e+003;4.5367949219e+003;4.5306411133e+003;4.5360258789e+003;
6.7968750000e-001;4.5460258789e+003;4.5393588867e+003;4.5201284180e+003;4.5005126953e+003;4.5443588867e+003;4.5057690430e+003;4.5132050781e+003;4.5326923828e+003;4.5384614258e+003;4.5600000000e+003;4.5544873047e+003;4.5433334961e+003;4.5351284180e+003;4.5426923828e+003;
6.8750000000e-001;4.5691025391e+003;4.5597436523e+003;4.5455126953e+003;4.5232050781e+003;4.5607690430e+003;4.5243588867e+003;4.5388461914e+003;4.5492309570e+003;4.5576923828e+003;4.5700000000e+003;4.5661538086e+003;4.5562822266e+003;4.5544873047e+003;4.5567949219e+003;
6.9531250000e-001;4.5566665039e+003;4.5507690430e+003;4.5355126953e+003;4.5176923828e+003;4.5342309570e+003;4.5167949219e+003;4.5357690430e+003;4.5453847656e+003;4.5494873047e+003;4.5652563477e+003;4.5610258789e+003;4.5533334961e+003;4.5456411133e+003;4.5514101563e+003;
7.0312500000e-001;4.6042309570e+003;4.5994873047e+003;4.5820512695e+003;4.5630771484e+003;4.5794873047e+003;4.5610258789e+003;4.5817949219e+003;4.5923076172e+003;4.5932050781e+003;4.6132050781e+003;4.6110258789e+003;4.6003847656e+003;4.5932050781e+003;4.6005126953e+003;
7.1093750000e-001;4.6135898438e+003;4.6076923828e+003;4.5912822266e+003;4.5687177734e+003;4.6000000000e+003;4.5701284180e+003;4.5843588867e+003;4.6025639648e+003;4.5998715820e+003;4.6196152344e+003;4.6202563477e+003;4.6088461914e+003;4.5973076172e+003;4.6087177734e+003;
7.1875000000e-001;4.5664101563e+003;4.5583334961e+003;4.5460258789e+003;4.5219228516e+003;4.5632050781e+003;4.5266665039e+003;4.5371796875e+003;4.5538461914e+003;4.5526923828e+003;4.5673076172e+003;4.5696152344e+003;4.5607690430e+003;4.5473076172e+003;4.5583334961e+003;
7.2656250000e-001;4.5360258789e+003;4.5262822266e+003;4.5173076172e+003;4.4921796875e+003;4.5402563477e+003;4.4982050781e+003;4.5080771484e+003;4.5193588867e+003;4.5206411133e+003;4.5316665039e+003;4.5351284180e+003;4.5289741211e+003;4.5158974609e+003;4.5241025391e+003;
7.3437500000e-001;5.0057690430e+003;5.0160258789e+003;4.9803847656e+003;4.9465385742e+003;5.0110258789e+003;4.9315385742e+003;4.9583334961e+003;4.9646152344e+003;4.9674360352e+003;5.0065385742e+003;5.0046152344e+003;4.9839741211e+003;4.9892309570e+003;4.9830771484e+003;
7.4218750000e-001;5.0580771484e+003;5.0716665039e+003;5.0343588867e+003;4.9926923828e+003;5.0630771484e+003;4.9773076172e+003;5.0041025391e+003;5.0205126953e+003;5.0282050781e+003;5.0707690430e+003;5.0614101563e+003;5.0400000000e+003;5.0462822266e+003;5.0370512695e+003;
7.5000000000e-001;4.8202563477e+003;4.8311538086e+003;4.8051284180e+003;4.7661538086e+003;4.8205126953e+003;4.7620512695e+003;4.7867949219e+003;4.7961538086e+003;4.8060258789e+003;4.8423076172e+003;4.8238461914e+003;4.8089741211e+003;4.8092309570e+003;4.7987177734e+003;
7.5781250000e-001;4.9632050781e+003;4.9715385742e+003;4.9448715820e+003;4.9011538086e+003;4.9712822266e+003;4.9005126953e+003;4.9241025391e+003;4.9452563477e+003;4.9491025391e+003;4.9915385742e+003;4.9726923828e+003;4.9484614258e+003;4.9533334961e+003;4.9369228516e+003;
7.6562500000e-001;4.9400000000e+003;4.9475639648e+003;4.9247436523e+003;4.8819228516e+003;4.9460258789e+003;4.8810258789e+003;4.9030771484e+003;4.9271796875e+003;4.9311538086e+003;4.9720512695e+003;4.9524360352e+003;4.9298715820e+003;4.9325639648e+003;4.9164101563e+003;
7.7343750000e-001;4.9462822266e+003;4.9524360352e+003;4.9282050781e+003;4.8897436523e+003;4.9534614258e+003;4.8852563477e+003;4.9129487305e+003;4.9228203125e+003;4.9261538086e+003;4.9635898438e+003;4.9451284180e+003;4.9173076172e+003;4.9280771484e+003;4.9114101563e+003;
7.8125000000e-001;4.9702563477e+003;4.9764101563e+003;4.9530771484e+003;4.9093588867e+003;4.9829487305e+003;4.9076923828e+003;4.9347436523e+003;4.9493588867e+003;4.9506411133e+003;4.9911538086e+003;4.9684614258e+003;4.9391025391e+003;4.9501284180e+003;4.9343588867e+003;
7.8906250000e-001;4.8870512695e+003;4.8984614258e+003;4.8753847656e+003;4.8358974609e+003;4.8925639648e+003;4.8489741211e+003;4.8732050781e+003;4.8802563477e+003;4.8811538086e+003;4.9126923828e+003;4.8876923828e+003;4.8646152344e+003;4.8702563477e+003;4.8558974609e+003;
7.9687500000e-001;4.9169228516e+003;4.9285898438e+003;4.9020512695e+003;4.8655126953e+003;4.9147436523e+003;4.8802563477e+003;4.9048715820e+003;4.9112822266e+003;4.9138461914e+003;4.9415385742e+003;4.9165385742e+003;4.8929487305e+003;4.8993588867e+003;4.8848715820e+003;
8.0468750000e-001;4.9417949219e+003;4.9505126953e+003;4.9264101563e+003;4.8879487305e+003;4.9389741211e+003;4.9043588867e+003;4.9275639648e+003;4.9396152344e+003;4.9421796875e+003;4.9679487305e+003;4.9407690430e+003;4.9169228516e+003;4.9220512695e+003;4.9093588867e+003;
8.1250000000e-001;4.9308974609e+003;4.9343588867e+003;4.9188461914e+003;4.8752563477e+003;4.9373076172e+003;4.8938461914e+003;4.9152563477e+003;4.9324360352e+003;4.9337177734e+003;4.9575639648e+003;4.9288461914e+003;4.9057690430e+003;4.9074360352e+003;4.8980771484e+003;
8.2031250000e-001;4.9334614258e+003;4.9326923828e+003;4.9232050781e+003;4.8751284180e+003;4.9652563477e+003;4.8915385742e+003;4.9162822266e+003;4.9307690430e+003;4.9343588867e+003;4.9523076172e+003;4.9298715820e+003;4.9052563477e+003;4.9053847656e+003;4.8969228516e+003;
8.2812500000e-001;4.9532050781e+003;4.9537177734e+003;4.9378203125e+003;4.8917949219e+003;4.9726923828e+003;4.9067949219e+003;4.9323076172e+003;4.9497436523e+003;4.9556411133e+003;4.9739741211e+003;4.9512822266e+003;4.9269228516e+003;4.9279487305e+003;4.9179487305e+003;
8.3593750000e-001;4.9146152344e+003;4.9108974609e+003;4.8943588867e+003;4.8500000000e+003;4.9056411133e+003;4.8632050781e+003;4.8866665039e+003;4.9065385742e+003;4.9107690430e+003;4.9334614258e+003;4.9126923828e+003;4.8906411133e+003;4.8919228516e+003;4.8861538086e+003;
8.4375000000e-001;4.9115385742e+003;4.9051284180e+003;4.8908974609e+003;4.8448715820e+003;4.8984614258e+003;4.8551284180e+003;4.8783334961e+003;4.8976923828e+003;4.8989741211e+003;4.9246152344e+003;4.9076923828e+003;4.8846152344e+003;4.8882050781e+003;4.8861538086e+003;
8.5156250000e-001;4.9347436523e+003;4.9280771484e+003;4.9139741211e+003;4.8644873047e+003;4.9225639648e+003;4.8715385742e+003;4.8955126953e+003;4.9157690430e+003;4.9147436523e+003;4.9425639648e+003;4.9292309570e+003;4.9044873047e+003;4.9110258789e+003;4.9111538086e+003;
8.5937500000e-001;4.9574360352e+003;4.9535898438e+003;4.9401284180e+003;4.8815385742e+003;4.9425639648e+003;4.8888461914e+003;4.9151284180e+003;4.9334614258e+003;4.9301284180e+003;4.9564101563e+003;4.9491025391e+003;4.9266665039e+003;4.9342309570e+003;4.9320512695e+003;
8.6718750000e-001;4.9591025391e+003;4.9541025391e+003;4.9443588867e+003;4.8828203125e+003;4.9391025391e+003;4.8897436523e+003;4.9183334961e+003;4.9312822266e+003;4.9276923828e+003;4.9523076172e+003;4.9488461914e+003;4.9283334961e+003;4.9360258789e+003;4.9298715820e+003;
8.7500000000e-001;4.9839741211e+003;4.9765385742e+003;4.9703847656e+003;4.9088461914e+003;4.9606411133e+003;4.9111538086e+003;4.9421796875e+003;4.9523076172e+003;4.9489741211e+003;4.9746152344e+003;4.9737177734e+003;4.9537177734e+003;4.9620512695e+003;4.9523076172e+003;
8.8281250000e-001;5.2541025391e+003;5.2533334961e+003;5.2317949219e+003;5.1562822266e+003;5.2287177734e+003;5.1642309570e+003;5.1969228516e+003;5.2200000000e+003;5.2174360352e+003;5.2567949219e+003;5.2376923828e+003;5.2147436523e+003;5.2203847656e+003;5.2161538086e+003;
8.9062500000e-001;5.1216665039e+003;5.1208974609e+003;5.0946152344e+003;5.0270512695e+003;5.1003847656e+003;5.0500000000e+003;5.0774360352e+003;5.0941025391e+003;5.0950000000e+003;5.1210258789e+003;5.1035898438e+003;5.0816665039e+003;5.0898715820e+003;5.0855126953e+003;
8.9843750000e-001;5.1451284180e+003;5.1419228516e+003;5.1157690430e+003;5.0500000000e+003;5.1151284180e+003;5.0701284180e+003;5.0989741211e+003;5.1183334961e+003;5.1174360352e+003;5.1428203125e+003;5.1247436523e+003;5.1028203125e+003;5.1121796875e+003;5.1058974609e+003;
9.0625000000e-001;5.0869228516e+003;5.0848715820e+003;5.0670512695e+003;5.0091025391e+003;5.0655126953e+003;5.0228203125e+003;5.0443588867e+003;5.0720512695e+003;5.0633334961e+003;5.0857690430e+003;5.0738461914e+003;5.0535898438e+003;5.0544873047e+003;5.0514101563e+003;
9.1406250000e-001;5.0643588867e+003;5.0610258789e+003;5.0369228516e+003;4.9750000000e+003;5.0628203125e+003;5.0015385742e+003;5.0238461914e+003;5.0502563477e+003;5.0458974609e+003;5.0610258789e+003;5.0478203125e+003;5.0342309570e+003;5.0321796875e+003;5.0356411133e+003;
9.2187500000e-001;5.0416665039e+003;5.0333334961e+003;5.0132050781e+003;4.9526923828e+003;5.0303847656e+003;4.9816665039e+003;5.0044873047e+003;5.0275639648e+003;5.0217949219e+003;5.0335898438e+003;5.0219228516e+003;5.0106411133e+003;5.0082050781e+003;5.0121796875e+003;
9.2968750000e-001;5.0552563477e+003;5.0435898438e+003;5.0325639648e+003;4.9691025391e+003;5.0362822266e+003;4.9955126953e+003;5.0223076172e+003;5.0424360352e+003;5.0292309570e+003;5.0435898438e+003;5.0382050781e+003;5.0192309570e+003;5.0235898438e+003;5.0244873047e+003;
9.3750000000e-001;5.0347436523e+003;5.0228203125e+003;5.0165385742e+003;4.9516665039e+003;5.0197436523e+003;4.9762822266e+003;5.0017949219e+003;5.0258974609e+003;5.0117949219e+003;5.0265385742e+003;5.0210258789e+003;5.0032050781e+003;5.0037177734e+003;5.0079487305e+003;
9.4531250000e-001;4.9884614258e+003;4.9764101563e+003;4.9697436523e+003;4.9119228516e+003;4.9705126953e+003;4.9342309570e+003;4.9592309570e+003;4.9810258789e+003;4.9662822266e+003;4.9755126953e+003;4.9730771484e+003;4.9610258789e+003;4.9553847656e+003;4.9633334961e+003;
9.5312500000e-001;5.0019228516e+003;4.9962822266e+003;4.9811538086e+003;4.9256411133e+003;4.9851284180e+003;4.9534614258e+003;4.9779487305e+003;5.0051284180e+003;4.9855126953e+003;5.0038461914e+003;4.9964101563e+003;4.9774360352e+003;4.9766665039e+003;4.9778203125e+003;
9.6093750000e-001;4.9311538086e+003;4.9244873047e+003;4.9188461914e+003;4.8611538086e+003;4.9198715820e+003;4.8925639648e+003;4.9146152344e+003;4.9364101563e+003;4.9158974609e+003;4.9316665039e+003;4.9264101563e+003;4.9098715820e+003;4.9050000000e+003;4.9083334961e+003;
9.6875000000e-001;4.8943588867e+003;4.8865385742e+003;4.8866665039e+003;4.8276923828e+003;4.8875639648e+003;4.8615385742e+003;4.8826923828e+003;4.8988461914e+003;4.8779487305e+003;4.8893588867e+003;4.8876923828e+003;4.8735898438e+003;4.8665385742e+003;4.8712822266e+003;
9.7656250000e-001;4.9903847656e+003;4.9853847656e+003;4.9682050781e+003;4.9229487305e+003;4.9669228516e+003;4.9432050781e+003;4.9669228516e+003;4.9841025391e+003;4.9703847656e+003;4.9764101563e+003;4.9725639648e+003;4.9574360352e+003;4.9583334961e+003;4.9626923828e+003;
9.8437500000e-001;5.0066665039e+003;5.0001284180e+003;4.9857690430e+003;4.9366665039e+003;4.9923076172e+003;4.9561538086e+003;4.9796152344e+003;5.0020512695e+003;4.9889741211e+003;4.9962822266e+003;4.9902563477e+003;4.9750000000e+003;4.9767949219e+003;4.9789741211e+003;
9.9218750000e-001;4.9666665039e+003;4.9538461914e+003;4.9510258789e+003;4.8948715820e+003;4.9785898438e+003;4.9291025391e+003;4.9511538086e+003;4.9643588867e+003;4.9523076172e+003;4.9470512695e+003;4.9508974609e+003;4.9441025391e+003;4.9394873047e+003;4.9435898438e+003;
1.0000000000e+000;5.1965385742e+003;5.1810258789e+003;5.1665385742e+003;5.1074360352e+003;5.1843588867e+003;5.1238461914e+003;5.1551284180e+003;5.1792309570e+003;5.1692309570e+003;5.1739741211e+003;5.1726923828e+003;5.1601284180e+003;5.1588461914e+003;5.1575639648e+003;
1.0078125000e+000;5.1557690430e+003;5.1397436523e+003;5.1282050781e+003;5.0688461914e+003;5.1382050781e+003;5.0835898438e+003;5.1110258789e+003;5.1385898438e+003;5.1256411133e+003;5.1333334961e+003;5.1288461914e+003;5.1196152344e+003;5.1166665039e+003;5.1153847656e+003;
1.0156250000e+000;5.0900000000e+003;5.0705126953e+003;5.0643588867e+003;5.0053847656e+003;5.0700000000e+003;5.0247436523e+003;5.0502563477e+003;5.0569228516e+003;5.0406411133e+003;5.0482050781e+003;5.0591025391e+003;5.0511538086e+003;5.0460258789e+003;5.0516665039e+003;
1.0234375000e+000;5.0687177734e+003;5.0523076172e+003;5.0480771484e+003;4.9874360352e+003;5.0480771484e+003;5.0057690430e+003;5.0321796875e+003;5.0456411133e+003;5.0293588867e+003;5.0367949219e+003;5.0491025391e+003;5.0429487305e+003;5.0342309570e+003;5.0429487305e+003;
1.0312500000e+000;5.0453847656e+003;5.0323076172e+003;5.0261538086e+003;4.9632050781e+003;5.0219228516e+003;4.9860258789e+003;5.0098715820e+003;5.0224360352e+003;5.0062822266e+003;5.0108974609e+003;5.0234614258e+003;5.0187177734e+003;5.0142309570e+003;5.0205126953e+003;
1.0390625000e+000;5.0460258789e+003;5.0339741211e+003;5.0267949219e+003;4.9596152344e+003;5.0176923828e+003;4.9869228516e+003;5.0085898438e+003;5.0201284180e+003;5.0043588867e+003;5.0082050781e+003;5.0210258789e+003;5.0167949219e+003;5.0151284180e+003;5.0202563477e+003;
1.0468750000e+000;5.0214101563e+003;5.0044873047e+003;5.0039741211e+003;4.9344873047e+003;4.9950000000e+003;4.9606411133e+003;4.9803847656e+003;4.9908974609e+003;4.9741025391e+003;4.9819228516e+003;4.9961538086e+003;4.9935898438e+003;4.9844873047e+003;4.9964101563e+003;
1.0546875000e+000;4.9897436523e+003;4.9714101563e+003;4.9737177734e+003;4.9100000000e+003;4.9707690430e+003;4.9291025391e+003;4.9500000000e+003;4.9585898438e+003;4.9416665039e+003;4.9500000000e+003;4.9661538086e+003;4.9643588867e+003;4.9506411133e+003;4.9669228516e+003;
1.0625000000e+000;4.9710258789e+003;4.9576923828e+003;4.9542309570e+003;4.9028203125e+003;4.9492309570e+003;4.9110258789e+003;4.9334614258e+003;4.9441025391e+003;4.9315385742e+003;4.9329487305e+003;4.9506411133e+003;4.9478203125e+003;4.9358974609e+003;4.9541025391e+003;
1.0703125000e+000;4.9546152344e+003;4.9435898438e+003;4.9383334961e+003;4.8869228516e+003;4.9212822266e+003;4.8992309570e+003;4.9184614258e+003;4.9338461914e+003;4.9229487305e+003;4.9183334961e+003;4.9362822266e+003;4.9332050781e+003;4.9224360352e+003;4.9410258789e+003;
1.0781250000e+000;4.8914101563e+003;4.8656411133e+003;4.8776923828e+003;4.8197436523e+003;4.8625639648e+003;4.8443588867e+003;4.8617949219e+003;4.8737177734e+003;4.8584614258e+003;4.8467949219e+003;4.8744873047e+003;4.8685898438e+003;4.8547436523e+003;4.8737177734e+003;
1.0859375000e+000;4.9143588867e+003;4.8841025391e+003;4.9010258789e+003;4.8421796875e+003;4.8984614258e+003;4.8614101563e+003;4.8828203125e+003;4.8965385742e+003;4.8805126953e+003;4.8712822266e+003;4.8985898438e+003;4.8908974609e+003;4.8793588867e+003;4.8943588867e+003;
1.0937500000e+000;4.9137177734e+003;4.8835898438e+003;4.9030771484e+003;4.8423076172e+003;4.9051284180e+003;4.8592309570e+003;4.8821796875e+003;4.9007690430e+003;4.8848715820e+003;4.8765385742e+003;4.9011538086e+003;4.8935898438e+003;4.8839741211e+003;4.8947436523e+003;
1.1015625000e+000;4.9682050781e+003;4.9419228516e+003;4.9607690430e+003;4.8952563477e+003;4.9438461914e+003;4.9188461914e+003;4.9420512695e+003;4.9503847656e+003;4.9388461914e+003;4.9316665039e+003;4.9556411133e+003;4.9474360352e+003;4.9393588867e+003;4.9501284180e+003;
1.1093750000e+000;4.9750000000e+003;4.9471796875e+003;4.9692309570e+003;4.9071796875e+003;4.9541025391e+003;4.9257690430e+003;4.9482050781e+003;4.9589741211e+003;4.9480771484e+003;4.9405126953e+003;4.9632050781e+003;4.9565385742e+003;4.9470512695e+003;4.9576923828e+003;
1.1171875000e+000;4.9421796875e+003;4.9302563477e+003;4.9402563477e+003;4.8857690430e+003;4.9303847656e+003;4.9050000000e+003;4.9283334961e+003;4.9364101563e+003;4.9294873047e+003;4.9161538086e+003;4.9388461914e+003;4.9276923828e+003;4.9273076172e+003;4.9328203125e+003;
1.1250000000e+000;4.8238461914e+003;4.8001284180e+003;4.8283334961e+003;4.7678203125e+003;4.7974360352e+003;4.7955126953e+003;4.8073076172e+003;4.8233334961e+003;4.8106411133e+003;4.8001284180e+003;4.8189741211e+003;4.8129487305e+003;4.8012822266e+003;4.8184614258e+003;
1.1328125000e+000;4.7662822266e+003;4.7412822266e+003;4.7712822266e+003;4.7148715820e+003;4.7393588867e+003;4.7428203125e+003;4.7520512695e+003;4.7651284180e+003;4.7505126953e+003;4.7353847656e+003;4.7575639648e+003;4.7532050781e+003;4.7402563477e+003;4.7594873047e+003;
1.1406250000e+000;4.7253847656e+003;4.7146152344e+003;4.7287177734e+003;4.6867949219e+003;4.7230771484e+003;4.7071796875e+003;4.7164101563e+003;4.7337177734e+003;4.7211538086e+003;4.6982050781e+003;4.7198715820e+003;4.7153847656e+003;4.7014101563e+003;4.7267949219e+003;
1.1484375000e+000;4.7161538086e+003;4.7073076172e+003;4.7224360352e+003;4.6808974609e+003;4.7105126953e+003;4.7008974609e+003;4.7120512695e+003;4.7251284180e+003;4.7129487305e+003;4.6898715820e+003;4.7103847656e+003;4.7065385742e+003;4.6919228516e+003;4.7194873047e+003;
1.1562500000e+000;4.8005126953e+003;4.7923076172e+003;4.8069228516e+003;4.7634614258e+003;4.7744873047e+003;4.7792309570e+003;4.7967949219e+003;4.8012822266e+003;4.7893588867e+003;4.7684614258e+003;4.7885898438e+003;4.7814101563e+003;4.7743588867e+003;4.7976923828e+003;
1.1640625000e+000;4.8578203125e+003;4.8489741211e+003;4.8610258789e+003;4.8179487305e+003;4.8303847656e+003;4.8312822266e+003;4.8485898438e+003;4.8566665039e+003;4.8450000000e+003;4.8262822266e+003;4.8450000000e+003;4.8360258789e+003;4.8312822266e+003;4.8526923828e+003;
1.1718750000e+000;4.8752563477e+003;4.8653847656e+003;4.8756411133e+003;4.8338461914e+003;4.8564101563e+003;4.8478203125e+003;4.8620512695e+003;4.8748715820e+003;4.8637177734e+003;4.8461538086e+003;4.8635898438e+003;4.8547436523e+003;4.8482050781e+003;4.8705126953e+003;
1.1796875000e+000;4.8588461914e+003;4.8484614258e+003;4.8578203125e+003;4.8161538086e+003;4.8534614258e+003;4.8338461914e+003;4.8451284180e+003;4.8596152344e+003;4.8485898438e+003;4.8311538086e+003;4.8487177734e+003;4.8407690430e+003;4.8306411133e+003;4.8556411133e+003;
1.1875000000e+000;4.7873076172e+003;4.7829487305e+003;4.7926923828e+003;4.7475639648e+003;4.7821796875e+003;4.7693588867e+003;4.7830771484e+003;4.8043588867e+003;4.7908974609e+003;4.7741025391e+003;4.7875639648e+003;4.7797436523e+003;4.7667949219e+003;4.7958974609e+003;
1.1953125000e+000;4.6443588867e+003;4.6320512695e+003;4.6528203125e+003;4.6174360352e+003;4.6384614258e+003;4.6347436523e+003;4.6410258789e+003;4.6541025391e+003;4.6441025391e+003;4.6173076172e+003;4.6425639648e+003;4.6360258789e+003;4.6210258789e+003;4.6566665039e+003;
1.2031250000e+000;4.6476923828e+003;4.6353847656e+003;4.6573076172e+003;4.6151284180e+003;4.6346152344e+003;4.6358974609e+003;4.6429487305e+003;4.6566665039e+003;4.6479487305e+003;4.6224360352e+003;4.6487177734e+003;4.6414101563e+003;4.6262822266e+003;4.6639741211e+003;
1.2109375000e+000;4.5875639648e+003;4.5771796875e+003;4.6030771484e+003;4.5705126953e+003;4.5775639648e+003;4.5823076172e+003;4.5933334961e+003;4.6006411133e+003;4.5916665039e+003;4.5601284180e+003;4.5883334961e+003;4.5851284180e+003;4.5730771484e+003;4.6071796875e+003;
1.2187500000e+000;4.5752563477e+003;4.5660258789e+003;4.5896152344e+003;4.5655126953e+003;4.5541025391e+003;4.5675639648e+003;4.5730771484e+003;4.5846152344e+003;4.5776923828e+003;4.5452563477e+003;4.5658974609e+003;4.5667949219e+003;4.5548715820e+003;4.5880771484e+003;
1.2265625000e+000;4.5744873047e+003;4.5653847656e+003;4.5858974609e+003;4.5620512695e+003;4.5458974609e+003;4.5646152344e+003;4.5724360352e+003;4.5793588867e+003;4.5720512695e+003;4.5410258789e+003;4.5637177734e+003;4.5619228516e+003;4.5533334961e+003;4.5837177734e+003;
1.2343750000e+000;4.6446152344e+003;4.6375639648e+003;4.6484614258e+003;4.6230771484e+003;4.6406411133e+003;4.6298715820e+003;4.6405126953e+003;4.6551284180e+003;4.6444873047e+003;4.6200000000e+003;4.6433334961e+003;4.6357690430e+003;4.6270512695e+003;4.6552563477e+003;
1.2421875000e+000;4.6030771484e+003;4.5962822266e+003;4.6093588867e+003;4.5842309570e+003;4.6080771484e+003;4.5961538086e+003;4.6019228516e+003;4.6197436523e+003;4.6080771484e+003;4.5807690430e+003;4.6021796875e+003;4.5978203125e+003;4.5853847656e+003;4.6167949219e+003;
1.2500000000e+000;4.5592309570e+003;4.5487177734e+003;4.5665385742e+003;4.5424360352e+003;4.5585898438e+003;4.5591025391e+003;4.5620512695e+003;4.5737177734e+003;4.5614101563e+003;4.5288461914e+003;4.5501284180e+003;4.5489741211e+003;4.5402563477e+003;4.5703847656e+003;
1.2578125000e+000;4.5778203125e+003;4.5650000000e+003;4.5841025391e+003;4.5621796875e+003;4.5700000000e+003;4.5753847656e+003;4.5797436523e+003;4.5900000000e+003;4.5778203125e+003;4.5465385742e+003;4.5676923828e+003;4.5657690430e+003;4.5606411133e+003;4.5870512695e+003;
1.2656250000e+000;4.5033334961e+003;4.4978203125e+003;4.5132050781e+003;4.5062822266e+003;4.5052563477e+003;4.5103847656e+003;4.5107690430e+003;4.5215385742e+003;4.5096152344e+003;4.4783334961e+003;4.5034614258e+003;4.4983334961e+003;4.4923076172e+003;4.5167949219e+003;
1.2734375000e+000;4.4994873047e+003;4.4985898438e+003;4.5067949219e+003;4.5030771484e+003;4.5075639648e+003;4.5082050781e+003;4.5083334961e+003;4.5184614258e+003;4.5067949219e+003;4.4746152344e+003;4.5017949219e+003;4.4932050781e+003;4.4905126953e+003;4.5151284180e+003;
1.2812500000e+000;4.5192309570e+003;4.5230771484e+003;4.5226923828e+003;4.5224360352e+003;4.5274360352e+003;4.5325639648e+003;4.5344873047e+003;4.5485898438e+003;4.5350000000e+003;4.5034614258e+003;4.5303847656e+003;4.5200000000e+003;4.5197436523e+003;4.5446152344e+003;
1.2890625000e+000;4.4941025391e+003;4.4982050781e+003;4.5005126953e+003;4.5008974609e+003;4.5001284180e+003;4.5141025391e+003;4.5164101563e+003;4.5291025391e+003;4.5148715820e+003;4.4814101563e+003;4.5092309570e+003;4.5005126953e+003;4.4973076172e+003;4.5232050781e+003;
1.2968750000e+000;4.5360258789e+003;4.5401284180e+003;4.5432050781e+003;4.5317949219e+003;4.5432050781e+003;4.5434614258e+003;4.5478203125e+003;4.5583334961e+003;4.5469228516e+003;4.5151284180e+003;4.5426923828e+003;4.5228203125e+003;4.5260258789e+003;4.5475639648e+003;
1.3046875000e+000;4.5525639648e+003;4.5564101563e+003;4.5565385742e+003;4.5437177734e+003;4.5566665039e+003;4.5523076172e+003;4.5567949219e+003;4.5737177734e+003;4.5619228516e+003;4.5339741211e+003;4.5561538086e+003;4.5344873047e+003;4.5406411133e+003;4.5592309570e+003;
1.3125000000e+000;4.5228203125e+003;4.5260258789e+003;4.5258974609e+003;4.5160258789e+003;4.5185898438e+003;4.5232050781e+003;4.5273076172e+003;4.5467949219e+003;4.5347436523e+003;4.5073076172e+003;4.5253847656e+003;4.5062822266e+003;4.5125639648e+003;4.5291025391e+003;
1.3203125000e+000;4.4773076172e+003;4.4793588867e+003;4.4817949219e+003;4.4765385742e+003;4.4611538086e+003;4.4833334961e+003;4.4876923828e+003;4.5041025391e+003;4.4929487305e+003;4.4624360352e+003;4.4800000000e+003;4.4648715820e+003;4.4698715820e+003;4.4861538086e+003;
1.3281250000e+000;4.4123076172e+003;4.4193588867e+003;4.4280771484e+003;4.4248715820e+003;4.4153847656e+003;4.4288461914e+003;4.4317949219e+003;4.4425639648e+003;4.4370512695e+003;4.4000000000e+003;4.4255126953e+003;4.4110258789e+003;4.4112822266e+003;4.4338461914e+003;
1.3359375000e+000;4.4451284180e+003;4.4502563477e+003;4.4475639648e+003;4.4538461914e+003;4.4471796875e+003;4.4516665039e+003;4.4592309570e+003;4.4721796875e+003;4.4674360352e+003;4.4298715820e+003;4.4524360352e+003;4.4392309570e+003;4.4446152344e+003;4.4612822266e+003;
1.3437500000e+000;4.4428203125e+003;4.4433334961e+003;4.4483334961e+003;4.4478203125e+003;4.4332050781e+003;4.4487177734e+003;4.4537177734e+003;4.4705126953e+003;4.4656411133e+003;4.4262822266e+003;4.4505126953e+003;4.4391025391e+003;4.4424360352e+003;4.4620512695e+003;
1.3515625000e+000;4.4320512695e+003;4.4337177734e+003;4.4401284180e+003;4.4384614258e+003;4.4280771484e+003;4.4415385742e+003;4.4447436523e+003;4.4569228516e+003;4.4514101563e+003;4.4083334961e+003;4.4388461914e+003;4.4234614258e+003;4.4289741211e+003;4.4510258789e+003;
1.3593750000e+000;4.5200000000e+003;4.5239741211e+003;4.5208974609e+003;4.5274360352e+003;4.5147436523e+003;4.5230771484e+003;4.5311538086e+003;4.5343588867e+003;4.5306411133e+003;4.4953847656e+003;4.5262822266e+003;4.5121796875e+003;4.5123076172e+003;4.5365385742e+003;
1.3671875000e+000;4.5626923828e+003;4.5648715820e+003;4.5624360352e+003;4.5656411133e+003;4.5553847656e+003;4.5606411133e+003;4.5696152344e+003;4.5693588867e+003;4.5661538086e+003;4.5324360352e+003;4.5666665039e+003;4.5541025391e+003;4.5551284180e+003;4.5778203125e+003;
1.3750000000e+000;4.6350000000e+003;4.6378203125e+003;4.6317949219e+003;4.6269228516e+003;4.6267949219e+003;4.6234614258e+003;4.6305126953e+003;4.6432050781e+003;4.6385898438e+003;4.6101284180e+003;4.6425639648e+003;4.6256411133e+003;4.6312822266e+003;4.6470512695e+003;
1.3828125000e+000;4.5880771484e+003;4.5920512695e+003;4.5871796875e+003;4.5801284180e+003;4.5800000000e+003;4.5820512695e+003;4.5856411133e+003;4.6050000000e+003;4.5978203125e+003;4.5702563477e+003;4.6000000000e+003;4.5812822266e+003;4.5864101563e+003;4.6020512695e+003;
1.3906250000e+000;4.4702563477e+003;4.4752563477e+003;4.4729487305e+003;4.4683334961e+003;4.4693588867e+003;4.4796152344e+003;4.4810258789e+003;4.4874360352e+003;4.4780771484e+003;4.4501284180e+003;4.4797436523e+003;4.4621796875e+003;4.4702563477e+003;4.4902563477e+003;
1.3984375000e+000;4.4829487305e+003;4.4865385742e+003;4.4828203125e+003;4.4834614258e+003;4.4758974609e+003;4.4906411133e+003;4.4914101563e+003;4.4984614258e+003;4.4901284180e+003;4.4624360352e+003;4.4920512695e+003;4.4748715820e+003;4.4841025391e+003;4.5029487305e+003;
1.4062500000e+000;4.4308974609e+003;4.4355126953e+003;4.4291025391e+003;4.4432050781e+003;4.4115385742e+003;4.4457690430e+003;4.4447436523e+003;4.4542309570e+003;4.4435898438e+003;4.4110258789e+003;4.4456411133e+003;4.4283334961e+003;4.4341025391e+003;4.4521796875e+003;
1.4140625000e+000;4.4148715820e+003;4.4232050781e+003;4.4135898438e+003;4.4294873047e+003;4.4008974609e+003;4.4344873047e+003;4.4352563477e+003;4.4410258789e+003;4.4302563477e+003;4.3955126953e+003;4.4323076172e+003;4.4141025391e+003;4.4184614258e+003;4.4370512695e+003;
1.4218750000e+000;4.4629487305e+003;4.4717949219e+003;4.4612822266e+003;4.4716665039e+003;4.4835898438e+003;4.4807690430e+003;4.4851284180e+003;4.4873076172e+003;4.4846152344e+003;4.4544873047e+003;4.4762822266e+003;4.4626923828e+003;4.4629487305e+003;4.4851284180e+003;
1.4296875000e+000;4.4607690430e+003;4.4664101563e+003;4.4580771484e+003;4.4700000000e+003;4.4817949219e+003;4.4758974609e+003;4.4803847656e+003;4.4814101563e+003;4.4800000000e+003;4.4484614258e+003;4.4685898438e+003;4.4576923828e+003;4.4570512695e+003;4.4789741211e+003;
1.4375000000e+000;4.4874360352e+003;4.4917949219e+003;4.4823076172e+003;4.4943588867e+003;4.5026923828e+003;4.4964101563e+003;4.5025639648e+003;4.5025639648e+003;4.5014101563e+003;4.4679487305e+003;4.4902563477e+003;4.4796152344e+003;4.4805126953e+003;4.4998715820e+003;
1.4453125000e+000;4.5453847656e+003;4.5511538086e+003;4.5380771484e+003;4.5469228516e+003;4.5533334961e+003;4.5465385742e+003;4.5548715820e+003;4.5571796875e+003;4.5551284180e+003;4.5216665039e+003;4.5460258789e+003;4.5335898438e+003;4.5373076172e+003;4.5535898438e+003;
1.4531250000e+000;4.5919228516e+003;4.5997436523e+003;4.5844873047e+003;4.5889741211e+003;4.5947436523e+003;4.5884614258e+003;4.5974360352e+003;4.6051284180e+003;4.6012822266e+003;4.5697436523e+003;4.5930771484e+003;4.5789741211e+003;4.5842309570e+003;4.5989741211e+003;
1.4609375000e+000;4.5573076172e+003;4.5676923828e+003;4.5548715820e+003;4.5602563477e+003;4.5600000000e+003;4.5614101563e+003;4.5680771484e+003;4.5765385742e+003;4.5700000000e+003;4.5407690430e+003;4.5588461914e+003;4.5452563477e+003;4.5500000000e+003;4.5666665039e+003;
1.4687500000e+000;4.5508974609e+003;4.5628203125e+003;4.5480771484e+003;4.5574360352e+003;4.5547436523e+003;4.5567949219e+003;4.5641025391e+003;4.5669228516e+003;4.5616665039e+003;4.5326923828e+003;4.5501284180e+003;4.5360258789e+003;4.5437177734e+003;4.5592309570e+003;
1.4765625000e+000;4.7134614258e+003;4.7210258789e+003;4.7037177734e+003;4.7053847656e+003;4.7157690430e+003;4.6984614258e+003;4.7073076172e+003;4.7194873047e+003;4.7170512695e+003;4.6930771484e+003;4.7085898438e+003;4.6946152344e+003;4.7114101563e+003;4.7162822266e+003;
1.4843750000e+000;4.7251284180e+003;4.7265385742e+003;4.7146152344e+003;4.7114101563e+003;4.7219228516e+003;4.7076923828e+003;4.7160258789e+003;4.7311538086e+003;4.7260258789e+003;4.7024360352e+003;4.7188461914e+003;4.7062822266e+003;4.7224360352e+003;4.7253847656e+003;
1.4921875000e+000;4.7537177734e+003;4.7476923828e+003;4.7385898438e+003;4.7284614258e+003;4.7289741211e+003;4.7321796875e+003;4.7450000000e+003;4.7573076172e+003;4.7489741211e+003;4.7278203125e+003;4.7479487305e+003;4.7289741211e+003;4.7492309570e+003;4.7500000000e+003;
1.5000000000e+000;4.7524360352e+003;4.7587177734e+003;4.7383334961e+003;4.7328203125e+003;4.7601284180e+003;4.7388461914e+003;4.7470512695e+003;4.7566665039e+003;4.7505126953e+003;4.7335898438e+003;4.7512822266e+003;4.7302563477e+003;4.7510258789e+003;4.7519228516e+003;
1.5078125000e+000;4.7623076172e+003;4.7711538086e+003;4.7462822266e+003;4.7461538086e+003;4.7792309570e+003;4.7453847656e+003;4.7543588867e+003;4.7651284180e+003;4.7587177734e+003;4.7432050781e+003;4.7608974609e+003;4.7382050781e+003;4.7614101563e+003;4.7584614258e+003;
1.5156250000e+000;4.7123076172e+003;4.7226923828e+003;4.6980771484e+003;4.6976923828e+003;4.7205126953e+003;4.7000000000e+003;4.7065385742e+003;4.7193588867e+003;4.7111538086e+003;4.6967949219e+003;4.7165385742e+003;4.6926923828e+003;4.7161538086e+003;4.7133334961e+003;
1.5234375000e+000;4.7105126953e+003;4.7202563477e+003;4.6982050781e+003;4.6946152344e+003;4.7114101563e+003;4.7048715820e+003;4.7107690430e+003;4.7134614258e+003;4.7048715820e+003;4.6900000000e+003;4.7147436523e+003;4.6917949219e+003;4.7147436523e+003;4.7144873047e+003;
1.5312500000e+000;5.2348715820e+003;5.2411538086e+003;5.2101284180e+003;5.1905126953e+003;5.2293588867e+003;5.1808974609e+003;5.2105126953e+003;5.2057690430e+003;5.2029487305e+003;5.2058974609e+003;5.2275639648e+003;5.1932050781e+003;5.2282050781e+003;5.2188461914e+003;
1.5390625000e+000;5.3457690430e+003;5.3532050781e+003;5.3206411133e+003;5.2916665039e+003;5.3384614258e+003;5.2762822266e+003;5.3103847656e+003;5.3201284180e+003;5.3173076172e+003;5.3269228516e+003;5.3387177734e+003;5.3024360352e+003;5.3364101563e+003;5.3246152344e+003;
1.5468750000e+000;5.3480771484e+003;5.3578203125e+003;5.3257690430e+003;5.2885898438e+003;5.3421796875e+003;5.2787177734e+003;5.3121796875e+003;5.3305126953e+003;5.3255126953e+003;5.3371796875e+003;5.3415385742e+003;5.3065385742e+003;5.3366665039e+003;5.3255126953e+003;
1.5546875000e+000;5.4543588867e+003;5.4652563477e+003;5.4297436523e+003;5.3869228516e+003;5.4396152344e+003;5.3951284180e+003;5.4276923828e+003;5.4496152344e+003;5.4437177734e+003;5.4526923828e+003;5.4521796875e+003;5.4157690430e+003;5.4491025391e+003;5.4328203125e+003;
1.5625000000e+000;5.4610258789e+003;5.4705126953e+003;5.4380771484e+003;5.3832050781e+003;5.4674360352e+003;5.3985898438e+003;5.4371796875e+003;5.4576923828e+003;5.4503847656e+003;5.4616665039e+003;5.4591025391e+003;5.4192309570e+003;5.4583334961e+003;5.4364101563e+003;
1.5703125000e+000;5.4530771484e+003;5.4591025391e+003;5.4317949219e+003;5.3782050781e+003;5.4666665039e+003;5.3919228516e+003;5.4282050781e+003;5.4494873047e+003;5.4430771484e+003;5.4515385742e+003;5.4478203125e+003;5.4116665039e+003;5.4462822266e+003;5.4265385742e+003;
1.5781250000e+000;5.4838461914e+003;5.4917949219e+003;5.4629487305e+003;5.4133334961e+003;5.4888461914e+003;5.4188461914e+003;5.4543588867e+003;5.4725639648e+003;5.4612822266e+003;5.4693588867e+003;5.4710258789e+003;5.4378203125e+003;5.4702563477e+003;5.4530771484e+003;
1.5859375000e+000;5.4302563477e+003;5.4379487305e+003;5.4164101563e+003;5.3589741211e+003;5.4306411133e+003;5.3689741211e+003;5.4041025391e+003;5.4185898438e+003;5.4038461914e+003;5.4150000000e+003;5.4164101563e+003;5.3865385742e+003;5.4110258789e+003;5.4034614258e+003;
1.5937500000e+000;5.4434614258e+003;5.4519228516e+003;5.4303847656e+003;5.3675639648e+003;5.4421796875e+003;5.3803847656e+003;5.4171796875e+003;5.4250000000e+003;5.4124360352e+003;5.4219228516e+003;5.4244873047e+003;5.3932050781e+003;5.4191025391e+003;5.4107690430e+003;
1.6015625000e+000;5.5553847656e+003;5.5648715820e+003;5.5389741211e+003;5.4683334961e+003;5.5416665039e+003;5.4801284180e+003;5.5175639648e+003;5.5308974609e+003;5.5191025391e+003;5.5350000000e+003;5.5330771484e+003;5.4987177734e+003;5.5298715820e+003;5.5167949219e+003;
1.6093750000e+000;5.5121796875e+003;5.5182050781e+003;5.4962822266e+003;5.4297436523e+003;5.4978203125e+003;5.4400000000e+003;5.4728203125e+003;5.4939741211e+003;5.4812822266e+003;5.4989741211e+003;5.4935898438e+003;5.4603847656e+003;5.4901284180e+003;5.4779487305e+003;
1.6171875000e+000;5.0566665039e+003;5.0598715820e+003;5.0496152344e+003;5.0092309570e+003;5.0450000000e+003;5.0242309570e+003;5.0414101563e+003;5.0585898438e+003;5.0467949219e+003;5.0426923828e+003;5.0466665039e+003;5.0171796875e+003;5.0405126953e+003;5.0400000000e+003;
1.6250000000e+000;4.9660258789e+003;4.9743588867e+003;4.9623076172e+003;4.9248715820e+003;4.9482050781e+003;4.9435898438e+003;4.9596152344e+003;4.9721796875e+003;4.9594873047e+003;4.9487177734e+003;4.9587177734e+003;4.9297436523e+003;4.9520512695e+003;4.9546152344e+003;
1.6328125000e+000;4.8852563477e+003;4.8971796875e+003;4.8871796875e+003;4.8526923828e+003;4.8710258789e+003;4.8735898438e+003;4.8901284180e+003;4.8975639648e+003;4.8806411133e+003;4.8652563477e+003;4.8837177734e+003;4.8565385742e+003;4.8765385742e+003;4.8823076172e+003;
1.6406250000e+000;4.8707690430e+003;4.8792309570e+003;4.8724360352e+003;4.8394873047e+003;4.8694873047e+003;4.8598715820e+003;4.8756411133e+003;4.8837177734e+003;4.8657690430e+003;4.8496152344e+003;4.8698715820e+003;4.8429487305e+003;4.8632050781e+003;4.8683334961e+003;
1.6484375000e+000;4.7850000000e+003;4.7905126953e+003;4.7866665039e+003;4.7592309570e+003;4.8056411133e+003;4.7871796875e+003;4.7935898438e+003;4.8097436523e+003;4.7964101563e+003;4.7714101563e+003;4.7893588867e+003;4.7652563477e+003;4.7862822266e+003;4.7892309570e+003;
1.6562500000e+000;4.7257690430e+003;4.7339741211e+003;4.7294873047e+003;4.7103847656e+003;4.7393588867e+003;4.7361538086e+003;4.7415385742e+003;4.7542309570e+003;4.7419228516e+003;4.7129487305e+003;4.7333334961e+003;4.7101284180e+003;4.7305126953e+003;4.7344873047e+003;
1.6640625000e+000;4.6841025391e+003;4.6937177734e+003;4.6878203125e+003;4.6800000000e+003;4.6891025391e+003;4.6973076172e+003;4.7028203125e+003;4.7125639648e+003;4.7001284180e+003;4.6689741211e+003;4.6932050781e+003;4.6697436523e+003;4.6902563477e+003;4.6952563477e+003;
1.6718750000e+000;4.6642309570e+003;4.6725639648e+003;4.6664101563e+003;4.6685898438e+003;4.6632050781e+003;4.6744873047e+003;4.6794873047e+003;4.6907690430e+003;4.6765385742e+003;4.6458974609e+003;4.6730771484e+003;4.6494873047e+003;4.6692309570e+003;4.6760258789e+003;
1.6796875000e+000;4.5475639648e+003;4.5546152344e+003;4.5497436523e+003;4.5556411133e+003;4.5453847656e+003;4.5634614258e+003;4.5621796875e+003;4.5698715820e+003;4.5611538086e+003;4.5230771484e+003;4.5539741211e+003;4.5334614258e+003;4.5451284180e+003;4.5587177734e+003;
1.6875000000e+000;4.5056411133e+003;4.5078203125e+003;4.5076923828e+003;4.5144873047e+003;4.4991025391e+003;4.5208974609e+003;4.5175639648e+003;4.5297436523e+003;4.5133334961e+003;4.4814101563e+003;4.5108974609e+003;4.4892309570e+003;4.5026923828e+003;4.5178203125e+003;
1.6953125000e+000;4.4714101563e+003;4.4729487305e+003;4.4753847656e+003;4.4832050781e+003;4.4589741211e+003;4.4891025391e+003;4.4847436523e+003;4.4930771484e+003;4.4758974609e+003;4.4397436523e+003;4.4748715820e+003;4.4557690430e+003;4.4664101563e+003;4.4853847656e+003;
1.7031250000e+000;4.4694873047e+003;4.4708974609e+003;4.4689741211e+003;4.4848715820e+003;4.4414101563e+003;4.4866665039e+003;4.4830771484e+003;4.4879487305e+003;4.4755126953e+003;4.4306411133e+003;4.4751284180e+003;4.4555126953e+003;4.4647436523e+003;4.4874360352e+003;
1.7109375000e+000;4.5161538086e+003;4.5171796875e+003;4.5112822266e+003;4.5317949219e+003;4.5361538086e+003;4.5292309570e+003;4.5264101563e+003;4.5250000000e+003;4.5119228516e+003;4.4734614258e+003;4.5179487305e+003;4.4985898438e+003;4.5147436523e+003;4.5351284180e+003;
1.7187500000e+000;4.5611538086e+003;4.5661538086e+003;4.5587177734e+003;4.5721796875e+003;4.5861538086e+003;4.5730771484e+003;4.5707690430e+003;4.5729487305e+003;4.5612822266e+003;4.5251284180e+003;4.5651284180e+003;4.5460258789e+003;4.5634614258e+003;4.5810258789e+003;
1.7265625000e+000;4.5124360352e+003;4.5162822266e+003;4.5147436523e+003;4.5232050781e+003;4.5182050781e+003;4.5319228516e+003;4.5294873047e+003;4.5371796875e+003;4.5234614258e+003;4.4828203125e+003;4.5184614258e+003;4.5019228516e+003;4.5135898438e+003;4.5291025391e+003;
1.7343750000e+000;4.4757690430e+003;4.4764101563e+003;4.4778203125e+003;4.4885898438e+003;4.4743588867e+003;4.4974360352e+003;4.4966665039e+003;4.5026923828e+003;4.4862822266e+003;4.4421796875e+003;4.4797436523e+003;4.4619228516e+003;4.4732050781e+003;4.4883334961e+003;
1.7421875000e+000;4.4679487305e+003;4.4705126953e+003;4.4737177734e+003;4.4884614258e+003;4.4838461914e+003;4.4955126953e+003;4.4935898438e+003;4.5003847656e+003;4.4876923828e+003;4.4444873047e+003;4.4797436523e+003;4.4566665039e+003;4.4702563477e+003;4.4902563477e+003;
1.7500000000e+000;4.4294873047e+003;4.4346152344e+003;4.4392309570e+003;4.4552563477e+003;4.4456411133e+003;4.4661538086e+003;4.4601284180e+003;4.4647436523e+003;4.4556411133e+003;4.4098715820e+003;4.4452563477e+003;4.4235898438e+003;4.4357690430e+003;4.4570512695e+003;
1.7578125000e+000;4.4098715820e+003;4.4157690430e+003;4.4184614258e+003;4.4382050781e+003;4.4175639648e+003;4.4491025391e+003;4.4420512695e+003;4.4426923828e+003;4.4371796875e+003;4.3853847656e+003;4.4237177734e+003;4.4037177734e+003;4.4169228516e+003;4.4334614258e+003;
1.7656250000e+000;4.4247436523e+003;4.4293588867e+003;4.4312822266e+003;4.4503847656e+003;4.4332050781e+003;4.4588461914e+003;4.4526923828e+003;4.4578203125e+003;4.4506411133e+003;4.3989741211e+003;4.4360258789e+003;4.4182050781e+003;4.4300000000e+003;4.4443588867e+003;
1.7734375000e+000;4.3705126953e+003;4.3734614258e+003;4.3835898438e+003;4.3993588867e+003;4.3753847656e+003;4.4101284180e+003;4.4035898438e+003;4.4071796875e+003;4.3946152344e+003;4.3398715820e+003;4.3792309570e+003;4.3662822266e+003;4.3719228516e+003;4.3875639648e+003;
1.7812500000e+000;4.4043588867e+003;4.4073076172e+003;4.4167949219e+003;4.4329487305e+003;4.3998715820e+003;4.4416665039e+003;4.4382050781e+003;4.4379487305e+003;4.4270512695e+003;4.3729487305e+003;4.4126923828e+003;4.3961538086e+003;4.4065385742e+003;4.4194873047e+003;
1.7890625000e+000;4.4571796875e+003;4.4592309570e+003;4.4671796875e+003;4.4833334961e+003;4.4469228516e+003;4.4888461914e+003;4.4883334961e+003;4.4893588867e+003;4.4802563477e+003;4.4291025391e+003;4.4658974609e+003;4.4466665039e+003;4.4612822266e+003;4.4712822266e+003;
1.7968750000e+000;4.4826923828e+003;4.4834614258e+003;4.4911538086e+003;4.5074360352e+003;4.4756411133e+003;4.5107690430e+003;4.5106411133e+003;4.5153847656e+003;4.5065385742e+003;4.4585898438e+003;4.4921796875e+003;4.4732050781e+003;4.4882050781e+003;4.4978203125e+003;
1.8046875000e+000;4.4883334961e+003;4.4958974609e+003;4.4912822266e+003;4.5074360352e+003;4.5141025391e+003;4.5033334961e+003;4.5021796875e+003;4.5075639648e+003;4.4974360352e+003;4.4498715820e+003;4.4902563477e+003;4.4710258789e+003;4.4841025391e+003;4.5026923828e+003;
1.8125000000e+000;4.4829487305e+003;4.4916665039e+003;4.4876923828e+003;4.5001284180e+003;4.4985898438e+003;4.4976923828e+003;4.4973076172e+003;4.5056411133e+003;4.4947436523e+003;4.4500000000e+003;4.4857690430e+003;4.4673076172e+003;4.4805126953e+003;4.4982050781e+003;
1.8203125000e+000;4.4287177734e+003;4.4332050781e+003;4.4389741211e+003;4.4497436523e+003;4.4346152344e+003;4.4603847656e+003;4.4537177734e+003;4.4556411133e+003;4.4441025391e+003;4.4001284180e+003;4.4339741211e+003;4.4198715820e+003;4.4314101563e+003;4.4433334961e+003;
1.8281250000e+000;4.4570512695e+003;4.4562822266e+003;4.4674360352e+003;4.4796152344e+003;4.4583334961e+003;4.4733334961e+003;4.4715385742e+003;4.4751284180e+003;4.4653847656e+003;4.4229487305e+003;4.4621796875e+003;4.4474360352e+003;4.4507690430e+003;4.4715385742e+003;
1.8359375000e+000;4.4285898438e+003;4.4241025391e+003;4.4396152344e+003;4.4521796875e+003;4.4202563477e+003;4.4420512695e+003;4.4433334961e+003;4.4432050781e+003;4.4310258789e+003;4.3910258789e+003;4.4293588867e+003;4.4171796875e+003;4.4194873047e+003;4.4420512695e+003;
1.8437500000e+000;4.4632050781e+003;4.4591025391e+003;4.4715385742e+003;4.4811538086e+003;4.4598715820e+003;4.4775639648e+003;4.4711538086e+003;4.4761538086e+003;4.4632050781e+003;4.4275639648e+003;4.4639741211e+003;4.4507690430e+003;4.4593588867e+003;4.4755126953e+003;
1.8515625000e+000;4.4069228516e+003;4.4085898438e+003;4.4128203125e+003;4.4235898438e+003;4.4003847656e+003;4.4302563477e+003;4.4228203125e+003;4.4170512695e+003;4.4065385742e+003;4.3635898438e+003;4.4093588867e+003;4.3947436523e+003;4.4021796875e+003;4.4235898438e+003;
1.8593750000e+000;4.4243588867e+003;4.4250000000e+003;4.4274360352e+003;4.4408974609e+003;4.4076923828e+003;4.4423076172e+003;4.4382050781e+003;4.4328203125e+003;4.4207690430e+003;4.3811538086e+003;4.4250000000e+003;4.4102563477e+003;4.4191025391e+003;4.4417949219e+003;
1.8671875000e+000;4.4253847656e+003;4.4246152344e+003;4.4280771484e+003;4.4458974609e+003;4.4039741211e+003;4.4402563477e+003;4.4365385742e+003;4.4365385742e+003;4.4230771484e+003;4.3864101563e+003;4.4266665039e+003;4.4128203125e+003;4.4207690430e+003;4.4444873047e+003;
1.8750000000e+000;4.3538461914e+003;4.3519228516e+003;4.3615385742e+003;4.3861538086e+003;4.3512822266e+003;4.3771796875e+003;4.3697436523e+003;4.3728203125e+003;4.3591025391e+003;4.3183334961e+003;4.3574360352e+003;4.3456411133e+003;4.3494873047e+003;4.3739741211e+003;
1.8828125000e+000;4.3466665039e+003;4.3451284180e+003;4.3552563477e+003;4.3785898438e+003;4.3582050781e+003;4.3738461914e+003;4.3661538086e+003;4.3653847656e+003;4.3532050781e+003;4.3088461914e+003;4.3503847656e+003;4.3362822266e+003;4.3426923828e+003;4.3653847656e+003;
1.8906250000e+000;4.3841025391e+003;4.3825639648e+003;4.3926923828e+003;4.4097436523e+003;4.4003847656e+003;4.4105126953e+003;4.4011538086e+003;4.4028203125e+003;4.3943588867e+003;4.3485898438e+003;4.3892309570e+003;4.3710258789e+003;4.3830771484e+003;4.4047436523e+003;
1.8984375000e+000;4.3655126953e+003;4.3629487305e+003;4.3758974609e+003;4.3917949219e+003;4.3733334961e+003;4.3919228516e+003;4.3803847656e+003;4.3862822266e+003;4.3778203125e+003;4.3311538086e+003;4.3710258789e+003;4.3539741211e+003;4.3646152344e+003;4.3888461914e+003;
1.9062500000e+000;4.3282050781e+003;4.3216665039e+003;4.3379487305e+003;4.3492309570e+003;4.3247436523e+003;4.3443588867e+003;4.3398715820e+003;4.3441025391e+003;4.3305126953e+003;4.2829487305e+003;4.3298715820e+003;4.3148715820e+003;4.3216665039e+003;4.3469228516e+003;
1.9140625000e+000;4.3320512695e+003;4.3248715820e+003;4.3406411133e+003;4.3508974609e+003;4.3289741211e+003;4.3476923828e+003;4.3435898438e+003;4.3475639648e+003;4.3335898438e+003;4.2878203125e+003;4.3338461914e+003;4.3202563477e+003;4.3252563477e+003;4.3502563477e+003;
1.9218750000e+000;4.3152563477e+003;4.3084614258e+003;4.3244873047e+003;4.3367949219e+003;4.3100000000e+003;4.3361538086e+003;4.3302563477e+003;4.3324360352e+003;4.3188461914e+003;4.2734614258e+003;4.3171796875e+003;4.3064101563e+003;4.3094873047e+003;4.3348715820e+003;
1.9296875000e+000;4.3574360352e+003;4.3543588867e+003;4.3629487305e+003;4.3779487305e+003;4.3562822266e+003;4.3757690430e+003;4.3747436523e+003;4.3830771484e+003;4.3670512695e+003;4.3269228516e+003;4.3634614258e+003;4.3491025391e+003;4.3578203125e+003;4.3764101563e+003;
1.9375000000e+000;4.3139741211e+003;4.3107690430e+003;4.3238461914e+003;4.3383334961e+003;4.3111538086e+003;4.3420512695e+003;4.3379487305e+003;4.3438461914e+003;4.3261538086e+003;4.2839741211e+003;4.3211538086e+003;4.3067949219e+003;4.3146152344e+003;4.3366665039e+003;
1.9453125000e+000;4.3460258789e+003;4.3429487305e+003;4.3608974609e+003;4.3689741211e+003;4.3302563477e+003;4.3788461914e+003;4.3769228516e+003;4.3791025391e+003;4.3639741211e+003;4.3200000000e+003;4.3516665039e+003;4.3347436523e+003;4.3474360352e+003;4.3719228516e+003;
1.9531250000e+000;4.3035898438e+003;4.3016665039e+003;4.3084614258e+003;4.3260258789e+003;4.3224360352e+003;4.3346152344e+003;4.3306411133e+003;4.3326923828e+003;4.3182050781e+003;4.2702563477e+003;4.3056411133e+003;4.2911538086e+003;4.3035898438e+003;4.3256411133e+003;
1.9609375000e+000;4.3371796875e+003;4.3361538086e+003;4.3416665039e+003;4.3597436523e+003;4.3606411133e+003;4.3685898438e+003;4.3637177734e+003;4.3661538086e+003;4.3506411133e+003;4.3020512695e+003;4.3391025391e+003;4.3215385742e+003;4.3384614258e+003;4.3588461914e+003;
1.9687500000e+000;4.2967949219e+003;4.2892309570e+003;4.3132050781e+003;4.3225639648e+003;4.2975639648e+003;4.3341025391e+003;4.3296152344e+003;4.3376923828e+003;4.3206411133e+003;4.2721796875e+003;4.3023076172e+003;4.2814101563e+003;4.2956411133e+003;4.3212822266e+003;
1.9765625000e+000;4.2750000000e+003;4.2692309570e+003;4.2857690430e+003;4.2955126953e+003;4.2744873047e+003;4.3067949219e+003;4.3015385742e+003;4.3062822266e+003;4.2955126953e+003;4.2446152344e+003;4.2767949219e+003;4.2541025391e+003;4.2675639648e+003;4.2926923828e+003;
1.9843750000e+000;4.2746152344e+003;4.2673076172e+003;4.2847436523e+003;4.2967949219e+003;4.2711538086e+003;4.3061538086e+003;4.2988461914e+003;4.3038461914e+003;4.2919228516e+003;4.2407690430e+003;4.2743588867e+003;4.2542309570e+003;4.2674360352e+003;4.2924360352e+003;
1.9921875000e+000;4.3120512695e+003;4.2998715820e+003;4.3147436523e+003;4.3324360352e+003;4.3042309570e+003;4.3302563477e+003;4.3312822266e+003;4.3247436523e+003;4.3064101563e+003;4.2619228516e+003;4.3007690430e+003;4.2874360352e+003;4.2973076172e+003;4.3230771484e+003;
2.0000000000e+000;4.3543588867e+003;4.3434614258e+003;4.3548715820e+003;4.3688461914e+003;4.3511538086e+003;4.3657690430e+003;4.3684614258e+003;4.3679487305e+003;4.3475639648e+003;4.3096152344e+003;4.3451284180e+003;4.3306411133e+003;4.3383334961e+003;4.3637177734e+003;
2.0078125000e+000;4.3023076172e+003;4.2998715820e+003;4.3108974609e+003;4.3224360352e+003;4.3035898438e+003;4.3294873047e+003;4.3230771484e+003;4.3333334961e+003;4.3093588867e+003;4.2724360352e+003;4.3070512695e+003;4.2883334961e+003;4.2932050781e+003;4.3173076172e+003;
2.0156250000e+000;4.2525639648e+003;4.2557690430e+003;4.2656411133e+003;4.2800000000e+003;4.2497436523e+003;4.2924360352e+003;4.2820512695e+003;4.2889741211e+003;4.2652563477e+003;4.2230771484e+003;4.2620512695e+003;4.2405126953e+003;4.2483334961e+003;4.2712822266e+003;
2.0234375000e+000;4.2448715820e+003;4.2460258789e+003;4.2557690430e+003;4.2733334961e+003;4.2338461914e+003;4.2830771484e+003;4.2743588867e+003;4.2767949219e+003;4.2571796875e+003;4.2091025391e+003;4.2505126953e+003;4.2316665039e+003;4.2405126953e+003;4.2655126953e+003;
2.0312500000e+000;4.2351284180e+003;4.2321796875e+003;4.2460258789e+003;4.2639741211e+003;4.2342309570e+003;4.2720512695e+003;4.2639741211e+003;4.2652563477e+003;4.2460258789e+003;4.1985898438e+003;4.2383334961e+003;4.2238461914e+003;4.2273076172e+003;4.2544873047e+003;
2.0390625000e+000;4.2384614258e+003;4.2343588867e+003;4.2497436523e+003;4.2688461914e+003;4.2506411133e+003;4.2755126953e+003;4.2687177734e+003;4.2669228516e+003;4.2489741211e+003;4.2016665039e+003;4.2412822266e+003;4.2279487305e+003;4.2289741211e+003;4.2565385742e+003;
2.0468750000e+000;4.2642309570e+003;4.2623076172e+003;4.2752563477e+003;4.2957690430e+003;4.2844873047e+003;4.3010258789e+003;4.2956411133e+003;4.2928203125e+003;4.2766665039e+003;4.2302563477e+003;4.2696152344e+003;4.2539741211e+003;4.2564101563e+003;4.2824360352e+003;
2.0546875000e+000;4.2362822266e+003;4.2356411133e+003;4.2479487305e+003;4.2674360352e+003;4.2339741211e+003;4.2775639648e+003;4.2674360352e+003;4.2661538086e+003;4.2483334961e+003;4.2026923828e+003;4.2414101563e+003;4.2232050781e+003;4.2301284180e+003;4.2537177734e+003;
2.0625000000e+000;4.2708974609e+003;4.2688461914e+003;4.2800000000e+003;4.2969228516e+003;4.2696152344e+003;4.3044873047e+003;4.2970512695e+003;4.2964101563e+003;4.2769228516e+003;4.2328203125e+003;4.2719228516e+003;4.2539741211e+003;4.2617949219e+003;4.2852563477e+003;
2.0703125000e+000;4.2844873047e+003;4.2788461914e+003;4.2897436523e+003;4.3014101563e+003;4.2719228516e+003;4.3144873047e+003;4.3069228516e+003;4.3151284180e+003;4.2965385742e+003;4.2560258789e+003;4.2917949219e+003;4.2761538086e+003;4.2823076172e+003;4.3039741211e+003;
2.0781250000e+000;4.3128203125e+003;4.3033334961e+003;4.3137177734e+003;4.3351284180e+003;4.3129487305e+003;4.3376923828e+003;4.3324360352e+003;4.3328203125e+003;4.3175639648e+003;4.2771796875e+003;4.3135898438e+003;4.2930771484e+003;4.3062822266e+003;4.3257690430e+003;
2.0859375000e+000;4.3305126953e+003;4.3239741211e+003;4.3323076172e+003;4.3543588867e+003;4.3306411133e+003;4.3507690430e+003;4.3460258789e+003;4.3532050781e+003;4.3365385742e+003;4.2980771484e+003;4.3330771484e+003;4.3125639648e+003;4.3228203125e+003;4.3460258789e+003;
2.0937500000e+000;4.2601284180e+003;4.2597436523e+003;4.2664101563e+003;4.2834614258e+003;4.2425639648e+003;4.2864101563e+003;4.2824360352e+003;4.2883334961e+003;4.2665385742e+003;4.2256411133e+003;4.2687177734e+003;4.2542309570e+003;4.2557690430e+003;4.2823076172e+003;
2.1015625000e+000;4.2708974609e+003;4.2678203125e+003;4.2755126953e+003;4.2897436523e+003;4.2612822266e+003;4.2975639648e+003;4.2930771484e+003;4.2974360352e+003;4.2761538086e+003;4.2352563477e+003;4.2788461914e+003;4.2647436523e+003;4.2674360352e+003;4.2928203125e+003;
2.1093750000e+000;4.2557690430e+003;4.2483334961e+003;4.2629487305e+003;4.2726923828e+003;4.2730771484e+003;4.2891025391e+003;4.2798715820e+003;4.2834614258e+003;4.2642309570e+003;4.2232050781e+003;4.2634614258e+003;4.2502563477e+003;4.2506411133e+003;4.2807690430e+003;
2.1171875000e+000;4.2514101563e+003;4.2451284180e+003;4.2600000000e+003;4.2703847656e+003;4.2741025391e+003;4.2866665039e+003;4.2774360352e+003;4.2775639648e+003;4.2597436523e+003;4.2176923828e+003;4.2584614258e+003;4.2439741211e+003;4.2442309570e+003;4.2762822266e+003;
2.1250000000e+000;4.3391025391e+003;4.3364101563e+003;4.3408974609e+003;4.3596152344e+003;4.3417949219e+003;4.3621796875e+003;4.3589741211e+003;4.3633334961e+003;4.3469228516e+003;4.3079487305e+003;4.3456411133e+003;4.3308974609e+003;4.3332050781e+003;4.3587177734e+003;
2.1328125000e+000;4.3107690430e+003;4.3058974609e+003;4.3124360352e+003;4.3338461914e+003;4.3116665039e+003;4.3364101563e+003;4.3311538086e+003;4.3385898438e+003;4.3197436523e+003;4.2825639648e+003;4.3169228516e+003;4.3061538086e+003;4.3056411133e+003;4.3310258789e+003;
2.1406250000e+000;4.2900000000e+003;4.2839741211e+003;4.2884614258e+003;4.3128203125e+003;4.2978203125e+003;4.3200000000e+003;4.3111538086e+003;4.3156411133e+003;4.2950000000e+003;4.2611538086e+003;4.2937177734e+003;4.2810258789e+003;4.2843588867e+003;4.3096152344e+003;
2.1484375000e+000;4.3315385742e+003;4.3276923828e+003;4.3273076172e+003;4.3493588867e+003;4.3393588867e+003;4.3579487305e+003;4.3503847656e+003;4.3552563477e+003;4.3357690430e+003;4.3037177734e+003;4.3360258789e+003;4.3185898438e+003;4.3269228516e+003;4.3505126953e+003;
2.1562500000e+000;4.2944873047e+003;4.2955126953e+003;4.3003847656e+003;4.3103847656e+003;4.3030771484e+003;4.3253847656e+003;4.3206411133e+003;4.3258974609e+003;4.3074360352e+003;4.2684614258e+003;4.3061538086e+003;4.2892309570e+003;4.2978203125e+003;4.3207690430e+003;
2.1640625000e+000;4.2738461914e+003;4.2756411133e+003;4.2808974609e+003;4.2923076172e+003;4.2876923828e+003;4.3070512695e+003;4.3019228516e+003;4.3047436523e+003;4.2879487305e+003;4.2462822266e+003;4.2862822266e+003;4.2694873047e+003;4.2787177734e+003;4.3010258789e+003;
2.1718750000e+000;4.2824360352e+003;4.2852563477e+003;4.2870512695e+003;4.3034614258e+003;4.2964101563e+003;4.3143588867e+003;4.3085898438e+003;4.3128203125e+003;4.2974360352e+003;4.2565385742e+003;4.2962822266e+003;4.2776923828e+003;4.2879487305e+003;4.3087177734e+003;
2.1796875000e+000;4.3055126953e+003;4.3011538086e+003;4.3005126953e+003;4.3250000000e+003;4.2971796875e+003;4.3215385742e+003;4.3207690430e+003;4.3223076172e+003;4.2953847656e+003;4.2683334961e+003;4.3064101563e+003;4.2826923828e+003;4.2974360352e+003;4.3157690430e+003;
2.1875000000e+000;4.3137177734e+003;4.3064101563e+003;4.3114101563e+003;4.3243588867e+003;4.3167949219e+003;4.3269228516e+003;4.3247436523e+003;4.3301284180e+003;4.3057690430e+003;4.2788461914e+003;4.3152563477e+003;4.2916665039e+003;4.3058974609e+003;4.3237177734e+003;
2.1953125000e+000;4.2130771484e+003;4.2121796875e+003;4.2198715820e+003;4.2367949219e+003;4.2293588867e+003;4.2474360352e+003;4.2382050781e+003;4.2396152344e+003;4.2216665039e+003;4.1801284180e+003;4.2212822266e+003;4.2061538086e+003;4.2112822266e+003;4.2310258789e+003;
2.2031250000e+000;4.2396152344e+003;4.2425639648e+003;4.2438461914e+003;4.2673076172e+003;4.2507690430e+003;4.2741025391e+003;4.2667949219e+003;4.2673076172e+003;4.2492309570e+003;4.2078203125e+003;4.2503847656e+003;4.2352563477e+003;4.2419228516e+003;4.2607690430e+003;
2.2109375000e+000;4.2737177734e+003;4.2775639648e+003;4.2724360352e+003;4.2976923828e+003;4.2793588867e+003;4.3028203125e+003;4.2978203125e+003;4.3051284180e+003;4.2851284180e+003;4.2514101563e+003;4.2894873047e+003;4.2720512695e+003;4.2823076172e+003;4.3035898438e+003;
2.2187500000e+000;4.2915385742e+003;4.2867949219e+003;4.2924360352e+003;4.3098715820e+003;4.2928203125e+003;4.3166665039e+003;4.3094873047e+003;4.3158974609e+003;4.2982050781e+003;4.2578203125e+003;4.2910258789e+003;4.2784614258e+003;4.2883334961e+003;4.3108974609e+003;
2.2265625000e+000;4.2839741211e+003;4.2778203125e+003;4.2860258789e+003;4.3024360352e+003;4.2793588867e+003;4.3084614258e+003;4.2997436523e+003;4.3073076172e+003;4.2920512695e+003;4.2494873047e+003;4.2823076172e+003;4.2712822266e+003;4.2791025391e+003;4.3016665039e+003;
2.2343750000e+000;4.2433334961e+003;4.2408974609e+003;4.2447436523e+003;4.2598715820e+003;4.2414101563e+003;4.2664101563e+003;4.2632050781e+003;4.2633334961e+003;4.2503847656e+003;4.2079487305e+003;4.2452563477e+003;4.2298715820e+003;4.2406411133e+003;4.2625639648e+003;
2.2421875000e+000;4.2521796875e+003;4.2523076172e+003;4.2530771484e+003;4.2678203125e+003;4.2561538086e+003;4.2734614258e+003;4.2743588867e+003;4.2730771484e+003;4.2588461914e+003;4.2196152344e+003;4.2589741211e+003;4.2392309570e+003;4.2528203125e+003;4.2733334961e+003;
2.2500000000e+000;4.2017949219e+003;4.1971796875e+003;4.2028203125e+003;4.2325639648e+003;4.1887177734e+003;4.2373076172e+003;4.2302563477e+003;4.2297436523e+003;4.2138461914e+003;4.1739741211e+003;4.2132050781e+003;4.1914101563e+003;4.2056411133e+003;4.2219228516e+003;
2.2578125000e+000;4.1994873047e+003;4.1934614258e+003;4.1975639648e+003;4.2305126953e+003;4.1771796875e+003;4.2344873047e+003;4.2271796875e+003;4.2223076172e+003;4.2097436523e+003;4.1682050781e+003;4.2064101563e+003;4.1835898438e+003;4.2014101563e+003;4.2153847656e+003;
2.2656250000e+000;4.2734614258e+003;4.2697436523e+003;4.2684614258e+003;4.2933334961e+003;4.2635898438e+003;4.2939741211e+003;4.2924360352e+003;4.2914101563e+003;4.2832050781e+003;4.2494873047e+003;4.2803847656e+003;4.2534614258e+003;4.2750000000e+003;4.2867949219e+003;
2.2734375000e+000;4.2729487305e+003;4.2703847656e+003;4.2708974609e+003;4.2915385742e+003;4.2807690430e+003;4.2933334961e+003;4.2912822266e+003;4.2948715820e+003;4.2853847656e+003;4.2558974609e+003;4.2844873047e+003;4.2573076172e+003;4.2746152344e+003;4.2887177734e+003;
2.2812500000e+000;4.2385898438e+003;4.2362822266e+003;4.2367949219e+003;4.2614101563e+003;4.2553847656e+003;4.2646152344e+003;4.2580771484e+003;4.2597436523e+003;4.2450000000e+003;4.2116665039e+003;4.2498715820e+003;4.2198715820e+003;4.2355126953e+003;4.2537177734e+003;
2.2890625000e+000;4.2600000000e+003;4.2584614258e+003;4.2550000000e+003;4.2812822266e+003;4.2638461914e+003;4.2803847656e+003;4.2746152344e+003;4.2787177734e+003;4.2650000000e+003;4.2306411133e+003;4.2697436523e+003;4.2396152344e+003;4.2582050781e+003;4.2757690430e+003;
2.2968750000e+000;4.2516665039e+003;4.2502563477e+003;4.2467949219e+003;4.2738461914e+003;4.2467949219e+003;4.2696152344e+003;4.2634614258e+003;4.2698715820e+003;4.2573076172e+003;4.2229487305e+003;4.2614101563e+003;4.2333334961e+003;4.2526923828e+003;4.2702563477e+003;
2.3046875000e+000;4.2494873047e+003;4.2407690430e+003;4.2488461914e+003;4.2635898438e+003;4.2465385742e+003;4.2725639648e+003;4.2687177734e+003;4.2751284180e+003;4.2603847656e+003;4.2265385742e+003;4.2638461914e+003;4.2371796875e+003;4.2523076172e+003;4.2692309570e+003;
2.3125000000e+000;4.2285898438e+003;4.2135898438e+003;4.2305126953e+003;4.2430771484e+003;4.2215385742e+003;4.2551284180e+003;4.2508974609e+003;4.2570512695e+003;4.2419228516e+003;4.2056411133e+003;4.2416665039e+003;4.2183334961e+003;4.2285898438e+003;4.2464101563e+003;
2.3203125000e+000;4.3117949219e+003;4.2893588867e+003;4.3094873047e+003;4.3203847656e+003;4.2953847656e+003;4.3258974609e+003;4.3261538086e+003;4.3247436523e+003;4.3165385742e+003;4.2833334961e+003;4.3155126953e+003;4.2926923828e+003;4.3025639648e+003;4.3215385742e+003;
2.3281250000e+000;4.3494873047e+003;4.3320512695e+003;4.3426923828e+003;4.3556411133e+003;4.3284614258e+003;4.3578203125e+003;4.3600000000e+003;4.3596152344e+003;4.3519228516e+003;4.3230771484e+003;4.3525639648e+003;4.3293588867e+003;4.3389741211e+003;4.3606411133e+003;
2.3359375000e+000;4.3906411133e+003;4.3797436523e+003;4.3761538086e+003;4.3935898438e+003;4.3724360352e+003;4.3915385742e+003;4.3966665039e+003;4.3967949219e+003;4.3850000000e+003;4.3601284180e+003;4.3903847656e+003;4.3676923828e+003;4.3766665039e+003;4.4000000000e+003;
2.3437500000e+000;4.3985898438e+003;4.3873076172e+003;4.3897436523e+003;4.3976923828e+003;4.3587177734e+003;4.3985898438e+003;4.4007690430e+003;4.4037177734e+003;4.3930771484e+003;4.3624360352e+003;4.3911538086e+003;4.3792309570e+003;4.3832050781e+003;4.4029487305e+003;
2.3515625000e+000;4.4725639648e+003;4.4671796875e+003;4.4651284180e+003;4.4697436523e+003;4.4364101563e+003;4.4698715820e+003;4.4792309570e+003;4.4697436523e+003;4.4583334961e+003;4.4307690430e+003;4.4612822266e+003;4.4496152344e+003;4.4566665039e+003;4.4753847656e+003;
2.3593750000e+000;4.8578203125e+003;4.8558974609e+003;4.8417949219e+003;4.8297436523e+003;4.8515385742e+003;4.8152563477e+003;4.8416665039e+003;4.8344873047e+003;4.8215385742e+003;4.8162822266e+003;4.8415385742e+003;4.8161538086e+003;4.8405126953e+003;4.8501284180e+003;
2.3671875000e+000;4.9574360352e+003;4.9519228516e+003;4.9393588867e+003;4.9201284180e+003;4.9616665039e+003;4.8994873047e+003;4.9241025391e+003;4.9348715820e+003;4.9217949219e+003;4.9260258789e+003;4.9439741211e+003;4.9147436523e+003;4.9421796875e+003;4.9484614258e+003;
2.3750000000e+000;4.5121796875e+003;4.5064101563e+003;4.5034614258e+003;4.4993588867e+003;4.5016665039e+003;4.4921796875e+003;4.4882050781e+003;4.5107690430e+003;4.4976923828e+003;4.4884614258e+003;4.5097436523e+003;4.4932050781e+003;4.5052563477e+003;4.5148715820e+003;
2.3828125000e+000;4.3893588867e+003;4.3846152344e+003;4.3815385742e+003;4.3844873047e+003;4.3741025391e+003;4.3816665039e+003;4.3750000000e+003;4.3882050781e+003;4.3743588867e+003;4.3593588867e+003;4.3870512695e+003;4.3715385742e+003;4.3817949219e+003;4.3944873047e+003;
2.3906250000e+000;4.3012822266e+003;4.2941025391e+003;4.2974360352e+003;4.3100000000e+003;4.2923076172e+003;4.3037177734e+003;4.2974360352e+003;4.3029487305e+003;4.2861538086e+003;4.2664101563e+003;4.3006411133e+003;4.2826923828e+003;4.2934614258e+003;4.3120512695e+003;
2.3984375000e+000;4.2752563477e+003;4.2684614258e+003;4.2741025391e+003;4.2903847656e+003;4.2692309570e+003;4.2814101563e+003;4.2760258789e+003;4.2811538086e+003;4.2634614258e+003;4.2408974609e+003;4.2767949219e+003;4.2588461914e+003;4.2702563477e+003;4.2887177734e+003;
2.4062500000e+000;4.2051284180e+003;4.2021796875e+003;4.2048715820e+003;4.2196152344e+003;4.1961538086e+003;4.2196152344e+003;4.2114101563e+003;4.2216665039e+003;4.2079487305e+003;4.1782050781e+003;4.2137177734e+003;4.1967949219e+003;4.2097436523e+003;4.2232050781e+003;
2.4140625000e+000;4.1688461914e+003;4.1658974609e+003;4.1708974609e+003;4.1862822266e+003;4.1653847656e+003;4.1882050781e+003;4.1776923828e+003;4.1865385742e+003;4.1739741211e+003;4.1421796875e+003;4.1782050781e+003;4.1600000000e+003;4.1738461914e+003;4.1882050781e+003;
2.4218750000e+000;4.1474360352e+003;4.1456411133e+003;4.1523076172e+003;4.1712822266e+003;4.1478203125e+003;4.1703847656e+003;4.1600000000e+003;4.1641025391e+003;4.1516665039e+003;4.1178203125e+003;4.1557690430e+003;4.1353847656e+003;4.1519228516e+003;4.1669228516e+003;
2.4296875000e+000;4.1594873047e+003;4.1598715820e+003;4.1651284180e+003;4.1889741211e+003;4.1557690430e+003;4.1820512695e+003;4.1741025391e+003;4.1737177734e+003;4.1615385742e+003;4.1265385742e+003;4.1658974609e+003;4.1430771484e+003;4.1633334961e+003;4.1780771484e+003;
2.4375000000e+000;4.1826923828e+003;4.1832050781e+003;4.1775639648e+003;4.2037177734e+003;4.1714101563e+003;4.2042309570e+003;4.1966665039e+003;4.1978203125e+003;4.1864101563e+003;4.1541025391e+003;4.1896152344e+003;4.1683334961e+003;4.1897436523e+003;4.2041025391e+003;
2.4453125000e+000;4.2038461914e+003;4.2026923828e+003;4.1962822266e+003;4.2202563477e+003;4.2053847656e+003;4.2226923828e+003;4.2174360352e+003;4.2141025391e+003;4.2032050781e+003;4.1723076172e+003;4.2094873047e+003;4.1864101563e+003;4.2101284180e+003;4.2221796875e+003;
2.4531250000e+000;4.2193588867e+003;4.2200000000e+003;4.2157690430e+003;4.2369228516e+003;4.2184614258e+003;4.2306411133e+003;4.2235898438e+003;4.2294873047e+003;4.2202563477e+003;4.1925639648e+003;4.2279487305e+003;4.2060258789e+003;4.2258974609e+003;4.2384614258e+003;
2.4609375000e+000;4.1119228516e+003;4.1125639648e+003;4.1128203125e+003;4.1426923828e+003;4.1071796875e+003;4.1305126953e+003;4.1191025391e+003;4.1193588867e+003;4.1076923828e+003;4.0792307129e+003;4.1229487305e+003;4.1037177734e+003;4.1235898438e+003;4.1403847656e+003;
2.4687500000e+000;4.1260258789e+003;4.1262822266e+003;4.1271796875e+003;4.1589741211e+003;4.1256411133e+003;4.1437177734e+003;4.1334614258e+003;4.1333334961e+003;4.1206411133e+003;4.0953845215e+003;4.1364101563e+003;4.1189741211e+003;4.1382050781e+003;4.1555126953e+003;
2.4765625000e+000;4.1478203125e+003;4.1437177734e+003;4.1474360352e+003;4.1739741211e+003;4.1466665039e+003;4.1616665039e+003;4.1552563477e+003;4.1520512695e+003;4.1410258789e+003;4.1094873047e+003;4.1473076172e+003;4.1323076172e+003;4.1494873047e+003;4.1692309570e+003;
2.4843750000e+000;4.1310258789e+003;4.1237177734e+003;4.1332050781e+003;4.1574360352e+003;4.1101284180e+003;4.1501284180e+003;4.1420512695e+003;4.1473076172e+003;4.1343588867e+003;4.0979487305e+003;4.1334614258e+003;4.1185898438e+003;4.1353847656e+003;4.1496152344e+003;
2.4921875000e+000;4.1328203125e+003;4.1267949219e+003;4.1346152344e+003;4.1617949219e+003;4.1129487305e+003;4.1570512695e+003;4.1492309570e+003;4.1465385742e+003;4.1326923828e+003;4.0967949219e+003;4.1324360352e+003;4.1191025391e+003;4.1358974609e+003;4.1466665039e+003;
2.5000000000e+000;4.4808974609e+003;4.4766665039e+003;4.4674360352e+003;4.4801284180e+003;4.4960258789e+003;4.4697436523e+003;4.4750000000e+003;4.4726923828e+003;4.4689741211e+003;4.4447436523e+003;4.4739741211e+003;4.4512822266e+003;4.4784614258e+003;4.4796152344e+003;
2.5078125000e+000;4.5160258789e+003;4.5123076172e+003;4.5038461914e+003;4.5108974609e+003;4.5356411133e+003;4.5006411133e+003;4.5069228516e+003;4.5126923828e+003;4.5093588867e+003;4.4885898438e+003;4.5134614258e+003;4.4914101563e+003;4.5166665039e+003;4.5182050781e+003;
2.5156250000e+000;4.4578203125e+003;4.4576923828e+003;4.4487177734e+003;4.4589741211e+003;4.4652563477e+003;4.4539741211e+003;4.4578203125e+003;4.4623076172e+003;4.4530771484e+003;4.4326923828e+003;4.4574360352e+003;4.4388461914e+003;4.4602563477e+003;4.4612822266e+003;
2.5234375000e+000;4.4716665039e+003;4.4728203125e+003;4.4597436523e+003;4.4719228516e+003;4.4708974609e+003;4.4691025391e+003;4.4711538086e+003;4.4746152344e+003;4.4634614258e+003;4.4430771484e+003;4.4689741211e+003;4.4491025391e+003;4.4717949219e+003;4.4706411133e+003;
2.5312500000e+000;4.5055126953e+003;4.4974360352e+003;4.5002563477e+003;4.4980771484e+003;4.5101284180e+003;4.4965385742e+003;4.4965385742e+003;4.5034614258e+003;4.4952563477e+003;4.4714101563e+003;4.4994873047e+003;4.4805126953e+003;4.4982050781e+003;4.4994873047e+003;
2.5390625000e+000;4.5174360352e+003;4.5079487305e+003;4.5157690430e+003;4.5108974609e+003;4.5260258789e+003;4.5069228516e+003;4.5094873047e+003;4.5126923828e+003;4.5035898438e+003;4.4796152344e+003;4.5094873047e+003;4.4917949219e+003;4.5098715820e+003;4.5120512695e+003;
2.5468750000e+000;4.5602563477e+003;4.5532050781e+003;4.5579487305e+003;4.5535898438e+003;4.5656411133e+003;4.5469228516e+003;4.5519228516e+003;4.5544873047e+003;4.5423076172e+003;4.5219228516e+003;4.5512822266e+003;4.5332050781e+003;4.5541025391e+003;4.5551284180e+003;
2.5546875000e+000;4.6002563477e+003;4.5980771484e+003;4.5952563477e+003;4.5933334961e+003;4.5958974609e+003;4.5855126953e+003;4.5908974609e+003;4.5973076172e+003;4.5814101563e+003;4.5660258789e+003;4.5925639648e+003;4.5732050781e+003;4.5961538086e+003;4.5957690430e+003;
2.5625000000e+000;4.5265385742e+003;4.5333334961e+003;4.5201284180e+003;4.5241025391e+003;4.5302563477e+003;4.5169228516e+003;4.5184614258e+003;4.5228203125e+003;4.5120512695e+003;4.4888461914e+003;4.5126923828e+003;4.4975639648e+003;4.5185898438e+003;4.5171796875e+003;
2.5703125000e+000;4.5365385742e+003;4.5424360352e+003;4.5280771484e+003;4.5328203125e+003;4.5498715820e+003;4.5233334961e+003;4.5244873047e+003;4.5294873047e+003;4.5201284180e+003;4.4973076172e+003;4.5206411133e+003;4.5075639648e+003;4.5274360352e+003;4.5273076172e+003;
2.5781250000e+000;4.4812822266e+003;4.4762822266e+003;4.4719228516e+003;4.4760258789e+003;4.4887177734e+003;4.4752563477e+003;4.4762822266e+003;4.4801284180e+003;4.4646152344e+003;4.4432050781e+003;4.4696152344e+003;4.4558974609e+003;4.4703847656e+003;4.4761538086e+003;
2.5859375000e+000;4.4737177734e+003;4.4734614258e+003;4.4720512695e+003;4.4784614258e+003;4.4646152344e+003;4.4765385742e+003;4.4800000000e+003;4.4844873047e+003;4.4738461914e+003;4.4443588867e+003;4.4701284180e+003;4.4537177734e+003;4.4758974609e+003;4.4779487305e+003;
2.5937500000e+000;4.4610258789e+003;4.4625639648e+003;4.4606411133e+003;4.4721796875e+003;4.4507690430e+003;4.4674360352e+003;4.4703847656e+003;4.4733334961e+003;4.4621796875e+003;4.4328203125e+003;4.4585898438e+003;4.4435898438e+003;4.4657690430e+003;4.4669228516e+003;
2.6015625000e+000;4.5891025391e+003;4.5883334961e+003;4.5769228516e+003;4.5866665039e+003;4.5976923828e+003;4.5747436523e+003;4.5887177734e+003;4.5962822266e+003;4.5801284180e+003;4.5658974609e+003;4.5869228516e+003;4.5637177734e+003;4.5898715820e+003;4.5869228516e+003;
2.6093750000e+000;4.5439741211e+003;4.5394873047e+003;4.5414101563e+003;4.5267949219e+003;4.5500000000e+003;4.5364101563e+003;4.5474360352e+003;4.5579487305e+003;4.5419228516e+003;4.5223076172e+003;4.5453847656e+003;4.5228203125e+003;4.5478203125e+003;4.5470512695e+003;
2.6171875000e+000;4.5461538086e+003;4.5416665039e+003;4.5434614258e+003;4.5275639648e+003;4.5414101563e+003;4.5408974609e+003;4.5505126953e+003;4.5574360352e+003;4.5411538086e+003;4.5219228516e+003;4.5461538086e+003;4.5233334961e+003;4.5498715820e+003;4.5465385742e+003;
2.6250000000e+000;4.5676923828e+003;4.5624360352e+003;4.5541025391e+003;4.5556411133e+003;4.5598715820e+003;4.5529487305e+003;4.5625639648e+003;4.5725639648e+003;4.5567949219e+003;4.5420512695e+003;4.5605126953e+003;4.5391025391e+003;4.5641025391e+003;4.5611538086e+003;
2.6328125000e+000;4.5808974609e+003;4.5762822266e+003;4.5667949219e+003;4.5700000000e+003;4.5796152344e+003;4.5637177734e+003;4.5747436523e+003;4.5817949219e+003;4.5683334961e+003;4.5500000000e+003;4.5714101563e+003;4.5488461914e+003;4.5773076172e+003;4.5747436523e+003;
2.6406250000e+000;4.6898715820e+003;4.6828203125e+003;4.6814101563e+003;4.6711538086e+003;4.6832050781e+003;4.6650000000e+003;4.6769228516e+003;4.6858974609e+003;4.6755126953e+003;4.6566665039e+003;4.6837177734e+003;4.6566665039e+003;4.6919228516e+003;4.6853847656e+003;
2.6484375000e+000;4.7043588867e+003;4.6950000000e+003;4.7000000000e+003;4.6839741211e+003;4.6869228516e+003;4.6802563477e+003;4.6897436523e+003;4.7023076172e+003;4.6916665039e+003;4.6748715820e+003;4.7014101563e+003;4.6762822266e+003;4.7076923828e+003;4.7012822266e+003;
2.6562500000e+000;4.6361538086e+003;4.6328203125e+003;4.6255126953e+003;4.6141025391e+003;4.6193588867e+003;4.6166665039e+003;4.6271796875e+003;4.6271796875e+003;4.6169228516e+003;4.6007690430e+003;4.6284614258e+003;4.6062822266e+003;4.6324360352e+003;4.6324360352e+003;
2.6640625000e+000;4.6762822266e+003;4.6742309570e+003;4.6615385742e+003;4.6464101563e+003;4.6737177734e+003;4.6502563477e+003;4.6635898438e+003;4.6658974609e+003;4.6569228516e+003;4.6432050781e+003;4.6691025391e+003;4.6426923828e+003;4.6746152344e+003;4.6721796875e+003;
2.6718750000e+000;4.6983334961e+003;4.6943588867e+003;4.6844873047e+003;4.6648715820e+003;4.7084614258e+003;4.6703847656e+003;4.6832050781e+003;4.6924360352e+003;4.6838461914e+003;4.6728203125e+003;4.6950000000e+003;4.6661538086e+003;4.7010258789e+003;4.6951284180e+003;
2.6796875000e+000;4.6719228516e+003;4.6650000000e+003;4.6630771484e+003;4.6439741211e+003;4.6880771484e+003;4.6505126953e+003;4.6597436523e+003;4.6730771484e+003;4.6641025391e+003;4.6533334961e+003;4.6726923828e+003;4.6446152344e+003;4.6780771484e+003;4.6698715820e+003;
2.6875000000e+000;4.5915385742e+003;4.5887177734e+003;4.5819228516e+003;4.5839741211e+003;4.5952563477e+003;4.5879487305e+003;4.5910258789e+003;4.5976923828e+003;4.5905126953e+003;4.5669228516e+003;4.5865385742e+003;4.5606411133e+003;4.5932050781e+003;4.5866665039e+003;
2.6953125000e+000;4.5698715820e+003;4.5666665039e+003;4.5600000000e+003;4.5605126953e+003;4.5732050781e+003;4.5675639648e+003;4.5692309570e+003;4.5787177734e+003;4.5712822266e+003;4.5455126953e+003;4.5648715820e+003;4.5396152344e+003;4.5708974609e+003;4.5644873047e+003;
2.7031250000e+000;4.5470512695e+003;4.5420512695e+003;4.5403847656e+003;4.5415385742e+003;4.5464101563e+003;4.5480771484e+003;4.5514101563e+003;4.5614101563e+003;4.5515385742e+003;4.5271796875e+003;4.5470512695e+003;4.5198715820e+003;4.5501284180e+003;4.5414101563e+003;
2.7109375000e+000;4.4892309570e+003;4.4865385742e+003;4.4806411133e+003;4.4830771484e+003;4.4870512695e+003;4.4969228516e+003;4.4987177734e+003;4.5067949219e+003;4.4961538086e+003;4.4634614258e+003;4.4864101563e+003;4.4592309570e+003;4.4912822266e+003;4.4869228516e+003;
2.7187500000e+000;4.4910258789e+003;4.4894873047e+003;4.4805126953e+003;4.4829487305e+003;4.4798715820e+003;4.4960258789e+003;4.4985898438e+003;4.5050000000e+003;4.4929487305e+003;4.4593588867e+003;4.4873076172e+003;4.4583334961e+003;4.4898715820e+003;4.4864101563e+003;
2.7265625000e+000;4.5252563477e+003;4.5234614258e+003;4.5162822266e+003;4.5201284180e+003;4.5091025391e+003;4.5250000000e+003;4.5280771484e+003;4.5423076172e+003;4.5282050781e+003;4.5041025391e+003;4.5284614258e+003;4.5019228516e+003;4.5293588867e+003;4.5269228516e+003;
2.7343750000e+000;4.4769228516e+003;4.4752563477e+003;4.4738461914e+003;4.4762822266e+003;4.5015385742e+003;4.4865385742e+003;4.4919228516e+003;4.4925639648e+003;4.4801284180e+003;4.4534614258e+003;4.4771796875e+003;4.4564101563e+003;4.4862822266e+003;4.4843588867e+003;
2.7421875000e+000;4.4810258789e+003;4.4791025391e+003;4.4788461914e+003;4.4801284180e+003;4.4998715820e+003;4.4905126953e+003;4.4941025391e+003;4.4976923828e+003;4.4853847656e+003;4.4585898438e+003;4.4823076172e+003;4.4615385742e+003;4.4908974609e+003;4.4902563477e+003;
2.7500000000e+000;4.4612822266e+003;4.4583334961e+003;4.4616665039e+003;4.4629487305e+003;4.4689741211e+003;4.4741025391e+003;4.4735898438e+003;4.4812822266e+003;4.4678203125e+003;4.4403847656e+003;4.4646152344e+003;4.4450000000e+003;4.4717949219e+003;4.4733334961e+003;
2.7578125000e+000;4.4398715820e+003;4.4355126953e+003;4.4438461914e+003;4.4456411133e+003;4.4414101563e+003;4.4573076172e+003;4.4539741211e+003;4.4600000000e+003;4.4461538086e+003;4.4161538086e+003;4.4426923828e+003;4.4250000000e+003;4.4498715820e+003;4.4523076172e+003;
2.7656250000e+000;4.4678203125e+003;4.4737177734e+003;4.4708974609e+003;4.4738461914e+003;4.4837177734e+003;4.4783334961e+003;4.4788461914e+003;4.4848715820e+003;4.4753847656e+003;4.4484614258e+003;4.4679487305e+003;4.4503847656e+003;4.4728203125e+003;4.4728203125e+003;
2.7734375000e+000;4.4189741211e+003;4.4282050781e+003;4.4234614258e+003;4.4285898438e+003;4.4300000000e+003;4.4346152344e+003;4.4337177734e+003;4.4360258789e+003;4.4257690430e+003;4.3975639648e+003;4.4194873047e+003;4.4012822266e+003;4.4225639648e+003;4.4243588867e+003;
2.7812500000e+000;4.3917949219e+003;4.4006411133e+003;4.3962822266e+003;4.4026923828e+003;4.3961538086e+003;4.4101284180e+003;4.4076923828e+003;4.4053847656e+003;4.3937177734e+003;4.3646152344e+003;4.3919228516e+003;4.3715385742e+003;4.3941025391e+003;4.3974360352e+003;
2.7890625000e+000;4.4237177734e+003;4.4220512695e+003;4.4265385742e+003;4.4334614258e+003;4.4253847656e+003;4.4330771484e+003;4.4294873047e+003;4.4305126953e+003;4.4150000000e+003;4.3900000000e+003;4.4207690430e+003;4.4005126953e+003;4.4232050781e+003;4.4300000000e+003;
2.7968750000e+000;4.4152563477e+003;4.4096152344e+003;4.4197436523e+003;4.4280771484e+003;4.4193588867e+003;4.4217949219e+003;4.4182050781e+003;4.4232050781e+003;4.4057690430e+003;4.3819228516e+003;4.4102563477e+003;4.3938461914e+003;4.4126923828e+003;4.4212822266e+003;
2.8046875000e+000;4.3838461914e+003;4.3791025391e+003;4.3910258789e+003;4.4008974609e+003;4.3874360352e+003;4.3920512695e+003;4.3892309570e+003;4.3938461914e+003;4.3755126953e+003;4.3493588867e+003;4.3761538086e+003;4.3629487305e+003;4.3793588867e+003;4.3882050781e+003;
2.8125000000e+000;4.3773076172e+003;4.3826923828e+003;4.3820512695e+003;4.3955126953e+003;4.3830771484e+003;4.3880771484e+003;4.3873076172e+003;4.3974360352e+003;4.3794873047e+003;4.3516665039e+003;4.3821796875e+003;4.3608974609e+003;4.3784614258e+003;4.3856411133e+003;
2.8203125000e+000;4.3526923828e+003;4.3575639648e+003;4.3556411133e+003;4.3752563477e+003;4.3717949219e+003;4.3641025391e+003;4.3630771484e+003;4.3719228516e+003;4.3515385742e+003;4.3267949219e+003;4.3566665039e+003;4.3371796875e+003;4.3546152344e+003;4.3623076172e+003;
2.8281250000e+000;4.3600000000e+003;4.3608974609e+003;4.3576923828e+003;4.3758974609e+003;4.3644873047e+003;4.3660258789e+003;4.3596152344e+003;4.3702563477e+003;4.3535898438e+003;4.3280771484e+003;4.3579487305e+003;4.3371796875e+003;4.3602563477e+003;4.3623076172e+003;
2.8359375000e+000;4.3194873047e+003;4.3156411133e+003;4.3219228516e+003;4.3393588867e+003;4.3179487305e+003;4.3243588867e+003;4.3184614258e+003;4.3235898438e+003;4.3092309570e+003;4.2755126953e+003;4.3167949219e+003;4.2978203125e+003;4.3138461914e+003;4.3226923828e+003;
2.8437500000e+000;4.3325639648e+003;4.3316665039e+003;4.3338461914e+003;4.3517949219e+003;4.3357690430e+003;4.3351284180e+003;4.3297436523e+003;4.3365385742e+003;4.3211538086e+003;4.2897436523e+003;4.3291025391e+003;4.3121796875e+003;4.3275639648e+003;4.3378203125e+003;
2.8515625000e+000;4.3048715820e+003;4.3082050781e+003;4.3034614258e+003;4.3246152344e+003;4.2908974609e+003;4.3155126953e+003;4.3048715820e+003;4.3037177734e+003;4.2821796875e+003;4.2550000000e+003;4.2957690430e+003;4.2796152344e+003;4.3007690430e+003;4.3057690430e+003;
2.8593750000e+000;4.3747436523e+003;4.3721796875e+003;4.3676923828e+003;4.3907690430e+003;4.3714101563e+003;4.3692309570e+003;4.3685898438e+003;4.3721796875e+003;4.3544873047e+003;4.3279487305e+003;4.3694873047e+003;4.3448715820e+003;4.3693588867e+003;4.3728203125e+003;
2.8671875000e+000;4.3378203125e+003;4.3371796875e+003;4.3324360352e+003;4.3561538086e+003;4.3314101563e+003;4.3356411133e+003;4.3339741211e+003;4.3391025391e+003;4.3228203125e+003;4.2955126953e+003;4.3343588867e+003;4.3110258789e+003;4.3332050781e+003;4.3401284180e+003;
2.8750000000e+000;4.3411538086e+003;4.3392309570e+003;4.3380771484e+003;4.3551284180e+003;4.3161538086e+003;4.3411538086e+003;4.3384614258e+003;4.3446152344e+003;4.3267949219e+003;4.3010258789e+003;4.3346152344e+003;4.3050000000e+003;4.3380771484e+003;4.3438461914e+003;
2.8828125000e+000;4.3410258789e+003;4.3365385742e+003;4.3412822266e+003;4.3534614258e+003;4.3252563477e+003;4.3401284180e+003;4.3387177734e+003;4.3500000000e+003;4.3300000000e+003;4.3052563477e+003;4.3357690430e+003;4.3071796875e+003;4.3396152344e+003;4.3457690430e+003;
2.8906250000e+000;4.2665385742e+003;4.2647436523e+003;4.2710258789e+003;4.2857690430e+003;4.2774360352e+003;4.2732050781e+003;4.2730771484e+003;4.2826923828e+003;4.2629487305e+003;4.2342309570e+003;4.2643588867e+003;4.2428203125e+003;4.2673076172e+003;4.2783334961e+003;
2.8984375000e+000;4.2608974609e+003;4.2634614258e+003;4.2615385742e+003;4.2823076172e+003;4.2743588867e+003;4.2692309570e+003;4.2679487305e+003;4.2750000000e+003;4.2582050781e+003;4.2282050781e+003;4.2600000000e+003;4.2383334961e+003;4.2617949219e+003;4.2738461914e+003;
2.9062500000e+000;4.2383334961e+003;4.2408974609e+003;4.2357690430e+003;4.2634614258e+003;4.2303847656e+003;4.2514101563e+003;4.2421796875e+003;4.2521796875e+003;4.2378203125e+003;4.2083334961e+003;4.2426923828e+003;4.2180771484e+003;4.2408974609e+003;4.2555126953e+003;
2.9140625000e+000;4.2097436523e+003;4.2085898438e+003;4.2107690430e+003;4.2366665039e+003;4.2033334961e+003;4.2246152344e+003;4.2162822266e+003;4.2220512695e+003;4.2060258789e+003;4.1739741211e+003;4.2106411133e+003;4.1882050781e+003;4.2111538086e+003;4.2269228516e+003;
2.9218750000e+000;4.2194873047e+003;4.2156411133e+003;4.2223076172e+003;4.2451284180e+003;4.2174360352e+003;4.2317949219e+003;4.2257690430e+003;4.2280771484e+003;4.2107690430e+003;4.1782050781e+003;4.2153847656e+003;4.1944873047e+003;4.2196152344e+003;4.2346152344e+003;
2.9296875000e+000;4.2582050781e+003;4.2524360352e+003;4.2606411133e+003;4.2794873047e+003;4.2566665039e+003;4.2653847656e+003;4.2607690430e+003;4.2634614258e+003;4.2457690430e+003;4.2156411133e+003;4.2507690430e+003;4.2297436523e+003;4.2578203125e+003;4.2712822266e+003;
2.9375000000e+000;4.2639741211e+003;4.2569228516e+003;4.2647436523e+003;4.2782050781e+003;4.2555126953e+003;4.2733334961e+003;4.2682050781e+003;4.2694873047e+003;4.2561538086e+003;4.2298715820e+003;4.2601284180e+003;4.2387177734e+003;4.2669228516e+003;4.2776923828e+003;
2.9453125000e+000;4.2788461914e+003;4.2764101563e+003;4.2805126953e+003;4.2956411133e+003;4.2775639648e+003;4.2891025391e+003;4.2853847656e+003;4.2875639648e+003;4.2735898438e+003;4.2487177734e+003;4.2779487305e+003;4.2576923828e+003;4.2848715820e+003;4.2937177734e+003;
2.9531250000e+000;4.2466665039e+003;4.2484614258e+003;4.2520512695e+003;4.2735898438e+003;4.2317949219e+003;4.2685898438e+003;4.2612822266e+003;4.2620512695e+003;4.2452563477e+003;4.2164101563e+003;4.2496152344e+003;4.2275639648e+003;4.2553847656e+003;4.2625639648e+003;
2.9609375000e+000;4.2121796875e+003;4.2142309570e+003;4.2137177734e+003;4.2360258789e+003;4.2057690430e+003;4.2274360352e+003;4.2243588867e+003;4.2288461914e+003;4.2102563477e+003;4.1764101563e+003;4.2108974609e+003;4.1885898438e+003;4.2138461914e+003;4.2266665039e+003;
2.9687500000e+000;4.1901284180e+003;4.1917949219e+003;4.1935898438e+003;4.2157690430e+003;4.1941025391e+003;4.2083334961e+003;4.2043588867e+003;4.2070512695e+003;4.1860258789e+003;4.1507690430e+003;4.1867949219e+003;4.1678203125e+003;4.1898715820e+003;4.2041025391e+003;
2.9765625000e+000;4.5225639648e+003;4.5158974609e+003;4.5137177734e+003;4.5244873047e+003;4.5223076172e+003;4.5128203125e+003;4.5183334961e+003;4.5148715820e+003;4.4976923828e+003;4.4797436523e+003;4.5107690430e+003;4.4871796875e+003;4.5191025391e+003;4.5238461914e+003;
2.9843750000e+000;4.5552563477e+003;4.5605126953e+003;4.5493588867e+003;4.5550000000e+003;4.5571796875e+003;4.5457690430e+003;4.5506411133e+003;4.5625639648e+003;4.5479487305e+003;4.5426923828e+003;4.5569228516e+003;4.5347436523e+003;4.5598715820e+003;4.5653847656e+003;
2.9921875000e+000;4.5153847656e+003;4.5237177734e+003;4.5124360352e+003;4.5151284180e+003;4.5202563477e+003;4.5135898438e+003;4.5165385742e+003;4.5237177734e+003;4.5083334961e+003;4.5003847656e+003;4.5170512695e+003;4.4947436523e+003;4.5194873047e+003;4.5233334961e+003;
3.0000000000e+000;4.5192309570e+003;4.5262822266e+003;4.5156411133e+003;4.5138461914e+003;4.5220512695e+003;4.5192309570e+003;4.5212822266e+003;4.5269228516e+003;4.5117949219e+003;4.5017949219e+003;4.5193588867e+003;4.4953847656e+003;4.5223076172e+003;4.5238461914e+003;
3.0078125000e+000;4.5221796875e+003;4.5211538086e+003;4.5156411133e+003;4.5124360352e+003;4.5198715820e+003;4.5241025391e+003;4.5250000000e+003;4.5348715820e+003;4.5216665039e+003;4.5079487305e+003;4.5224360352e+003;4.4988461914e+003;4.5253847656e+003;4.5274360352e+003;
3.0156250000e+000;4.5664101563e+003;4.5678203125e+003;4.5629487305e+003;4.5625639648e+003;4.5696152344e+003;4.5655126953e+003;4.5752563477e+003;4.5762822266e+003;4.5608974609e+003;4.5464101563e+003;4.5712822266e+003;4.5451284180e+003;4.5712822266e+003;4.5720512695e+003;
3.0234375000e+000;4.6002563477e+003;4.6001284180e+003;4.5992309570e+003;4.5911538086e+003;4.5970512695e+003;4.5934614258e+003;4.6046152344e+003;4.6091025391e+003;4.5919228516e+003;4.5803847656e+003;4.6066665039e+003;4.5801284180e+003;4.6046152344e+003;4.6056411133e+003;
3.0312500000e+000;4.5829487305e+003;4.5802563477e+003;4.5852563477e+003;4.5758974609e+003;4.5794873047e+003;4.5743588867e+003;4.5867949219e+003;4.5893588867e+003;4.5716665039e+003;4.5616665039e+003;4.5851284180e+003;4.5650000000e+003;4.5833334961e+003;4.5915385742e+003;
3.0390625000e+000;4.6226923828e+003;4.6235898438e+003;4.6211538086e+003;4.6158974609e+003;4.6178203125e+003;4.6112822266e+003;4.6267949219e+003;4.6273076172e+003;4.6116665039e+003;4.6024360352e+003;4.6244873047e+003;4.6016665039e+003;4.6250000000e+003;4.6297436523e+003;
3.0468750000e+000;4.6588461914e+003;4.6620512695e+003;4.6550000000e+003;4.6497436523e+003;4.6453847656e+003;4.6460258789e+003;4.6630771484e+003;4.6651284180e+003;4.6507690430e+003;4.6419228516e+003;4.6628203125e+003;4.6371796875e+003;4.6650000000e+003;4.6639741211e+003;
3.0546875000e+000;4.6537177734e+003;4.6566665039e+003;4.6514101563e+003;4.6430771484e+003;4.6302563477e+003;4.6442309570e+003;4.6603847656e+003;4.6643588867e+003;4.6492309570e+003;4.6398715820e+003;4.6608974609e+003;4.6348715820e+003;4.6634614258e+003;4.6582050781e+003;
3.0625000000e+000;4.4950000000e+003;4.4979487305e+003;4.4996152344e+003;4.4955126953e+003;4.5073076172e+003;4.4952563477e+003;4.5033334961e+003;4.5143588867e+003;4.4923076172e+003;4.4819228516e+003;4.5098715820e+003;4.4891025391e+003;4.5064101563e+003;4.5114101563e+003;
3.0703125000e+000;4.4635898438e+003;4.4653847656e+003;4.4680771484e+003;4.4642309570e+003;4.4766665039e+003;4.4646152344e+003;4.4712822266e+003;4.4823076172e+003;4.4607690430e+003;4.4487177734e+003;4.4775639648e+003;4.4580771484e+003;4.4747436523e+003;4.4807690430e+003;
3.0781250000e+000;4.5752563477e+003;4.5685898438e+003;4.5753847656e+003;4.5641025391e+003;4.5585898438e+003;4.5664101563e+003;4.5762822266e+003;4.5796152344e+003;4.5602563477e+003;4.5456411133e+003;4.5792309570e+003;4.5539741211e+003;4.5846152344e+003;4.5830771484e+003;
3.0859375000e+000;4.5835898438e+003;4.5824360352e+003;4.5791025391e+003;4.5730771484e+003;4.5766665039e+003;4.5647436523e+003;4.5743588867e+003;4.5865385742e+003;4.5717949219e+003;4.5596152344e+003;4.5921796875e+003;4.5748715820e+003;4.5885898438e+003;4.5953847656e+003;
3.0937500000e+000;4.5543588867e+003;4.5538461914e+003;4.5482050781e+003;4.5425639648e+003;4.5446152344e+003;4.5357690430e+003;4.5476923828e+003;4.5533334961e+003;4.5384614258e+003;4.5255126953e+003;4.5602563477e+003;4.5443588867e+003;4.5560258789e+003;4.5646152344e+003;
3.1015625000e+000;4.6128203125e+003;4.6071796875e+003;4.6133334961e+003;4.5947436523e+003;4.5956411133e+003;4.5941025391e+003;4.6025639648e+003;4.6112822266e+003;4.5956411133e+003;4.5883334961e+003;4.6169228516e+003;4.5973076172e+003;4.6146152344e+003;4.6237177734e+003;
3.1093750000e+000;4.5735898438e+003;4.5652563477e+003;4.5796152344e+003;4.5589741211e+003;4.5584614258e+003;4.5624360352e+003;4.5675639648e+003;4.5780771484e+003;4.5624360352e+003;4.5544873047e+003;4.5811538086e+003;4.5626923828e+003;4.5767949219e+003;4.5870512695e+003;
3.1171875000e+000;4.5126923828e+003;4.4967949219e+003;4.5183334961e+003;4.4994873047e+003;4.4843588867e+003;4.5061538086e+003;4.5160258789e+003;4.5224360352e+003;4.5102563477e+003;4.4966665039e+003;4.5216665039e+003;4.5053847656e+003;4.5147436523e+003;4.5238461914e+003;
3.1250000000e+000;4.5226923828e+003;4.5024360352e+003;4.5253847656e+003;4.5083334961e+003;4.4846152344e+003;4.5114101563e+003;4.5251284180e+003;4.5335898438e+003;4.5230771484e+003;4.5078203125e+003;4.5303847656e+003;4.5156411133e+003;4.5233334961e+003;4.5332050781e+003;
3.1328125000e+000;4.5289741211e+003;4.5061538086e+003;4.5312822266e+003;4.5156411133e+003;4.4888461914e+003;4.5139741211e+003;4.5280771484e+003;4.5412822266e+003;4.5302563477e+003;4.5147436523e+003;4.5350000000e+003;4.5228203125e+003;4.5280771484e+003;4.5414101563e+003;
3.1406250000e+000;4.5137177734e+003;4.4980771484e+003;4.5203847656e+003;4.5056411133e+003;4.4975639648e+003;4.4996152344e+003;4.5075639648e+003;4.5235898438e+003;4.5066665039e+003;4.4923076172e+003;4.5153847656e+003;4.5056411133e+003;4.5098715820e+003;4.5305126953e+003;
3.1484375000e+000;4.4902563477e+003;4.4856411133e+003;4.4976923828e+003;4.4816665039e+003;4.4867949219e+003;4.4824360352e+003;4.4882050781e+003;4.4998715820e+003;4.4801284180e+003;4.4666665039e+003;4.4919228516e+003;4.4803847656e+003;4.4916665039e+003;4.5079487305e+003;
3.1562500000e+000;4.4614101563e+003;4.4539741211e+003;4.4692309570e+003;4.4550000000e+003;4.4512822266e+003;4.4575639648e+003;4.4652563477e+003;4.4723076172e+003;4.4516665039e+003;4.4358974609e+003;4.4637177734e+003;4.4526923828e+003;4.4612822266e+003;4.4791025391e+003;
3.1640625000e+000;4.5756411133e+003;4.5747436523e+003;4.5710258789e+003;4.5638461914e+003;4.5723076172e+003;4.5615385742e+003;4.5748715820e+003;4.5791025391e+003;4.5600000000e+003;4.5457690430e+003;4.5746152344e+003;4.5537177734e+003;4.5661538086e+003;4.5816665039e+003;
3.1718750000e+000;4.5891025391e+003;4.5935898438e+003;4.5810258789e+003;4.5800000000e+003;4.5896152344e+003;4.5773076172e+003;4.5864101563e+003;4.5960258789e+003;4.5773076172e+003;4.5644873047e+003;4.5880771484e+003;4.5653847656e+003;4.5815385742e+003;4.5923076172e+003;
3.1796875000e+000;4.5564101563e+003;4.5642309570e+003;4.5487177734e+003;4.5555126953e+003;4.5585898438e+003;4.5529487305e+003;4.5569228516e+003;4.5683334961e+003;4.5487177734e+003;4.5351284180e+003;4.5558974609e+003;4.5325639648e+003;4.5524360352e+003;4.5587177734e+003;
3.1875000000e+000;4.5235898438e+003;4.5321796875e+003;4.5189741211e+003;4.5306411133e+003;4.5282050781e+003;4.5274360352e+003;4.5291025391e+003;4.5375639648e+003;4.5170512695e+003;4.5020512695e+003;4.5241025391e+003;4.4989741211e+003;4.5233334961e+003;4.5261538086e+003;
3.1953125000e+000;4.5298715820e+003;4.5425639648e+003;4.5289741211e+003;4.5301284180e+003;4.5317949219e+003;4.5396152344e+003;4.5416665039e+003;4.5424360352e+003;4.5283334961e+003;4.5203847656e+003;4.5447436523e+003;4.5124360352e+003;4.5400000000e+003;4.5484614258e+003;
3.2031250000e+000;4.4943588867e+003;4.5048715820e+003;4.4938461914e+003;4.4970512695e+003;4.5075639648e+003;4.5032050781e+003;4.5071796875e+003;4.5138461914e+003;4.4966665039e+003;4.4784614258e+003;4.5079487305e+003;4.4765385742e+003;4.5075639648e+003;4.5069228516e+003;
3.2109375000e+000;4.4696152344e+003;4.4784614258e+003;4.4732050781e+003;4.4770512695e+003;4.4964101563e+003;4.4835898438e+003;4.4857690430e+003;4.4917949219e+003;4.4725639648e+003;4.4556411133e+003;4.4842309570e+003;4.4548715820e+003;4.4826923828e+003;4.4846152344e+003;
3.2187500000e+000;4.4719228516e+003;4.4850000000e+003;4.4747436523e+003;4.4882050781e+003;4.5023076172e+003;4.4942309570e+003;4.4941025391e+003;4.4926923828e+003;4.4734614258e+003;4.4596152344e+003;4.4842309570e+003;4.4529487305e+003;4.4878203125e+003;4.4880771484e+003;
3.2265625000e+000;4.4808974609e+003;4.4914101563e+003;4.4905126953e+003;4.4887177734e+003;4.4902563477e+003;4.4920512695e+003;4.4994873047e+003;4.5112822266e+003;4.4924360352e+003;4.4724360352e+003;4.4914101563e+003;4.4634614258e+003;4.4946152344e+003;4.4920512695e+003;
3.2343750000e+000;4.4667949219e+003;4.4747436523e+003;4.4779487305e+003;4.4715385742e+003;4.4746152344e+003;4.4779487305e+003;4.4851284180e+003;4.4911538086e+003;4.4730771484e+003;4.4526923828e+003;4.4746152344e+003;4.4502563477e+003;4.4774360352e+003;4.4770512695e+003;
3.2421875000e+000;4.4871796875e+003;4.4924360352e+003;4.4946152344e+003;4.4879487305e+003;4.4878203125e+003;4.4950000000e+003;4.4979487305e+003;4.5025639648e+003;4.4855126953e+003;4.4688461914e+003;4.4933334961e+003;4.4711538086e+003;4.4966665039e+003;4.5023076172e+003;
3.2500000000e+000;4.4807690430e+003;4.4857690430e+003;4.4869228516e+003;4.4829487305e+003;4.4826923828e+003;4.4878203125e+003;4.4900000000e+003;4.4950000000e+003;4.4784614258e+003;4.4617949219e+003;4.4870512695e+003;4.4651284180e+003;4.4898715820e+003;4.4993588867e+003;
3.2578125000e+000;4.5251284180e+003;4.5338461914e+003;4.5293588867e+003;4.5242309570e+003;4.5271796875e+003;4.5243588867e+003;4.5296152344e+003;4.5292309570e+003;4.5198715820e+003;4.5034614258e+003;4.5306411133e+003;4.5076923828e+003;4.5357690430e+003;4.5442309570e+003;
3.2656250000e+000;4.5271796875e+003;4.5358974609e+003;4.5316665039e+003;4.5270512695e+003;4.5179487305e+003;4.5265385742e+003;4.5274360352e+003;4.5308974609e+003;4.5221796875e+003;4.5082050781e+003;4.5344873047e+003;4.5128203125e+003;4.5408974609e+003;4.5491025391e+003;
3.2734375000e+000;4.4712822266e+003;4.4762822266e+003;4.4785898438e+003;4.4802563477e+003;4.4571796875e+003;4.4753847656e+003;4.4716665039e+003;4.4730771484e+003;4.4624360352e+003;4.4474360352e+003;4.4757690430e+003;4.4589741211e+003;4.4843588867e+003;4.4971796875e+003;
3.2812500000e+000;4.4917949219e+003;4.4958974609e+003;4.4985898438e+003;4.4994873047e+003;4.4902563477e+003;4.4919228516e+003;4.4920512695e+003;4.4896152344e+003;4.4793588867e+003;4.4620512695e+003;4.4917949219e+003;4.4743588867e+003;4.5010258789e+003;4.5144873047e+003;
3.2890625000e+000;4.5778203125e+003;4.5826923828e+003;4.5801284180e+003;4.5693588867e+003;4.5950000000e+003;4.5662822266e+003;4.5685898438e+003;4.5797436523e+003;4.5687177734e+003;4.5507690430e+003;4.5746152344e+003;4.5510258789e+003;4.5803847656e+003;4.5841025391e+003;
3.2968750000e+000;4.5370512695e+003;4.5407690430e+003;4.5393588867e+003;4.5308974609e+003;4.5443588867e+003;4.5315385742e+003;4.5301284180e+003;4.5412822266e+003;4.5279487305e+003;4.5080771484e+003;4.5325639648e+003;4.5100000000e+003;4.5380771484e+003;4.5391025391e+003;
3.3046875000e+000;4.5129487305e+003;4.5157690430e+003;4.5150000000e+003;4.5106411133e+003;4.5108974609e+003;4.5126923828e+003;4.5091025391e+003;4.5169228516e+003;4.5021796875e+003;4.4797436523e+003;4.5060258789e+003;4.4844873047e+003;4.5120512695e+003;4.5126923828e+003;
3.3125000000e+000;4.5226923828e+003;4.5251284180e+003;4.5251284180e+003;4.5228203125e+003;4.5182050781e+003;4.5244873047e+003;4.5205126953e+003;4.5273076172e+003;4.5115385742e+003;4.4879487305e+003;4.5144873047e+003;4.4935898438e+003;4.5208974609e+003;4.5235898438e+003;
3.3203125000e+000;4.4671796875e+003;4.4675639648e+003;4.4765385742e+003;4.4684614258e+003;4.4889741211e+003;4.4785898438e+003;4.4767949219e+003;4.4866665039e+003;4.4665385742e+003;4.4400000000e+003;4.4688461914e+003;4.4457690430e+003;4.4691025391e+003;4.4725639648e+003;
3.3281250000e+000;4.4066665039e+003;4.4088461914e+003;4.4135898438e+003;4.4133334961e+003;4.4166665039e+003;4.4280771484e+003;4.4170512695e+003;4.4260258789e+003;4.4115385742e+003;4.3783334961e+003;4.4026923828e+003;4.3814101563e+003;4.4062822266e+003;4.4088461914e+003;
3.3359375000e+000;4.4026923828e+003;4.4051284180e+003;4.4093588867e+003;4.4067949219e+003;4.4167949219e+003;4.4258974609e+003;4.4158974609e+003;4.4180771484e+003;4.4035898438e+003;4.3706411133e+003;4.3966665039e+003;4.3764101563e+003;4.4028203125e+003;4.4062822266e+003;
3.3437500000e+000;4.4296152344e+003;4.4300000000e+003;4.4307690430e+003;4.4297436523e+003;4.4347436523e+003;4.4435898438e+003;4.4379487305e+003;4.4362822266e+003;4.4214101563e+003;4.3951284180e+003;4.4220512695e+003;4.4035898438e+003;4.4284614258e+003;4.4320512695e+003;
3.3515625000e+000;4.3108974609e+003;4.3065385742e+003;4.3157690430e+003;4.3234614258e+003;4.3061538086e+003;4.3293588867e+003;4.3153847656e+003;4.3105126953e+003;4.2978203125e+003;4.2666665039e+003;4.2980771484e+003;4.2861538086e+003;4.3098715820e+003;4.3124360352e+003;
3.3593750000e+000;4.3416665039e+003;4.3378203125e+003;4.3433334961e+003;4.3497436523e+003;4.3511538086e+003;4.3579487305e+003;4.3455126953e+003;4.3410258789e+003;4.3283334961e+003;4.2980771484e+003;4.3301284180e+003;4.3167949219e+003;4.3430771484e+003;4.3444873047e+003;
3.3671875000e+000;4.3561538086e+003;4.3489741211e+003;4.3557690430e+003;4.3624360352e+003;4.3729487305e+003;4.3705126953e+003;4.3615385742e+003;4.3624360352e+003;4.3470512695e+003;4.3169228516e+003;4.3480771484e+003;4.3347436523e+003;4.3592309570e+003;4.3625639648e+003;
3.3750000000e+000;4.3464101563e+003;4.3369228516e+003;4.3465385742e+003;4.3543588867e+003;4.3552563477e+003;4.3596152344e+003;4.3512822266e+003;4.3555126953e+003;4.3391025391e+003;4.3078203125e+003;4.3382050781e+003;4.3238461914e+003;4.3480771484e+003;4.3534614258e+003;
3.3828125000e+000;4.2961538086e+003;4.2852563477e+003;4.3007690430e+003;4.3033334961e+003;4.2926923828e+003;4.3160258789e+003;4.3047436523e+003;4.3130771484e+003;4.2966665039e+003;4.2641025391e+003;4.2907690430e+003;4.2761538086e+003;4.2993588867e+003;4.3069228516e+003;
3.3906250000e+000;4.2811538086e+003;4.2714101563e+003;4.2870512695e+003;4.2891025391e+003;4.2808974609e+003;4.3079487305e+003;4.2970512695e+003;4.2989741211e+003;4.2812822266e+003;4.2470512695e+003;4.2758974609e+003;4.2643588867e+003;4.2851284180e+003;4.2914101563e+003;
3.3984375000e+000;4.3971796875e+003;4.3921796875e+003;4.3982050781e+003;4.4043588867e+003;4.4007690430e+003;4.4171796875e+003;4.4126923828e+003;4.4125639648e+003;4.3902563477e+003;4.3593588867e+003;4.3885898438e+003;4.3780771484e+003;4.3980771484e+003;4.3994873047e+003;
3.4062500000e+000;4.4656411133e+003;4.4630771484e+003;4.4638461914e+003;4.4724360352e+003;4.4717949219e+003;4.4767949219e+003;4.4743588867e+003;4.4828203125e+003;4.4594873047e+003;4.4321796875e+003;4.4570512695e+003;4.4447436523e+003;4.4650000000e+003;4.4661538086e+003;
3.4140625000e+000;4.3979487305e+003;4.3946152344e+003;4.4011538086e+003;4.4021796875e+003;4.4037177734e+003;4.4146152344e+003;4.4060258789e+003;4.4132050781e+003;4.3924360352e+003;4.3598715820e+003;4.3843588867e+003;4.3696152344e+003;4.3946152344e+003;4.3964101563e+003;
3.4218750000e+000;4.4141025391e+003;4.4091025391e+003;4.4182050781e+003;4.4133334961e+003;4.4085898438e+003;4.4292309570e+003;4.4224360352e+003;4.4239741211e+003;4.4039741211e+003;4.3717949219e+003;4.3979487305e+003;4.3817949219e+003;4.4111538086e+003;4.4096152344e+003;
3.4296875000e+000;4.4534614258e+003;4.4480771484e+003;4.4573076172e+003;4.4501284180e+003;4.4383334961e+003;4.4641025391e+003;4.4594873047e+003;4.4614101563e+003;4.4417949219e+003;4.4130771484e+003;4.4375639648e+003;4.4212822266e+003;4.4519228516e+003;4.4482050781e+003;
