Time (s);AF3;F7;F3;FC5;T7;P7;O1;O2;P8;T8;FC6;F4;F8;AF4;Sampling Rate
0.0000000000e+000;4.3624360352e+003;4.3302563477e+003;4.3155126953e+003;4.3779487305e+003;4.3133334961e+003;4.3142309570e+003;4.3039741211e+003;4.3094873047e+003;4.3253847656e+003;4.2447436523e+003;4.3339741211e+003;4.3302563477e+003;4.3123076172e+003;4.3191025391e+003;128
7.8125000000e-003;4.3451284180e+003;4.3178203125e+003;4.2985898438e+003;4.3546152344e+003;4.2905126953e+003;4.2967949219e+003;4.2861538086e+003;4.2948715820e+003;4.3094873047e+003;4.2329487305e+003;4.3210258789e+003;4.3193588867e+003;4.3024360352e+003;4.3089741211e+003;
1.5625000000e-002;4.3238461914e+003;4.2953847656e+003;4.2812822266e+003;4.3307690430e+003;4.2624360352e+003;4.2711538086e+003;4.2629487305e+003;4.2717949219e+003;4.2853847656e+003;4.2114101563e+003;4.3023076172e+003;4.3029487305e+003;4.2814101563e+003;4.2914101563e+003;
2.3437500000e-002;4.3105126953e+003;4.2769228516e+003;4.2737177734e+003;4.3189741211e+003;4.2475639648e+003;4.2498715820e+003;4.2466665039e+003;4.2533334961e+003;4.2661538086e+003;4.1929487305e+003;4.2906411133e+003;4.2914101563e+003;4.2625639648e+003;4.2771796875e+003;
3.1250000000e-002;4.3193588867e+003;4.2785898438e+003;4.2915385742e+003;4.3446152344e+003;4.2753847656e+003;4.2587177734e+003;4.2721796875e+003;4.2810258789e+003;4.2903847656e+003;4.2108974609e+003;4.3020512695e+003;4.3078203125e+003;4.2625639648e+003;4.2848715820e+003;
3.9062500000e-002;4.3201284180e+003;4.2824360352e+003;4.2908974609e+003;4.3442309570e+003;4.2665385742e+003;4.2675639648e+003;4.2806411133e+003;4.2915385742e+003;4.3016665039e+003;4.2180771484e+003;4.3066665039e+003;4.3107690430e+003;4.2664101563e+003;4.2901284180e+003;
4.6875000000e-002;4.3093588867e+003;4.2814101563e+003;4.2824360352e+003;4.3300000000e+003;4.2526923828e+003;4.2674360352e+003;4.2746152344e+003;4.2855126953e+003;4.2989741211e+003;4.2133334961e+003;4.3170512695e+003;4.3001284180e+003;4.2741025391e+003;4.2819228516e+003;
5.4687500000e-002;4.3169228516e+003;4.2862822266e+003;4.2921796875e+003;4.3484614258e+003;4.2942309570e+003;4.2788461914e+003;4.2864101563e+003;4.2880771484e+003;4.3079487305e+003;4.2237177734e+003;4.3010258789e+003;4.3046152344e+003;4.2755126953e+003;4.2839741211e+003;
6.2500000000e-002;4.3280771484e+003;4.2996152344e+003;4.3021796875e+003;4.3606411133e+003;4.3038461914e+003;4.2912822266e+003;4.2982050781e+003;4.3019228516e+003;4.3208974609e+003;4.2362822266e+003;4.3074360352e+003;4.3117949219e+003;4.2817949219e+003;4.2946152344e+003;
7.0312500000e-002;4.3000000000e+003;4.2747436523e+003;4.2693588867e+003;4.3308974609e+003;4.2528203125e+003;4.2765385742e+003;4.2708974609e+003;4.2739741211e+003;4.2865385742e+003;4.1993588867e+003;4.2907690430e+003;4.2725639648e+003;4.2487177734e+003;4.2634614258e+003;
7.8125000000e-002;4.2911538086e+003;4.2675639648e+003;4.2589741211e+003;4.3282050781e+003;4.2512822266e+003;4.2764101563e+003;4.2679487305e+003;4.2675639648e+003;4.2819228516e+003;4.1920512695e+003;4.2838461914e+003;4.2646152344e+003;4.2417949219e+003;4.2552563477e+003;
8.5937500000e-002;4.3041025391e+003;4.2894873047e+003;4.2765385742e+003;4.3528203125e+003;4.2980771484e+003;4.2982050781e+003;4.2937177734e+003;4.2980771484e+003;4.3141025391e+003;4.2255126953e+003;4.2933334961e+003;4.2897436523e+003;4.2741025391e+003;4.2826923828e+003;
9.3750000000e-002;4.3606411133e+003;4.3442309570e+003;4.3387177734e+003;4.3853847656e+003;4.3376923828e+003;4.3410258789e+003;4.3384614258e+003;4.3474360352e+003;4.3534614258e+003;4.2760258789e+003;4.3593588867e+003;4.3415385742e+003;4.3187177734e+003;4.3324360352e+003;
1.0156250000e-001;4.3635898438e+003;4.3484614258e+003;4.3430771484e+003;4.3891025391e+003;4.3382050781e+003;4.3451284180e+003;4.3434614258e+003;4.3516665039e+003;4.3575639648e+003;4.2798715820e+003;4.3665385742e+003;4.3473076172e+003;4.3147436523e+003;4.3342309570e+003;
1.0937500000e-001;4.3534614258e+003;4.3406411133e+003;4.3335898438e+003;4.3851284180e+003;4.3280771484e+003;4.3375639648e+003;4.3376923828e+003;4.3439741211e+003;4.3500000000e+003;4.2723076172e+003;4.3585898438e+003;4.3415385742e+003;4.3052563477e+003;4.3261538086e+003;
1.1718750000e-001;4.3347436523e+003;4.3219228516e+003;4.3125639648e+003;4.3783334961e+003;4.3066665039e+003;4.3157690430e+003;4.3202563477e+003;4.3224360352e+003;4.3241025391e+003;4.2524360352e+003;4.3328203125e+003;4.3251284180e+003;4.3066665039e+003;4.3093588867e+003;
1.2500000000e-001;4.3169228516e+003;4.2958974609e+003;4.2961538086e+003;4.3525639648e+003;4.2829487305e+003;4.2891025391e+003;4.2948715820e+003;4.2962822266e+003;4.2847436523e+003;4.2187177734e+003;4.3038461914e+003;4.3087177734e+003;4.2767949219e+003;4.2853847656e+003;
1.3281250000e-001;4.3164101563e+003;4.2992309570e+003;4.2961538086e+003;4.3466665039e+003;4.2833334961e+003;4.2858974609e+003;4.2937177734e+003;4.2953847656e+003;4.2850000000e+003;4.2162822266e+003;4.3073076172e+003;4.3093588867e+003;4.2675639648e+003;4.2873076172e+003;
1.4062500000e-001;4.3328203125e+003;4.3211538086e+003;4.3117949219e+003;4.3589741211e+003;4.3014101563e+003;4.2956411133e+003;4.3071796875e+003;4.3103847656e+003;4.3053847656e+003;4.2352563477e+003;4.3303847656e+003;4.3256411133e+003;4.2852563477e+003;4.3074360352e+003;
1.4843750000e-001;4.3584614258e+003;4.3497436523e+003;4.3367949219e+003;4.3838461914e+003;4.3283334961e+003;4.3114101563e+003;4.3279487305e+003;4.3341025391e+003;4.3364101563e+003;4.2665385742e+003;4.3634614258e+003;4.3516665039e+003;4.3208974609e+003;4.3364101563e+003;
1.5625000000e-001;4.2802563477e+003;4.2582050781e+003;4.2711538086e+003;4.3282050781e+003;4.2425639648e+003;4.2498715820e+003;4.2585898438e+003;4.2623076172e+003;4.2710258789e+003;4.1930771484e+003;4.2835898438e+003;4.2793588867e+003;4.2437177734e+003;4.2616665039e+003;
1.6406250000e-001;4.2442309570e+003;4.2265385742e+003;4.2320512695e+003;4.2937177734e+003;4.2087177734e+003;4.2256411133e+003;4.2257690430e+003;4.2282050781e+003;4.2343588867e+003;4.1548715820e+003;4.2429487305e+003;4.2393588867e+003;4.2016665039e+003;4.2253847656e+003;
1.7187500000e-001;4.1892309570e+003;4.1806411133e+003;4.1673076172e+003;4.2367949219e+003;4.1658974609e+003;4.1751284180e+003;4.1705126953e+003;4.1706411133e+003;4.1735898438e+003;4.0943588867e+003;4.1833334961e+003;4.1762822266e+003;4.1435898438e+003;4.1664101563e+003;
1.7968750000e-001;4.1479487305e+003;4.1261538086e+003;4.1370512695e+003;4.1965385742e+003;4.1174360352e+003;4.1498715820e+003;4.1432050781e+003;4.1335898438e+003;4.1452563477e+003;4.0514101563e+003;4.1282050781e+003;4.1274360352e+003;4.1057690430e+003;4.1211538086e+003;
1.8750000000e-001;4.1237177734e+003;4.1016665039e+003;4.1121796875e+003;4.1751284180e+003;4.0993588867e+003;4.1298715820e+003;4.1211538086e+003;4.1120512695e+003;4.1264101563e+003;4.0282050781e+003;4.1041025391e+003;4.1048715820e+003;4.0856411133e+003;4.0998715820e+003;
1.9531250000e-001;4.0902563477e+003;4.0724357910e+003;4.0689743652e+003;4.1516665039e+003;4.0730769043e+003;4.0937180176e+003;4.0824357910e+003;4.0817949219e+003;4.0948718262e+003;4.0017949219e+003;4.0838461914e+003;4.0769230957e+003;4.0528205566e+003;4.0728205566e+003;
2.0312500000e-001;4.0900000000e+003;4.0721794434e+003;4.0684614258e+003;4.1520512695e+003;4.0643588867e+003;4.0955129395e+003;4.0826923828e+003;4.0812819824e+003;4.0932050781e+003;4.0032050781e+003;4.0837180176e+003;4.0753845215e+003;4.0503845215e+003;4.0708974609e+003;
2.1093750000e-001;4.0615385742e+003;4.0284614258e+003;4.0442307129e+003;4.1156411133e+003;4.0316667480e+003;4.0585898438e+003;4.0491025391e+003;4.0376923828e+003;4.0488461914e+003;3.9582050781e+003;4.0402563477e+003;4.0406411133e+003;4.0200000000e+003;4.0356411133e+003;
2.1875000000e-001;4.0453845215e+003;4.0041025391e+003;4.0280769043e+003;4.0979487305e+003;4.0161538086e+003;4.0330769043e+003;4.0282050781e+003;4.0173076172e+003;4.0264101563e+003;3.9348718262e+003;4.0235898438e+003;4.0253845215e+003;3.9983332520e+003;4.0184614258e+003;
2.2656250000e-001;4.0033332520e+003;3.9560256348e+003;3.9819230957e+003;4.0587180176e+003;3.9587180176e+003;3.9807692871e+003;3.9811538086e+003;3.9711538086e+003;3.9737180176e+003;3.8811538086e+003;3.9824357910e+003;3.9879487305e+003;3.9425642090e+003;3.9724357910e+003;
2.3437500000e-001;3.9956411133e+003;3.9507692871e+003;3.9688461914e+003;4.0501281738e+003;3.9415385742e+003;3.9698718262e+003;3.9707692871e+003;3.9591025391e+003;3.9588461914e+003;3.8670512695e+003;3.9698718262e+003;3.9776923828e+003;3.9310256348e+003;3.9592307129e+003;
2.4218750000e-001;4.0544870605e+003;4.0055129395e+003;4.0150000000e+003;4.0860256348e+003;3.9893588867e+003;4.0074357910e+003;4.0143588867e+003;4.0062819824e+003;4.0071794434e+003;3.9184614258e+003;4.0167949219e+003;4.0228205566e+003;3.9853845215e+003;4.0044870605e+003;
2.5000000000e-001;4.0598718262e+003;4.0047436523e+003;4.0223076172e+003;4.0869230957e+003;3.9906411133e+003;4.0065385742e+003;4.0173076172e+003;4.0123076172e+003;4.0167949219e+003;3.9247436523e+003;4.0230769043e+003;4.0310256348e+003;3.9880769043e+003;4.0116667480e+003;
2.5781250000e-001;4.0516667480e+003;3.9919230957e+003;4.0162819824e+003;4.0842307129e+003;3.9817949219e+003;3.9930769043e+003;4.0071794434e+003;4.0064101563e+003;4.0193588867e+003;3.9144870605e+003;4.0155129395e+003;4.0288461914e+003;3.9766667480e+003;4.0064101563e+003;
2.6562500000e-001;4.0569230957e+003;3.9993588867e+003;4.0188461914e+003;4.0942307129e+003;3.9941025391e+003;4.0005129395e+003;4.0125642090e+003;4.0129487305e+003;4.0285898438e+003;3.9201281738e+003;4.0201281738e+003;4.0325642090e+003;3.9848718262e+003;4.0098718262e+003;
2.7343750000e-001;4.0658974609e+003;4.0097436523e+003;4.0242307129e+003;4.1050000000e+003;4.0102563477e+003;4.0152563477e+003;4.0235898438e+003;4.0239743652e+003;4.0398718262e+003;3.9316667480e+003;4.0270512695e+003;4.0373076172e+003;3.9989743652e+003;4.0157692871e+003;
2.8125000000e-001;4.1078203125e+003;4.0587180176e+003;4.0661538086e+003;4.1384614258e+003;4.0497436523e+003;4.0938461914e+003;4.0857692871e+003;4.0753845215e+003;4.0925642090e+003;3.9850000000e+003;4.0662819824e+003;4.0715385742e+003;4.0305129395e+003;4.0547436523e+003;
2.8906250000e-001;4.1198715820e+003;4.0774357910e+003;4.0789743652e+003;4.1555126953e+003;4.0758974609e+003;4.1079487305e+003;4.1005126953e+003;4.0897436523e+003;4.1066665039e+003;3.9983332520e+003;4.0852563477e+003;4.0891025391e+003;4.0415385742e+003;4.0687180176e+003;
2.9687500000e-001;4.1629487305e+003;4.1229487305e+003;4.1203847656e+003;4.2042309570e+003;4.1430771484e+003;4.1530771484e+003;4.1466665039e+003;4.1367949219e+003;4.1564101563e+003;4.0466667480e+003;4.1314101563e+003;4.1326923828e+003;4.1057690430e+003;4.1148715820e+003;
3.0468750000e-001;4.1380771484e+003;4.1046152344e+003;4.0920512695e+003;4.1743588867e+003;4.1107690430e+003;4.1400000000e+003;4.1215385742e+003;4.1134614258e+003;4.1434614258e+003;4.0456411133e+003;4.1067949219e+003;4.1078203125e+003;4.0955129395e+003;4.0964101563e+003;
3.1250000000e-001;4.1253847656e+003;4.0901281738e+003;4.0812819824e+003;4.1592309570e+003;4.0917949219e+003;4.1266665039e+003;4.1076923828e+003;4.0983334961e+003;4.1274360352e+003;4.0316667480e+003;4.0928205566e+003;4.0975639648e+003;4.0730769043e+003;4.0826923828e+003;
3.2031250000e-001;4.1420512695e+003;4.0905129395e+003;4.1003847656e+003;4.1807690430e+003;4.0941025391e+003;4.1212822266e+003;4.1108974609e+003;4.0987177734e+003;4.1182050781e+003;4.0267949219e+003;4.1094873047e+003;4.1142309570e+003;4.0732050781e+003;4.0971796875e+003;
3.2812500000e-001;4.1479487305e+003;4.0947436523e+003;4.1041025391e+003;4.1835898438e+003;4.0993588867e+003;4.1189741211e+003;4.1115385742e+003;4.0985898438e+003;4.1158974609e+003;4.0298718262e+003;4.1211538086e+003;4.1206411133e+003;4.0832050781e+003;4.1051284180e+003;
3.3593750000e-001;4.2003847656e+003;4.1573076172e+003;4.1557690430e+003;4.2061538086e+003;4.1539741211e+003;4.1548715820e+003;4.1570512695e+003;4.1550000000e+003;4.1632050781e+003;4.0866667480e+003;4.1789741211e+003;4.1783334961e+003;4.1524360352e+003;4.1591025391e+003;
3.4375000000e-001;4.2182050781e+003;4.1764101563e+003;4.1783334961e+003;4.2232050781e+003;4.1714101563e+003;4.1710258789e+003;4.1775639648e+003;4.1834614258e+003;4.1869228516e+003;4.1070512695e+003;4.1928203125e+003;4.2007690430e+003;4.1750000000e+003;4.1801284180e+003;
3.5156250000e-001;4.2321796875e+003;4.1860258789e+003;4.1982050781e+003;4.2521796875e+003;4.1782050781e+003;4.1869228516e+003;4.1992309570e+003;4.2143588867e+003;4.2129487305e+003;4.1289741211e+003;4.2089741211e+003;4.2250000000e+003;4.1930771484e+003;4.2047436523e+003;
3.5937500000e-001;4.2361538086e+003;4.1876923828e+003;4.2015385742e+003;4.2602563477e+003;4.1755126953e+003;4.1928203125e+003;4.2056411133e+003;4.2219228516e+003;4.2203847656e+003;4.1375639648e+003;4.2207690430e+003;4.2311538086e+003;4.1967949219e+003;4.2108974609e+003;
3.6718750000e-001;4.2324360352e+003;4.1805126953e+003;4.1973076172e+003;4.2328203125e+003;4.1667949219e+003;4.1910258789e+003;4.2039741211e+003;4.2207690430e+003;4.2170512695e+003;4.1265385742e+003;4.2188461914e+003;4.2219228516e+003;4.1802563477e+003;4.1946152344e+003;
3.7500000000e-001;4.2273076172e+003;4.1761538086e+003;4.1912822266e+003;4.2251284180e+003;4.1726923828e+003;4.1847436523e+003;4.1983334961e+003;4.2125639648e+003;4.2093588867e+003;4.1151284180e+003;4.2029487305e+003;4.2115385742e+003;4.1689741211e+003;4.1846152344e+003;
3.8281250000e-001;4.2125639648e+003;4.1700000000e+003;4.1700000000e+003;4.2296152344e+003;4.1816665039e+003;4.1756411133e+003;4.1846152344e+003;4.1923076172e+003;4.1946152344e+003;4.1051284180e+003;4.1751284180e+003;4.1874360352e+003;4.1560258789e+003;4.1669228516e+003;
3.9062500000e-001;4.1934614258e+003;4.1541025391e+003;4.1489741211e+003;4.2220512695e+003;4.1629487305e+003;4.1665385742e+003;4.1691025391e+003;4.1746152344e+003;4.1801284180e+003;4.0939743652e+003;4.1593588867e+003;4.1676923828e+003;4.1420512695e+003;4.1489741211e+003;
3.9843750000e-001;4.1706411133e+003;4.1300000000e+003;4.1266665039e+003;4.2037177734e+003;4.1314101563e+003;4.1551284180e+003;4.1511538086e+003;4.1539741211e+003;4.1624360352e+003;4.0762819824e+003;4.1435898438e+003;4.1458974609e+003;4.1216665039e+003;4.1269228516e+003;
4.0625000000e-001;4.1791025391e+003;4.1475639648e+003;4.1352563477e+003;4.1948715820e+003;4.1623076172e+003;4.1653847656e+003;4.1573076172e+003;4.1437177734e+003;4.1696152344e+003;4.0803845215e+003;4.1448715820e+003;4.1478203125e+003;4.1307690430e+003;4.1324360352e+003;
4.1406250000e-001;4.1719228516e+003;4.1412822266e+003;4.1283334961e+003;4.1914101563e+003;4.1530771484e+003;4.1580771484e+003;4.1446152344e+003;4.1298715820e+003;4.1561538086e+003;4.0719230957e+003;4.1296152344e+003;4.1384614258e+003;4.1235898438e+003;4.1260258789e+003;
4.2187500000e-001;4.1601284180e+003;4.1143588867e+003;4.1267949219e+003;4.1738461914e+003;4.1106411133e+003;4.1405126953e+003;4.1211538086e+003;4.1062822266e+003;4.1273076172e+003;4.0616667480e+003;4.1260258789e+003;4.1325639648e+003;4.1097436523e+003;4.1210258789e+003;
4.2968750000e-001;4.1460258789e+003;4.0997436523e+003;4.1115385742e+003;4.1588461914e+003;4.0996152344e+003;4.1214101563e+003;4.1050000000e+003;4.0897436523e+003;4.1067949219e+003;4.0466667480e+003;4.1174360352e+003;4.1215385742e+003;4.0966665039e+003;4.1093588867e+003;
4.3750000000e-001;4.1041025391e+003;4.0630769043e+003;4.0617949219e+003;4.1221796875e+003;4.0711538086e+003;4.0684614258e+003;4.0600000000e+003;4.0458974609e+003;4.0564101563e+003;4.0005129395e+003;4.0762819824e+003;4.0788461914e+003;4.0615385742e+003;4.0696154785e+003;
4.4531250000e-001;4.0630769043e+003;4.0047436523e+003;4.0256411133e+003;4.0742307129e+003;3.9812819824e+003;4.0124357910e+003;4.0147436523e+003;4.0167949219e+003;4.0210256348e+003;3.9516667480e+003;4.0378205566e+003;4.0453845215e+003;4.0133332520e+003;4.0333332520e+003;
4.5312500000e-001;4.0980771484e+003;4.0392307129e+003;4.0601281738e+003;4.1074360352e+003;4.0191025391e+003;4.0420512695e+003;4.0465385742e+003;4.0542307129e+003;4.0528205566e+003;3.9853845215e+003;4.0792307129e+003;4.0839743652e+003;4.0425642090e+003;4.0701281738e+003;
4.6093750000e-001;4.2364101563e+003;4.1920512695e+003;4.1925639648e+003;4.2416665039e+003;4.1946152344e+003;4.1729487305e+003;4.1887177734e+003;4.2052563477e+003;4.1946152344e+003;4.1376923828e+003;4.2220512695e+003;4.2206411133e+003;4.1960258789e+003;4.2075639648e+003;
4.6875000000e-001;4.2502563477e+003;4.2060258789e+003;4.2067949219e+003;4.2515385742e+003;4.2096152344e+003;4.1887177734e+003;4.2052563477e+003;4.2189741211e+003;4.2121796875e+003;4.1525639648e+003;4.2269228516e+003;4.2294873047e+003;4.2200000000e+003;4.2189741211e+003;
4.7656250000e-001;4.2439741211e+003;4.1978203125e+003;4.2033334961e+003;4.2437177734e+003;4.1950000000e+003;4.1960258789e+003;4.2011538086e+003;4.2126923828e+003;4.2116665039e+003;4.1421796875e+003;4.2055126953e+003;4.2185898438e+003;4.2152563477e+003;4.2101284180e+003;
4.8437500000e-001;4.2324360352e+003;4.1880771484e+003;4.1946152344e+003;4.2352563477e+003;4.1801284180e+003;4.1962822266e+003;4.1930771484e+003;4.2047436523e+003;4.2021796875e+003;4.1297436523e+003;4.1942309570e+003;4.2107690430e+003;4.1947436523e+003;4.2007690430e+003;
4.9218750000e-001;4.2566665039e+003;4.2244873047e+003;4.2212822266e+003;4.2620512695e+003;4.2191025391e+003;4.2387177734e+003;4.2329487305e+003;4.2301284180e+003;4.2251284180e+003;4.1579487305e+003;4.2329487305e+003;4.2361538086e+003;4.2098715820e+003;4.2258974609e+003;
5.0000000000e-001;4.3024360352e+003;4.2752563477e+003;4.2646152344e+003;4.3092309570e+003;4.2796152344e+003;4.2805126953e+003;4.2783334961e+003;4.2707690430e+003;4.2714101563e+003;4.2088461914e+003;4.2832050781e+003;4.2764101563e+003;4.2633334961e+003;4.2682050781e+003;
5.0781250000e-001;4.3635898438e+003;4.3455126953e+003;4.3302563477e+003;4.3789741211e+003;4.3626923828e+003;4.3417949219e+003;4.3357690430e+003;4.3284614258e+003;4.3423076172e+003;4.2852563477e+003;4.3505126953e+003;4.3410258789e+003;4.3373076172e+003;4.3310258789e+003;
5.1562500000e-001;4.3573076172e+003;4.3428203125e+003;4.3302563477e+003;4.3750000000e+003;4.3558974609e+003;4.3438461914e+003;4.3311538086e+003;4.3247436523e+003;4.3426923828e+003;4.2847436523e+003;4.3448715820e+003;4.3417949219e+003;4.3333334961e+003;4.3285898438e+003;
5.2343750000e-001;4.3383334961e+003;4.3261538086e+003;4.3153847656e+003;4.3543588867e+003;4.3314101563e+003;4.3342309570e+003;4.3156411133e+003;4.3084614258e+003;4.3283334961e+003;4.2682050781e+003;4.3255126953e+003;4.3266665039e+003;4.3150000000e+003;4.3115385742e+003;
5.3125000000e-001;4.2320512695e+003;4.2223076172e+003;4.2096152344e+003;4.2476923828e+003;4.2079487305e+003;4.2292309570e+003;4.2142309570e+003;4.2037177734e+003;4.2092309570e+003;4.1558974609e+003;4.2311538086e+003;4.2258974609e+003;4.2064101563e+003;4.2125639648e+003;
5.3906250000e-001;4.2133334961e+003;4.1992309570e+003;4.1957690430e+003;4.2265385742e+003;4.1779487305e+003;4.2096152344e+003;4.1964101563e+003;4.1853847656e+003;4.1870512695e+003;4.1321796875e+003;4.2019228516e+003;4.2066665039e+003;4.1915385742e+003;4.1939741211e+003;
5.4687500000e-001;4.1967949219e+003;4.1598715820e+003;4.1783334961e+003;4.1976923828e+003;4.1616665039e+003;4.1647436523e+003;4.1711538086e+003;4.1693588867e+003;4.1605126953e+003;4.0997436523e+003;4.1691025391e+003;4.1843588867e+003;4.1685898438e+003;4.1721796875e+003;
5.5468750000e-001;4.1579487305e+003;4.1347436523e+003;4.1393588867e+003;4.1744873047e+003;4.1306411133e+003;4.1216665039e+003;4.1356411133e+003;4.1519228516e+003;4.1367949219e+003;4.0767949219e+003;4.1634614258e+003;4.1635898438e+003;4.1298715820e+003;4.1491025391e+003;
5.6250000000e-001;4.1382050781e+003;4.1160258789e+003;4.1241025391e+003;4.1552563477e+003;4.1020512695e+003;4.1073076172e+003;4.1192309570e+003;4.1406411133e+003;4.1270512695e+003;4.0616667480e+003;4.1397436523e+003;4.1444873047e+003;4.1143588867e+003;4.1315385742e+003;
5.7031250000e-001;4.1232050781e+003;4.0820512695e+003;4.1066665039e+003;4.1297436523e+003;4.0733332520e+003;4.0962822266e+003;4.1015385742e+003;4.1288461914e+003;4.1210258789e+003;4.0419230957e+003;4.0988461914e+003;4.1130771484e+003;4.0893588867e+003;4.1057690430e+003;
5.7812500000e-001;4.1174360352e+003;4.0757692871e+003;4.0991025391e+003;4.1266665039e+003;4.0734614258e+003;4.0958974609e+003;4.0961538086e+003;4.1203847656e+003;4.1124360352e+003;4.0362819824e+003;4.0973076172e+003;4.1060258789e+003;4.0798718262e+003;4.0974360352e+003;
5.8593750000e-001;4.0564101563e+003;4.0279487305e+003;4.0414101563e+003;4.0761538086e+003;4.0333332520e+003;4.0558974609e+003;4.0462819824e+003;4.0470512695e+003;4.0419230957e+003;3.9721794434e+003;4.0411538086e+003;4.0456411133e+003;4.0239743652e+003;4.0360256348e+003;
5.9375000000e-001;4.0556411133e+003;4.0274357910e+003;4.0376923828e+003;4.0712819824e+003;4.0369230957e+003;4.0551281738e+003;4.0473076172e+003;4.0434614258e+003;4.0441025391e+003;3.9697436523e+003;4.0361538086e+003;4.0425642090e+003;4.0228205566e+003;4.0351281738e+003;
6.0156250000e-001;4.0593588867e+003;4.0212819824e+003;4.0325642090e+003;4.0717949219e+003;4.0420512695e+003;4.0587180176e+003;4.0519230957e+003;4.0461538086e+003;4.0567949219e+003;3.9747436523e+003;4.0410256348e+003;4.0451281738e+003;4.0239743652e+003;4.0396154785e+003;
6.0937500000e-001;4.0478205566e+003;4.0032050781e+003;4.0196154785e+003;4.0630769043e+003;4.0255129395e+003;4.0488461914e+003;4.0396154785e+003;4.0314101563e+003;4.0432050781e+003;3.9624357910e+003;4.0307692871e+003;4.0321794434e+003;4.0124357910e+003;4.0278205566e+003;
6.1718750000e-001;4.0311538086e+003;3.9916667480e+003;4.0028205566e+003;4.0450000000e+003;3.9955129395e+003;4.0284614258e+003;4.0129487305e+003;3.9982050781e+003;4.0048718262e+003;3.9348718262e+003;4.0030769043e+003;4.0028205566e+003;3.9955129395e+003;4.0035898438e+003;
6.2500000000e-001;4.0257692871e+003;3.9923076172e+003;3.9969230957e+003;4.0397436523e+003;3.9903845215e+003;4.0216667480e+003;4.0055129395e+003;3.9905129395e+003;3.9956411133e+003;3.9264101563e+003;3.9956411133e+003;3.9987180176e+003;3.9875642090e+003;3.9974357910e+003;
6.3281250000e-001;4.0035898438e+003;3.9667949219e+003;3.9748718262e+003;4.0215385742e+003;3.9656411133e+003;3.9958974609e+003;3.9802563477e+003;3.9587180176e+003;3.9598718262e+003;3.8923076172e+003;3.9669230957e+003;3.9801281738e+003;3.9565385742e+003;3.9743588867e+003;
6.4062500000e-001;4.0042307129e+003;3.9582050781e+003;3.9752563477e+003;4.0206411133e+003;3.9623076172e+003;3.9897436523e+003;3.9755129395e+003;3.9510256348e+003;3.9488461914e+003;3.8846154785e+003;3.9582050781e+003;3.9765385742e+003;3.9529487305e+003;3.9721794434e+003;
6.4843750000e-001;4.0120512695e+003;3.9566667480e+003;3.9823076172e+003;4.0238461914e+003;3.9658974609e+003;3.9870512695e+003;3.9752563477e+003;3.9515385742e+003;3.9455129395e+003;3.8857692871e+003;3.9552563477e+003;3.9785898438e+003;3.9578205566e+003;3.9769230957e+003;
6.5625000000e-001;4.0165385742e+003;3.9546154785e+003;3.9860256348e+003;4.0226923828e+003;3.9662819824e+003;3.9800000000e+003;3.9710256348e+003;3.9520512695e+003;3.9426923828e+003;3.8862819824e+003;3.9538461914e+003;3.9801281738e+003;3.9602563477e+003;3.9798718262e+003;
6.6406250000e-001;4.0946154785e+003;4.0411538086e+003;4.0615385742e+003;4.0892307129e+003;4.0325642090e+003;4.0455129395e+003;4.0497436523e+003;4.0514101563e+003;4.0429487305e+003;3.9838461914e+003;4.0728205566e+003;4.0755129395e+003;4.0496154785e+003;4.0650000000e+003;
6.7187500000e-001;4.3014101563e+003;4.2619228516e+003;4.2716665039e+003;4.3030771484e+003;4.2639741211e+003;4.2589741211e+003;4.2707690430e+003;4.2906411133e+003;4.2893588867e+003;4.2326923828e+003;4.2825639648e+003;4.2858974609e+003;4.2747436523e+003;4.2747436523e+003;
6.7968750000e-001;4.3167949219e+003;4.2767949219e+003;4.2906411133e+003;4.3173076172e+003;4.2783334961e+003;4.2812822266e+003;4.2875639648e+003;4.3070512695e+003;4.3065385742e+003;4.2466665039e+003;4.2958974609e+003;4.2996152344e+003;4.2884614258e+003;4.2900000000e+003;
6.8750000000e-001;4.4765385742e+003;4.4517949219e+003;4.4514101563e+003;4.4721796875e+003;4.4464101563e+003;4.4510258789e+003;4.4543588867e+003;4.4596152344e+003;4.4615385742e+003;4.4039741211e+003;4.4588461914e+003;4.4553847656e+003;4.4502563477e+003;4.4478203125e+003;
6.9531250000e-001;5.0074360352e+003;5.0334614258e+003;4.9938461914e+003;5.0238461914e+003;5.0179487305e+003;4.9839741211e+003;4.9882050781e+003;5.0076923828e+003;5.0048715820e+003;4.9924360352e+003;5.0389741211e+003;5.0061538086e+003;5.0126923828e+003;4.9987177734e+003;
7.0312500000e-001;4.9985898438e+003;5.0247436523e+003;5.0000000000e+003;5.0187177734e+003;5.0156411133e+003;4.9875639648e+003;4.9857690430e+003;5.0055126953e+003;5.0024360352e+003;4.9916665039e+003;5.0315385742e+003;5.0043588867e+003;5.0116665039e+003;4.9973076172e+003;
7.1093750000e-001;5.0289741211e+003;5.0784614258e+003;5.0491025391e+003;5.0541025391e+003;5.0821796875e+003;5.0330771484e+003;5.0282050781e+003;5.0398715820e+003;5.0380771484e+003;5.0397436523e+003;5.0633334961e+003;5.0437177734e+003;5.0620512695e+003;5.0387177734e+003;
7.1875000000e-001;5.0564101563e+003;5.1211538086e+003;5.0762822266e+003;5.0885898438e+003;5.1101284180e+003;5.0679487305e+003;5.0612822266e+003;5.0750000000e+003;5.0716665039e+003;5.0791025391e+003;5.1023076172e+003;5.0769228516e+003;5.0955126953e+003;5.0714101563e+003;
7.2656250000e-001;5.0692309570e+003;5.1501284180e+003;5.0984614258e+003;5.1129487305e+003;5.1185898438e+003;5.1067949219e+003;5.0953847656e+003;5.1060258789e+003;5.0964101563e+003;5.1019228516e+003;5.1356411133e+003;5.1025639648e+003;5.1147436523e+003;5.0973076172e+003;
7.3437500000e-001;5.0905126953e+003;5.1732050781e+003;5.1288461914e+003;5.1328203125e+003;5.1511538086e+003;5.1326923828e+003;5.1247436523e+003;5.1312822266e+003;5.1196152344e+003;5.1223076172e+003;5.1638461914e+003;5.1285898438e+003;5.1388461914e+003;5.1238461914e+003;
7.4218750000e-001;5.1739741211e+003;5.2652563477e+003;5.2374360352e+003;5.2117949219e+003;5.2721796875e+003;5.1967949219e+003;5.2101284180e+003;5.2246152344e+003;5.2048715820e+003;5.2196152344e+003;5.2655126953e+003;5.2356411133e+003;5.2408974609e+003;5.2255126953e+003;
7.5000000000e-001;5.1675639648e+003;5.2643588867e+003;5.2365385742e+003;5.2139741211e+003;5.2607690430e+003;5.1937177734e+003;5.2075639648e+003;5.2270512695e+003;5.2011538086e+003;5.2193588867e+003;5.2575639648e+003;5.2380771484e+003;5.2405126953e+003;5.2269228516e+003;
7.5781250000e-001;5.1511538086e+003;5.2648715820e+003;5.2300000000e+003;5.2197436523e+003;5.2405126953e+003;5.1930771484e+003;5.2061538086e+003;5.2343588867e+003;5.2028203125e+003;5.2165385742e+003;5.2430771484e+003;5.2326923828e+003;5.2358974609e+003;5.2229487305e+003;
7.6562500000e-001;5.1434614258e+003;5.2652563477e+003;5.2276923828e+003;5.2184614258e+003;5.2384614258e+003;5.1885898438e+003;5.2041025391e+003;5.2366665039e+003;5.2085898438e+003;5.2188461914e+003;5.2465385742e+003;5.2289741211e+003;5.2355126953e+003;5.2194873047e+003;
7.7343750000e-001;5.1319228516e+003;5.2582050781e+003;5.2206411133e+003;5.2083334961e+003;5.2305126953e+003;5.1764101563e+003;5.1948715820e+003;5.2298715820e+003;5.2076923828e+003;5.2164101563e+003;5.2485898438e+003;5.2205126953e+003;5.2305126953e+003;5.2108974609e+003;
7.8125000000e-001;5.1251284180e+003;5.2519228516e+003;5.2162822266e+003;5.1997436523e+003;5.2212822266e+003;5.1680771484e+003;5.1873076172e+003;5.2228203125e+003;5.2060258789e+003;5.2151284180e+003;5.2512822266e+003;5.2150000000e+003;5.2275639648e+003;5.2057690430e+003;
7.8906250000e-001;5.2128203125e+003;5.3534614258e+003;5.3171796875e+003;5.2915385742e+003;5.3329487305e+003;5.2743588867e+003;5.2856411133e+003;5.3264101563e+003;5.3048715820e+003;5.3196152344e+003;5.3435898438e+003;5.3170512695e+003;5.3203847656e+003;5.3058974609e+003;
7.9687500000e-001;5.1620512695e+003;5.3185898438e+003;5.2808974609e+003;5.2621796875e+003;5.3057690430e+003;5.2543588867e+003;5.2602563477e+003;5.2910258789e+003;5.2852563477e+003;5.2841025391e+003;5.3006411133e+003;5.2715385742e+003;5.3007690430e+003;5.2676923828e+003;
8.0468750000e-001;5.1467949219e+003;5.3001284180e+003;5.2651284180e+003;5.2534614258e+003;5.2869228516e+003;5.2467949219e+003;5.2482050781e+003;5.2760258789e+003;5.2711538086e+003;5.2667949219e+003;5.2870512695e+003;5.2551284180e+003;5.2846152344e+003;5.2525639648e+003;
8.1250000000e-001;5.1416665039e+003;5.2969228516e+003;5.2629487305e+003;5.2544873047e+003;5.2837177734e+003;5.2496152344e+003;5.2475639648e+003;5.2735898438e+003;5.2653847656e+003;5.2628203125e+003;5.2948715820e+003;5.2548715820e+003;5.2751284180e+003;5.2517949219e+003;
8.2031250000e-001;5.1421796875e+003;5.3033334961e+003;5.2676923828e+003;5.2547436523e+003;5.2880771484e+003;5.2541025391e+003;5.2516665039e+003;5.2789741211e+003;5.2683334961e+003;5.2696152344e+003;5.2998715820e+003;5.2600000000e+003;5.2792309570e+003;5.2567949219e+003;
8.2812500000e-001;5.0801284180e+003;5.2464101563e+003;5.2161538086e+003;5.1880771484e+003;5.2353847656e+003;5.2056411133e+003;5.2051284180e+003;5.2269228516e+003;5.2107690430e+003;5.2089741211e+003;5.2226923828e+003;5.2041025391e+003;5.2229487305e+003;5.1971796875e+003;
8.3593750000e-001;5.0719228516e+003;5.2338461914e+003;5.2058974609e+003;5.1802563477e+003;5.2301284180e+003;5.1941025391e+003;5.1970512695e+003;5.2137177734e+003;5.1966665039e+003;5.1920512695e+003;5.2146152344e+003;5.1923076172e+003;5.2079487305e+003;5.1858974609e+003;
8.4375000000e-001;5.1691025391e+003;5.3393588867e+003;5.3012822266e+003;5.2837177734e+003;5.3332050781e+003;5.2779487305e+003;5.2874360352e+003;5.3050000000e+003;5.2762822266e+003;5.2884614258e+003;5.3364101563e+003;5.2906411133e+003;5.3087177734e+003;5.2917949219e+003;
8.5156250000e-001;5.2338461914e+003;5.4192309570e+003;5.3780771484e+003;5.3530771484e+003;5.3891025391e+003;5.3451284180e+003;5.3534614258e+003;5.3860258789e+003;5.3474360352e+003;5.3641025391e+003;5.3833334961e+003;5.3678203125e+003;5.3906411133e+003;5.3610258789e+003;
8.5937500000e-001;5.2285898438e+003;5.4126923828e+003;5.3743588867e+003;5.3501284180e+003;5.3850000000e+003;5.3369228516e+003;5.3476923828e+003;5.3823076172e+003;5.3446152344e+003;5.3585898438e+003;5.3788461914e+003;5.3634614258e+003;5.3805126953e+003;5.3543588867e+003;
8.6718750000e-001;5.2008974609e+003;5.3826923828e+003;5.3494873047e+003;5.3244873047e+003;5.3605126953e+003;5.3060258789e+003;5.3184614258e+003;5.3555126953e+003;5.3201284180e+003;5.3315385742e+003;5.3616665039e+003;5.3389741211e+003;5.3475639648e+003;5.3289741211e+003;
8.7500000000e-001;5.0478203125e+003;5.2246152344e+003;5.2060258789e+003;5.1714101563e+003;5.2058974609e+003;5.1494873047e+003;5.1605126953e+003;5.2079487305e+003;5.1826923828e+003;5.1825639648e+003;5.2307690430e+003;5.1984614258e+003;5.1971796875e+003;5.1867949219e+003;
8.8281250000e-001;4.6565385742e+003;4.8162822266e+003;4.8160258789e+003;4.7929487305e+003;4.7861538086e+003;4.7693588867e+003;4.7761538086e+003;4.8266665039e+003;4.8206411133e+003;4.7825639648e+003;4.8178203125e+003;4.8064101563e+003;4.8123076172e+003;4.7929487305e+003;
8.9062500000e-001;4.5382050781e+003;4.6896152344e+003;4.6929487305e+003;4.6830771484e+003;4.6620512695e+003;4.6589741211e+003;4.6630771484e+003;4.7055126953e+003;4.7006411133e+003;4.6544873047e+003;4.6874360352e+003;4.6811538086e+003;4.6855126953e+003;4.6697436523e+003;
8.9843750000e-001;4.4482050781e+003;4.5925639648e+003;4.5964101563e+003;4.5967949219e+003;4.5703847656e+003;4.5766665039e+003;4.5767949219e+003;4.6089741211e+003;4.6030771484e+003;4.5528203125e+003;4.5867949219e+003;4.5825639648e+003;4.5842309570e+003;4.5744873047e+003;
9.0625000000e-001;4.3921796875e+003;4.5314101563e+003;4.5330771484e+003;4.5380771484e+003;4.5141025391e+003;4.5258974609e+003;4.5217949219e+003;4.5443588867e+003;4.5378203125e+003;4.4843588867e+003;4.5215385742e+003;4.5171796875e+003;4.5174360352e+003;4.5123076172e+003;
9.1406250000e-001;4.3373076172e+003;4.4382050781e+003;4.4566665039e+003;4.4738461914e+003;4.4412822266e+003;4.4619228516e+003;4.4566665039e+003;4.4637177734e+003;4.4587177734e+003;4.3814101563e+003;4.4396152344e+003;4.4369228516e+003;4.4324360352e+003;4.4282050781e+003;
9.2187500000e-001;4.3182050781e+003;4.4123076172e+003;4.4319228516e+003;4.4552563477e+003;4.4201284180e+003;4.4414101563e+003;4.4380771484e+003;4.4433334961e+003;4.4367949219e+003;4.3620512695e+003;4.4179487305e+003;4.4152563477e+003;4.4102563477e+003;4.4053847656e+003;
9.2968750000e-001;4.2689741211e+003;4.3601284180e+003;4.3655126953e+003;4.3953847656e+003;4.3538461914e+003;4.3958974609e+003;4.3853847656e+003;4.3841025391e+003;4.3784614258e+003;4.3153847656e+003;4.3597436523e+003;4.3589741211e+003;4.3567949219e+003;4.3580771484e+003;
9.3750000000e-001;4.3260258789e+003;4.3988461914e+003;4.4069228516e+003;4.4498715820e+003;4.3942309570e+003;4.4298715820e+003;4.4170512695e+003;4.4220512695e+003;4.4106411133e+003;4.3393588867e+003;4.4017949219e+003;4.3985898438e+003;4.3929487305e+003;4.3993588867e+003;
9.4531250000e-001;4.3374360352e+003;4.4070512695e+003;4.4146152344e+003;4.4571796875e+003;4.4082050781e+003;4.4308974609e+003;4.4219228516e+003;4.4303847656e+003;4.4142309570e+003;4.3485898438e+003;4.4097436523e+003;4.4069228516e+003;4.4055126953e+003;4.4058974609e+003;
9.5312500000e-001;4.3317949219e+003;4.3958974609e+003;4.4016665039e+003;4.4453847656e+003;4.3915385742e+003;4.3956411133e+003;4.4008974609e+003;4.4034614258e+003;4.3817949219e+003;4.3379487305e+003;4.3878203125e+003;4.3915385742e+003;4.4087177734e+003;4.3989741211e+003;
9.6093750000e-001;4.3488461914e+003;4.4111538086e+003;4.4147436523e+003;4.4623076172e+003;4.3993588867e+003;4.4056411133e+003;4.4103847656e+003;4.4135898438e+003;4.3919228516e+003;4.3484614258e+003;4.4003847656e+003;4.4051284180e+003;4.4203847656e+003;4.4139741211e+003;
9.6875000000e-001;4.3676923828e+003;4.4226923828e+003;4.4292309570e+003;4.4603847656e+003;4.4014101563e+003;4.4088461914e+003;4.4092309570e+003;4.4258974609e+003;4.4029487305e+003;4.3594873047e+003;4.4151284180e+003;4.4296152344e+003;4.4207690430e+003;4.4246152344e+003;
9.7656250000e-001;4.3474360352e+003;4.3964101563e+003;4.4007690430e+003;4.4392309570e+003;4.3657690430e+003;4.3852563477e+003;4.3882050781e+003;4.4103847656e+003;4.3965385742e+003;4.3539741211e+003;4.4062822266e+003;4.4062822266e+003;4.4098715820e+003;4.4030771484e+003;
9.8437500000e-001;4.3408974609e+003;4.3870512695e+003;4.3912822266e+003;4.4358974609e+003;4.3602563477e+003;4.3787177734e+003;4.3839741211e+003;4.4091025391e+003;4.3964101563e+003;4.3502563477e+003;4.4008974609e+003;4.3960258789e+003;4.4011538086e+003;4.3944873047e+003;
9.9218750000e-001;4.3348715820e+003;4.3784614258e+003;4.3848715820e+003;4.4298715820e+003;4.3621796875e+003;4.3707690430e+003;4.3798715820e+003;4.4076923828e+003;4.3955126953e+003;4.3448715820e+003;4.3928203125e+003;4.3862822266e+003;4.3910258789e+003;4.3862822266e+003;
1.0000000000e+000;4.3114101563e+003;4.3542309570e+003;4.3601284180e+003;4.4033334961e+003;4.3570512695e+003;4.3460258789e+003;4.3567949219e+003;4.3873076172e+003;4.3773076172e+003;4.3191025391e+003;4.3612822266e+003;4.3561538086e+003;4.3635898438e+003;4.3587177734e+003;
1.0078125000e+000;4.1916665039e+003;4.2248715820e+003;4.2205126953e+003;4.2841025391e+003;4.2141025391e+003;4.2438461914e+003;4.2417949219e+003;4.2606411133e+003;4.2471796875e+003;4.1806411133e+003;4.2202563477e+003;4.2274360352e+003;4.2298715820e+003;4.2298715820e+003;
1.0156250000e+000;4.1657690430e+003;4.1887177734e+003;4.1907690430e+003;4.2532050781e+003;4.1800000000e+003;4.2196152344e+003;4.2175639648e+003;4.2303847656e+003;4.2150000000e+003;4.1470512695e+003;4.1876923828e+003;4.1964101563e+003;4.1950000000e+003;4.1982050781e+003;
1.0234375000e+000;4.1601284180e+003;4.1742309570e+003;4.1844873047e+003;4.2437177734e+003;4.1714101563e+003;4.2129487305e+003;4.2123076172e+003;4.2212822266e+003;4.2052563477e+003;4.1384614258e+003;4.1817949219e+003;4.1866665039e+003;4.1826923828e+003;4.1869228516e+003;
1.0312500000e+000;4.1639741211e+003;4.1738461914e+003;4.1892309570e+003;4.2489741211e+003;4.1742309570e+003;4.2167949219e+003;4.2162822266e+003;4.2232050781e+003;4.2082050781e+003;4.1444873047e+003;4.1921796875e+003;4.1892309570e+003;4.1844873047e+003;4.1870512695e+003;
1.0390625000e+000;4.1939741211e+003;4.2015385742e+003;4.2066665039e+003;4.2791025391e+003;4.1862822266e+003;4.2411538086e+003;4.2320512695e+003;4.2330771484e+003;4.2248715820e+003;4.1687177734e+003;4.2043588867e+003;4.2053847656e+003;4.2147436523e+003;4.2093588867e+003;
1.0468750000e+000;4.2241025391e+003;4.2253847656e+003;4.2339741211e+003;4.3020512695e+003;4.2165385742e+003;4.2589741211e+003;4.2539741211e+003;4.2555126953e+003;4.2460258789e+003;4.1902563477e+003;4.2169228516e+003;4.2301284180e+003;4.2376923828e+003;4.2358974609e+003;
1.0546875000e+000;4.3335898438e+003;4.3361538086e+003;4.3415385742e+003;4.4033334961e+003;4.3223076172e+003;4.3443588867e+003;4.3464101563e+003;4.3424360352e+003;4.3243588867e+003;4.2835898438e+003;4.3307690430e+003;4.3374360352e+003;4.3375639648e+003;4.3444873047e+003;
1.0625000000e+000;4.4684614258e+003;4.4700000000e+003;4.4807690430e+003;4.5238461914e+003;4.4483334961e+003;4.4676923828e+003;4.4719228516e+003;4.4698715820e+003;4.4455126953e+003;4.4174360352e+003;4.4825639648e+003;4.4710258789e+003;4.4820512695e+003;4.4824360352e+003;
1.0703125000e+000;4.5052563477e+003;4.5062822266e+003;4.5193588867e+003;4.5619228516e+003;4.4847436523e+003;4.5033334961e+003;4.5089741211e+003;4.5110258789e+003;4.4829487305e+003;4.4570512695e+003;4.5161538086e+003;4.5144873047e+003;4.5212822266e+003;4.5226923828e+003;
1.0781250000e+000;4.6896152344e+003;4.7165385742e+003;4.7044873047e+003;4.7401284180e+003;4.6807690430e+003;4.6829487305e+003;4.6915385742e+003;4.7105126953e+003;4.6843588867e+003;4.6744873047e+003;4.7194873047e+003;4.7183334961e+003;4.7179487305e+003;4.7203847656e+003;
1.0859375000e+000;4.7632050781e+003;4.7948715820e+003;4.7825639648e+003;4.8078203125e+003;4.7626923828e+003;4.7520512695e+003;4.7625639648e+003;4.7883334961e+003;4.7702563477e+003;4.7611538086e+003;4.8053847656e+003;4.7942309570e+003;4.7992309570e+003;4.7962822266e+003;
1.0937500000e+000;4.8629487305e+003;4.8932050781e+003;4.9012822266e+003;4.9200000000e+003;4.8862822266e+003;4.8448715820e+003;4.8644873047e+003;4.9096152344e+003;4.9078203125e+003;4.8843588867e+003;4.9220512695e+003;4.8994873047e+003;4.9198715820e+003;4.8992309570e+003;
1.1015625000e+000;4.7553847656e+003;4.8102563477e+003;4.8043588867e+003;4.8234614258e+003;4.7734614258e+003;4.7746152344e+003;4.7858974609e+003;4.8330771484e+003;4.8193588867e+003;4.7925639648e+003;4.8225639648e+003;4.8141025391e+003;4.8160258789e+003;4.8119228516e+003;
1.1093750000e+000;4.7430771484e+003;4.8035898438e+003;4.7934614258e+003;4.8094873047e+003;4.7646152344e+003;4.7751284180e+003;4.7826923828e+003;4.8244873047e+003;4.8074360352e+003;4.7821796875e+003;4.8112822266e+003;4.8062822266e+003;4.8012822266e+003;4.8030771484e+003;
1.1171875000e+000;4.7453847656e+003;4.8071796875e+003;4.7969228516e+003;4.8125639648e+003;4.7778203125e+003;4.7862822266e+003;4.7921796875e+003;4.8293588867e+003;4.8116665039e+003;4.7871796875e+003;4.8151284180e+003;4.8097436523e+003;4.8038461914e+003;4.8066665039e+003;
1.1250000000e+000;4.6989741211e+003;4.7555126953e+003;4.7557690430e+003;4.7794873047e+003;4.7593588867e+003;4.7520512695e+003;4.7585898438e+003;4.7892309570e+003;4.7751284180e+003;4.7446152344e+003;4.7733334961e+003;4.7628203125e+003;4.7674360352e+003;4.7624360352e+003;
1.1328125000e+000;4.6020512695e+003;4.6621796875e+003;4.6591025391e+003;4.6988461914e+003;4.6615385742e+003;4.6693588867e+003;4.6738461914e+003;4.6870512695e+003;4.6717949219e+003;4.6364101563e+003;4.6708974609e+003;4.6619228516e+003;4.6770512695e+003;4.6646152344e+003;
1.1406250000e+000;4.6258974609e+003;4.6907690430e+003;4.6812822266e+003;4.7217949219e+003;4.6823076172e+003;4.6961538086e+003;4.6998715820e+003;4.7080771484e+003;4.6896152344e+003;4.6611538086e+003;4.6911538086e+003;4.6851284180e+003;4.7008974609e+003;4.6874360352e+003;
1.1484375000e+000;4.6557690430e+003;4.7238461914e+003;4.7120512695e+003;4.7488461914e+003;4.7121796875e+003;4.7279487305e+003;4.7314101563e+003;4.7371796875e+003;4.7157690430e+003;4.6932050781e+003;4.7182050781e+003;4.7164101563e+003;4.7298715820e+003;4.7173076172e+003;
1.1562500000e+000;4.6712822266e+003;4.7400000000e+003;4.7305126953e+003;4.7601284180e+003;4.7280771484e+003;4.7441025391e+003;4.7473076172e+003;4.7530771484e+003;4.7294873047e+003;4.7076923828e+003;4.7323076172e+003;4.7337177734e+003;4.7417949219e+003;4.7334614258e+003;
1.1640625000e+000;4.6305126953e+003;4.6832050781e+003;4.6932050781e+003;4.7097436523e+003;4.6742309570e+003;4.6883334961e+003;4.6896152344e+003;4.6920512695e+003;4.6678203125e+003;4.6393588867e+003;4.6973076172e+003;4.6900000000e+003;4.6832050781e+003;4.6912822266e+003;
1.1718750000e+000;4.6303847656e+003;4.6805126953e+003;4.6946152344e+003;4.7178203125e+003;4.6764101563e+003;4.6841025391e+003;4.6873076172e+003;4.6850000000e+003;4.6608974609e+003;4.6425639648e+003;4.6982050781e+003;4.6914101563e+003;4.6866665039e+003;4.6926923828e+003;
1.1796875000e+000;4.6134614258e+003;4.6730771484e+003;4.6784614258e+003;4.7305126953e+003;4.6602563477e+003;4.6596152344e+003;4.6628203125e+003;4.6716665039e+003;4.6432050781e+003;4.6370512695e+003;4.6810258789e+003;4.6796152344e+003;4.6807690430e+003;4.6771796875e+003;
1.1875000000e+000;4.5939741211e+003;4.6511538086e+003;4.6510258789e+003;4.7039741211e+003;4.6325639648e+003;4.6278203125e+003;4.6388461914e+003;4.6534614258e+003;4.6351284180e+003;4.6091025391e+003;4.6569228516e+003;4.6555126953e+003;4.6567949219e+003;4.6551284180e+003;
1.1953125000e+000;4.6270512695e+003;4.6834614258e+003;4.6835898438e+003;4.7271796875e+003;4.6650000000e+003;4.6561538086e+003;4.6716665039e+003;4.6879487305e+003;4.6751284180e+003;4.6441025391e+003;4.6902563477e+003;4.6844873047e+003;4.6906411133e+003;4.6873076172e+003;
1.2031250000e+000;4.6793588867e+003;4.7406411133e+003;4.7428203125e+003;4.7732050781e+003;4.7147436523e+003;4.7151284180e+003;4.7292309570e+003;4.7612822266e+003;4.7446152344e+003;4.7162822266e+003;4.7602563477e+003;4.7391025391e+003;4.7515385742e+003;4.7461538086e+003;
1.2109375000e+000;4.6687177734e+003;4.7267949219e+003;4.7338461914e+003;4.7682050781e+003;4.7094873047e+003;4.7078203125e+003;4.7212822266e+003;4.7523076172e+003;4.7333334961e+003;4.7080771484e+003;4.7505126953e+003;4.7285898438e+003;4.7420512695e+003;4.7355126953e+003;
1.2187500000e+000;4.6680771484e+003;4.7239741211e+003;4.7328203125e+003;4.7714101563e+003;4.7252563477e+003;4.7232050781e+003;4.7280771484e+003;4.7485898438e+003;4.7379487305e+003;4.7069228516e+003;4.7360258789e+003;4.7244873047e+003;4.7326923828e+003;4.7269228516e+003;
1.2265625000e+000;4.6621796875e+003;4.7226923828e+003;4.7260258789e+003;4.7574360352e+003;4.7167949219e+003;4.7269228516e+003;4.7251284180e+003;4.7441025391e+003;4.7350000000e+003;4.6988461914e+003;4.7301284180e+003;4.7192309570e+003;4.7207690430e+003;4.7215385742e+003;
1.2343750000e+000;4.6426923828e+003;4.7065385742e+003;4.7044873047e+003;4.7237177734e+003;4.6996152344e+003;4.7185898438e+003;4.7105126953e+003;4.7270512695e+003;4.7153847656e+003;4.6782050781e+003;4.7130771484e+003;4.6958974609e+003;4.7015385742e+003;4.7033334961e+003;
1.2421875000e+000;4.6343588867e+003;4.6958974609e+003;4.6974360352e+003;4.7176923828e+003;4.6979487305e+003;4.7126923828e+003;4.7058974609e+003;4.7207690430e+003;4.7083334961e+003;4.6755126953e+003;4.7044873047e+003;4.6851284180e+003;4.7017949219e+003;4.6952563477e+003;
1.2500000000e+000;4.5930771484e+003;4.6488461914e+003;4.6633334961e+003;4.6974360352e+003;4.6507690430e+003;4.6851284180e+003;4.6773076172e+003;4.6832050781e+003;4.6729487305e+003;4.6433334961e+003;4.6643588867e+003;4.6473076172e+003;4.6708974609e+003;4.6628203125e+003;
1.2578125000e+000;4.5944873047e+003;4.6505126953e+003;4.6621796875e+003;4.6970512695e+003;4.6473076172e+003;4.6865385742e+003;4.6769228516e+003;4.6794873047e+003;4.6693588867e+003;4.6364101563e+003;4.6648715820e+003;4.6475639648e+003;4.6648715820e+003;4.6658974609e+003;
1.2656250000e+000;4.6196152344e+003;4.6767949219e+003;4.6807690430e+003;4.7124360352e+003;4.6819228516e+003;4.6978203125e+003;4.6911538086e+003;4.6898715820e+003;4.6756411133e+003;4.6460258789e+003;4.6820512695e+003;4.6697436523e+003;4.6794873047e+003;4.6875639648e+003;
1.2734375000e+000;4.6183334961e+003;4.6756411133e+003;4.6803847656e+003;4.7080771484e+003;4.6876923828e+003;4.6882050781e+003;4.6851284180e+003;4.6828203125e+003;4.6642309570e+003;4.6426923828e+003;4.6775639648e+003;4.6703847656e+003;4.6796152344e+003;4.6855126953e+003;
1.2812500000e+000;4.6020512695e+003;4.6594873047e+003;4.6673076172e+003;4.6901284180e+003;4.6710258789e+003;4.6671796875e+003;4.6657690430e+003;4.6624360352e+003;4.6402563477e+003;4.6276923828e+003;4.6623076172e+003;4.6576923828e+003;4.6676923828e+003;4.6715385742e+003;
1.2890625000e+000;4.5483334961e+003;4.5920512695e+003;4.6134614258e+003;4.6292309570e+003;4.5858974609e+003;4.5966665039e+003;4.5975639648e+003;4.6024360352e+003;4.5841025391e+003;4.5680771484e+003;4.6173076172e+003;4.5991025391e+003;4.6139741211e+003;4.6162822266e+003;
1.2968750000e+000;4.5647436523e+003;4.6061538086e+003;4.6293588867e+003;4.6458974609e+003;4.6043588867e+003;4.6035898438e+003;4.6089741211e+003;4.6202563477e+003;4.6015385742e+003;4.5866665039e+003;4.6269228516e+003;4.6125639648e+003;4.6289741211e+003;4.6301284180e+003;
1.3046875000e+000;4.5752563477e+003;4.6291025391e+003;4.6382050781e+003;4.6556411133e+003;4.6007690430e+003;4.6197436523e+003;4.6223076172e+003;4.6484614258e+003;4.6316665039e+003;4.6143588867e+003;4.6423076172e+003;4.6287177734e+003;4.6516665039e+003;4.6498715820e+003;
1.3125000000e+000;4.5564101563e+003;4.6120512695e+003;4.6174360352e+003;4.6341025391e+003;4.6065385742e+003;4.6029487305e+003;4.6096152344e+003;4.6323076172e+003;4.6162822266e+003;4.5900000000e+003;4.6302563477e+003;4.6065385742e+003;4.6279487305e+003;4.6255126953e+003;
1.3203125000e+000;4.5717949219e+003;4.6207690430e+003;4.6314101563e+003;4.6484614258e+003;4.6252563477e+003;4.6178203125e+003;4.6258974609e+003;4.6479487305e+003;4.6307690430e+003;4.6066665039e+003;4.6479487305e+003;4.6183334961e+003;4.6385898438e+003;4.6371796875e+003;
1.3281250000e+000;4.5042309570e+003;4.5407690430e+003;4.5634614258e+003;4.5797436523e+003;4.5330771484e+003;4.5737177734e+003;4.5639741211e+003;4.5870512695e+003;4.5680771484e+003;4.5471796875e+003;4.5738461914e+003;4.5556411133e+003;4.5746152344e+003;4.5756411133e+003;
1.3359375000e+000;4.4220512695e+003;4.4597436523e+003;4.4823076172e+003;4.4989741211e+003;4.4508974609e+003;4.4985898438e+003;4.4834614258e+003;4.5066665039e+003;4.4873076172e+003;4.4638461914e+003;4.4874360352e+003;4.4751284180e+003;4.4947436523e+003;4.4952563477e+003;
1.3437500000e+000;4.1847436523e+003;4.2092309570e+003;4.2439741211e+003;4.2823076172e+003;4.2169228516e+003;4.2691025391e+003;4.2573076172e+003;4.2666665039e+003;4.2493588867e+003;4.2135898438e+003;4.2471796875e+003;4.2256411133e+003;4.2482050781e+003;4.2484614258e+003;
1.3515625000e+000;4.1607690430e+003;4.1784614258e+003;4.2152563477e+003;4.2630771484e+003;4.1847436523e+003;4.2451284180e+003;4.2330771484e+003;4.2346152344e+003;4.2198715820e+003;4.1823076172e+003;4.2175639648e+003;4.1939741211e+003;4.2206411133e+003;4.2191025391e+003;
1.3593750000e+000;4.1600000000e+003;4.1729487305e+003;4.2015385742e+003;4.2532050781e+003;4.1728203125e+003;4.2382050781e+003;4.2189741211e+003;4.2125639648e+003;4.1989741211e+003;4.1669228516e+003;4.1998715820e+003;4.1829487305e+003;4.2151284180e+003;4.2110258789e+003;
1.3671875000e+000;4.1503847656e+003;4.1632050781e+003;4.1871796875e+003;4.2355126953e+003;4.1647436523e+003;4.2228203125e+003;4.2028203125e+003;4.1948715820e+003;4.1793588867e+003;4.1508974609e+003;4.1873076172e+003;4.1721796875e+003;4.1998715820e+003;4.2003847656e+003;
1.3750000000e+000;4.1588461914e+003;4.1560258789e+003;4.1892309570e+003;4.2289741211e+003;4.1653847656e+003;4.2180771484e+003;4.2091025391e+003;4.1934614258e+003;4.1725639648e+003;4.1415385742e+003;4.1951284180e+003;4.1712822266e+003;4.1828203125e+003;4.1967949219e+003;
1.3828125000e+000;4.1939741211e+003;4.1828203125e+003;4.2225639648e+003;4.2560258789e+003;4.1921796875e+003;4.2497436523e+003;4.2411538086e+003;4.2271796875e+003;4.2048715820e+003;4.1737177734e+003;4.2212822266e+003;4.2010258789e+003;4.2165385742e+003;4.2243588867e+003;
1.3906250000e+000;4.2210258789e+003;4.2019228516e+003;4.2430771484e+003;4.2655126953e+003;4.2126923828e+003;4.2642309570e+003;4.2566665039e+003;4.2520512695e+003;4.2267949219e+003;4.1939741211e+003;4.2274360352e+003;4.2255126953e+003;4.2461538086e+003;4.2455126953e+003;
1.3984375000e+000;4.2051284180e+003;4.1856411133e+003;4.2234614258e+003;4.2455126953e+003;4.1961538086e+003;4.2416665039e+003;4.2375639648e+003;4.2371796875e+003;4.2112822266e+003;4.1739741211e+003;4.2088461914e+003;4.2121796875e+003;4.2270512695e+003;4.2317949219e+003;
1.4062500000e+000;4.1880771484e+003;4.1670512695e+003;4.2039741211e+003;4.2289741211e+003;4.1753847656e+003;4.2206411133e+003;4.2197436523e+003;4.2235898438e+003;4.1973076172e+003;4.1547436523e+003;4.1956411133e+003;4.1974360352e+003;4.2038461914e+003;4.2174360352e+003;
1.4140625000e+000;4.2096152344e+003;4.1733334961e+003;4.2152563477e+003;4.2494873047e+003;4.1733334961e+003;4.2080771484e+003;4.2076923828e+003;4.2264101563e+003;4.2110258789e+003;4.1676923828e+003;4.2057690430e+003;4.1937177734e+003;4.2115385742e+003;4.2170512695e+003;
1.4218750000e+000;4.2093588867e+003;4.1780771484e+003;4.2087177734e+003;4.2492309570e+003;4.1784614258e+003;4.2067949219e+003;4.2074360352e+003;4.2271796875e+003;4.2142309570e+003;4.1673076172e+003;4.2048715820e+003;4.1928203125e+003;4.2103847656e+003;4.2164101563e+003;
1.4296875000e+000;4.1792309570e+003;4.1525639648e+003;4.1751284180e+003;4.2188461914e+003;4.1514101563e+003;4.2082050781e+003;4.2005126953e+003;4.2129487305e+003;4.2017949219e+003;4.1493588867e+003;4.1853847656e+003;4.1684614258e+003;4.1860258789e+003;4.1926923828e+003;
1.4375000000e+000;4.1857690430e+003;4.1515385742e+003;4.1803847656e+003;4.2229487305e+003;4.1742309570e+003;4.2106411133e+003;4.2021796875e+003;4.2056411133e+003;4.1989741211e+003;4.1566665039e+003;4.1770512695e+003;4.1573076172e+003;4.1865385742e+003;4.1802563477e+003;
1.4453125000e+000;4.1792309570e+003;4.1408974609e+003;4.1703847656e+003;4.2146152344e+003;4.1651284180e+003;4.2021796875e+003;4.1937177734e+003;4.1943588867e+003;4.1855126953e+003;4.1402563477e+003;4.1652563477e+003;4.1466665039e+003;4.1689741211e+003;4.1693588867e+003;
1.4531250000e+000;4.2008974609e+003;4.1608974609e+003;4.1841025391e+003;4.2158974609e+003;4.1671796875e+003;4.2273076172e+003;4.2117949219e+003;4.2028203125e+003;4.1932050781e+003;4.1402563477e+003;4.1756411133e+003;4.1606411133e+003;4.1846152344e+003;4.1876923828e+003;
1.4609375000e+000;4.2038461914e+003;4.1673076172e+003;4.1867949219e+003;4.2138461914e+003;4.1729487305e+003;4.2278203125e+003;4.2126923828e+003;4.2014101563e+003;4.1943588867e+003;4.1426923828e+003;4.1739741211e+003;4.1612822266e+003;4.1907690430e+003;4.1888461914e+003;
1.4687500000e+000;4.1788461914e+003;4.1311538086e+003;4.1583334961e+003;4.1893588867e+003;4.1510258789e+003;4.1928203125e+003;4.1826923828e+003;4.1662822266e+003;4.1576923828e+003;4.1079487305e+003;4.1443588867e+003;4.1328203125e+003;4.1537177734e+003;4.1575639648e+003;
1.4765625000e+000;4.1784614258e+003;4.1283334961e+003;4.1552563477e+003;4.1930771484e+003;4.1473076172e+003;4.1919228516e+003;4.1817949219e+003;4.1665385742e+003;4.1570512695e+003;4.1075639648e+003;4.1492309570e+003;4.1330771484e+003;4.1537177734e+003;4.1587177734e+003;
1.4843750000e+000;4.1617949219e+003;4.1144873047e+003;4.1375639648e+003;4.1758974609e+003;4.1238461914e+003;4.1715385742e+003;4.1626923828e+003;4.1497436523e+003;4.1401284180e+003;4.0896154785e+003;4.1324360352e+003;4.1169228516e+003;4.1405126953e+003;4.1434614258e+003;
1.4921875000e+000;4.1553847656e+003;4.1075639648e+003;4.1315385742e+003;4.1608974609e+003;4.1144873047e+003;4.1589741211e+003;4.1514101563e+003;4.1396152344e+003;4.1291025391e+003;4.0779487305e+003;4.1189741211e+003;4.1078203125e+003;4.1294873047e+003;4.1333334961e+003;
1.5000000000e+000;4.2258974609e+003;4.1787177734e+003;4.1973076172e+003;4.2191025391e+003;4.1870512695e+003;4.2102563477e+003;4.2088461914e+003;4.2097436523e+003;4.2005126953e+003;4.1525639648e+003;4.1906411133e+003;4.1743588867e+003;4.1970512695e+003;4.2000000000e+003;
1.5078125000e+000;4.2435898438e+003;4.2026923828e+003;4.2135898438e+003;4.2471796875e+003;4.2073076172e+003;4.2261538086e+003;4.2275639648e+003;4.2333334961e+003;4.2269228516e+003;4.1801284180e+003;4.2139741211e+003;4.1958974609e+003;4.2234614258e+003;4.2225639648e+003;
1.5156250000e+000;4.2228203125e+003;4.1880771484e+003;4.1905126953e+003;4.2391025391e+003;4.1787177734e+003;4.2042309570e+003;4.2058974609e+003;4.2180771484e+003;4.2166665039e+003;4.1688461914e+003;4.1892309570e+003;4.1760258789e+003;4.2091025391e+003;4.2034614258e+003;
1.5234375000e+000;4.2012822266e+003;4.1630771484e+003;4.1687177734e+003;4.2105126953e+003;4.1480771484e+003;4.1830771484e+003;4.1814101563e+003;4.1960258789e+003;4.1947436523e+003;4.1457690430e+003;4.1634614258e+003;4.1515385742e+003;4.1821796875e+003;4.1780771484e+003;
1.5312500000e+000;4.1883334961e+003;4.1446152344e+003;4.1570512695e+003;4.1860258789e+003;4.1294873047e+003;4.1712822266e+003;4.1660258789e+003;4.1821796875e+003;4.1793588867e+003;4.1301284180e+003;4.1503847656e+003;4.1373076172e+003;4.1623076172e+003;4.1617949219e+003;
1.5390625000e+000;4.2394873047e+003;4.1892309570e+003;4.2117949219e+003;4.2329487305e+003;4.1982050781e+003;4.2239741211e+003;4.2238461914e+003;4.2233334961e+003;4.2244873047e+003;4.1782050781e+003;4.1996152344e+003;4.1816665039e+003;4.2133334961e+003;4.2091025391e+003;
1.5468750000e+000;4.2247436523e+003;4.1726923828e+003;4.1969228516e+003;4.2128203125e+003;4.1716665039e+003;4.2147436523e+003;4.2116665039e+003;4.2062822266e+003;4.2088461914e+003;4.1601284180e+003;4.1816665039e+003;4.1676923828e+003;4.1964101563e+003;4.1937177734e+003;
1.5546875000e+000;4.2451284180e+003;4.2011538086e+003;4.2156411133e+003;4.2362822266e+003;4.2158974609e+003;4.2406411133e+003;4.2321796875e+003;4.2258974609e+003;4.2296152344e+003;4.1833334961e+003;4.2089741211e+003;4.1967949219e+003;4.2166665039e+003;4.2184614258e+003;
1.5625000000e+000;4.2517949219e+003;4.2117949219e+003;4.2224360352e+003;4.2501284180e+003;4.2293588867e+003;4.2484614258e+003;4.2410258789e+003;4.2348715820e+003;4.2373076172e+003;4.1967949219e+003;4.2192309570e+003;4.2048715820e+003;4.2274360352e+003;4.2256411133e+003;
1.5703125000e+000;4.2010258789e+003;4.1528203125e+003;4.1744873047e+003;4.1965385742e+003;4.1465385742e+003;4.2061538086e+003;4.2001284180e+003;4.1866665039e+003;4.1847436523e+003;4.1483334961e+003;4.1723076172e+003;4.1571796875e+003;4.1806411133e+003;4.1730771484e+003;
1.5781250000e+000;4.1689741211e+003;4.1119228516e+003;4.1433334961e+003;4.1575639648e+003;4.0994873047e+003;4.1770512695e+003;4.1708974609e+003;4.1539741211e+003;4.1507690430e+003;4.1105126953e+003;4.1406411133e+003;4.1257690430e+003;4.1466665039e+003;4.1402563477e+003;
1.5859375000e+000;4.1682050781e+003;4.1071796875e+003;4.1424360352e+003;4.1624360352e+003;4.1524360352e+003;4.1684614258e+003;4.1607690430e+003;4.1494873047e+003;4.1393588867e+003;4.0974360352e+003;4.1403847656e+003;4.1247436523e+003;4.1360258789e+003;4.1400000000e+003;
1.5937500000e+000;4.1816665039e+003;4.1253847656e+003;4.1556411133e+003;4.1773076172e+003;4.1771796875e+003;4.1783334961e+003;4.1706411133e+003;4.1610258789e+003;4.1451284180e+003;4.1112822266e+003;4.1514101563e+003;4.1378203125e+003;4.1487177734e+003;4.1523076172e+003;
1.6015625000e+000;4.1997436523e+003;4.1473076172e+003;4.1697436523e+003;4.1757690430e+003;4.1519228516e+003;4.1938461914e+003;4.1888461914e+003;4.1876923828e+003;4.1666665039e+003;4.1388461914e+003;4.1588461914e+003;4.1575639648e+003;4.1741025391e+003;4.1639741211e+003;
1.6093750000e+000;4.1926923828e+003;4.1332050781e+003;4.1596152344e+003;4.1778203125e+003;4.1596152344e+003;4.1755126953e+003;4.1734614258e+003;4.1919228516e+003;4.1864101563e+003;4.1321796875e+003;4.1633334961e+003;4.1488461914e+003;4.1630771484e+003;4.1538461914e+003;
1.6171875000e+000;4.1998715820e+003;4.1414101563e+003;4.1660258789e+003;4.1883334961e+003;4.1693588867e+003;4.1762822266e+003;4.1755126953e+003;4.1980771484e+003;4.1925639648e+003;4.1385898438e+003;4.1737177734e+003;4.1544873047e+003;4.1682050781e+003;4.1592309570e+003;
1.6250000000e+000;4.2033334961e+003;4.1469228516e+003;4.1696152344e+003;4.1923076172e+003;4.1647436523e+003;4.1769228516e+003;4.1761538086e+003;4.2007690430e+003;4.1920512695e+003;4.1421796875e+003;4.1767949219e+003;4.1592309570e+003;4.1716665039e+003;4.1620512695e+003;
1.6328125000e+000;4.1985898438e+003;4.1443588867e+003;4.1657690430e+003;4.1873076172e+003;4.1473076172e+003;4.1742309570e+003;4.1719228516e+003;4.1957690430e+003;4.1828203125e+003;4.1373076172e+003;4.1682050781e+003;4.1576923828e+003;4.1680771484e+003;4.1582050781e+003;
1.6406250000e+000;4.2091025391e+003;4.1592309570e+003;4.1767949219e+003;4.1971796875e+003;4.1742309570e+003;4.1878203125e+003;4.1885898438e+003;4.1982050781e+003;4.1896152344e+003;4.1357690430e+003;4.1673076172e+003;4.1624360352e+003;4.1667949219e+003;4.1605126953e+003;
1.6484375000e+000;4.2069228516e+003;4.1551284180e+003;4.1770512695e+003;4.1929487305e+003;4.1750000000e+003;4.1865385742e+003;4.1871796875e+003;4.1941025391e+003;4.1902563477e+003;4.1323076172e+003;4.1633334961e+003;4.1582050781e+003;4.1624360352e+003;4.1569228516e+003;
1.6562500000e+000;4.2085898438e+003;4.1539741211e+003;4.1773076172e+003;4.1987177734e+003;4.1573076172e+003;4.2014101563e+003;4.1943588867e+003;4.1893588867e+003;4.1850000000e+003;4.1369228516e+003;4.1629487305e+003;4.1524360352e+003;4.1715385742e+003;4.1606411133e+003;
1.6640625000e+000;4.2197436523e+003;4.1680771484e+003;4.1878203125e+003;4.2325639648e+003;4.1889741211e+003;4.2088461914e+003;4.2057690430e+003;4.2008974609e+003;4.1944873047e+003;4.1496152344e+003;4.1835898438e+003;4.1655126953e+003;4.1796152344e+003;4.1688461914e+003;
1.6718750000e+000;4.2093588867e+003;4.1578203125e+003;4.1784614258e+003;4.2230771484e+003;4.1764101563e+003;4.1979487305e+003;4.1939741211e+003;4.1875639648e+003;4.1823076172e+003;4.1351284180e+003;4.1661538086e+003;4.1558974609e+003;4.1666665039e+003;4.1576923828e+003;
1.6796875000e+000;4.2093588867e+003;4.1532050781e+003;4.1714101563e+003;4.2212822266e+003;4.1589741211e+003;4.1938461914e+003;4.1864101563e+003;4.1708974609e+003;4.1538461914e+003;4.1167949219e+003;4.1473076172e+003;4.1483334961e+003;4.1647436523e+003;4.1544873047e+003;
1.6875000000e+000;4.2078203125e+003;4.1480771484e+003;4.1762822266e+003;4.2353847656e+003;4.1732050781e+003;4.1817949219e+003;4.1802563477e+003;4.1728203125e+003;4.1476923828e+003;4.1166665039e+003;4.1562822266e+003;4.1521796875e+003;4.1610258789e+003;4.1597436523e+003;
1.6953125000e+000;4.2123076172e+003;4.1566665039e+003;4.1814101563e+003;4.2358974609e+003;4.1720512695e+003;4.1891025391e+003;4.1870512695e+003;4.1837177734e+003;4.1597436523e+003;4.1283334961e+003;4.1648715820e+003;4.1596152344e+003;4.1688461914e+003;4.1657690430e+003;
1.7031250000e+000;4.2138461914e+003;4.1612822266e+003;4.1808974609e+003;4.2303847656e+003;4.1637177734e+003;4.1944873047e+003;4.1911538086e+003;4.1898715820e+003;4.1662822266e+003;4.1343588867e+003;4.1693588867e+003;4.1625639648e+003;4.1732050781e+003;4.1667949219e+003;
1.7109375000e+000;4.2071796875e+003;4.1548715820e+003;4.1719228516e+003;4.2146152344e+003;4.1552563477e+003;4.1850000000e+003;4.1847436523e+003;4.1864101563e+003;4.1617949219e+003;4.1261538086e+003;4.1679487305e+003;4.1580771484e+003;4.1671796875e+003;4.1594873047e+003;
1.7187500000e+000;4.2064101563e+003;4.1520512695e+003;4.1726923828e+003;4.2125639648e+003;4.1641025391e+003;4.1766665039e+003;4.1812822266e+003;4.1871796875e+003;4.1646152344e+003;4.1256411133e+003;4.1691025391e+003;4.1596152344e+003;4.1660258789e+003;4.1606411133e+003;
1.7265625000e+000;4.1896152344e+003;4.1269228516e+003;4.1561538086e+003;4.1976923828e+003;4.1430771484e+003;4.1510258789e+003;4.1610258789e+003;4.1796152344e+003;4.1665385742e+003;4.1189741211e+003;4.1410258789e+003;4.1512822266e+003;4.1493588867e+003;4.1489741211e+003;
1.7343750000e+000;4.1769228516e+003;4.1119228516e+003;4.1421796875e+003;4.1851284180e+003;4.1187177734e+003;4.1424360352e+003;4.1496152344e+003;4.1665385742e+003;4.1543588867e+003;4.1035898438e+003;4.1237177734e+003;4.1385898438e+003;4.1352563477e+003;4.1362822266e+003;
1.7421875000e+000;4.1601284180e+003;4.0929487305e+003;4.1252563477e+003;4.1579487305e+003;4.0989741211e+003;4.1320512695e+003;4.1325639648e+003;4.1441025391e+003;4.1334614258e+003;4.0784614258e+003;4.1119228516e+003;4.1171796875e+003;4.1143588867e+003;4.1192309570e+003;
1.7500000000e+000;4.1548715820e+003;4.0883332520e+003;4.1196152344e+003;4.1455126953e+003;4.1041025391e+003;4.1274360352e+003;4.1258974609e+003;4.1357690430e+003;4.1267949219e+003;4.0726923828e+003;4.1128203125e+003;4.1101284180e+003;4.1078203125e+003;4.1142309570e+003;
1.7578125000e+000;4.1529487305e+003;4.0885898438e+003;4.1151284180e+003;4.1403847656e+003;4.1133334961e+003;4.1251284180e+003;4.1226923828e+003;4.1308974609e+003;4.1237177734e+003;4.0726923828e+003;4.1134614258e+003;4.1061538086e+003;4.1058974609e+003;4.1116665039e+003;
1.7656250000e+000;4.1414101563e+003;4.0753845215e+003;4.0956411133e+003;4.1294873047e+003;4.0943588867e+003;4.1307690430e+003;4.1189741211e+003;4.1147436523e+003;4.1158974609e+003;4.0703845215e+003;4.0906411133e+003;4.0811538086e+003;4.0993588867e+003;4.0903845215e+003;
1.7734375000e+000;4.1443588867e+003;4.0769230957e+003;4.0996152344e+003;4.1267949219e+003;4.1047436523e+003;4.1293588867e+003;4.1210258789e+003;4.1123076172e+003;4.1150000000e+003;4.0678205566e+003;4.0982050781e+003;4.0846154785e+003;4.0991025391e+003;4.0942307129e+003;
1.7812500000e+000;4.2439741211e+003;4.1907690430e+003;4.1928203125e+003;4.2212822266e+003;4.2060258789e+003;4.2226923828e+003;4.2112822266e+003;4.2074360352e+003;4.2051284180e+003;4.1637177734e+003;4.1961538086e+003;4.1796152344e+003;4.1983334961e+003;4.1916665039e+003;
1.7890625000e+000;4.2667949219e+003;4.2158974609e+003;4.2169228516e+003;4.2394873047e+003;4.2246152344e+003;4.2483334961e+003;4.2346152344e+003;4.2334614258e+003;4.2292309570e+003;4.1896152344e+003;4.2166665039e+003;4.2039741211e+003;4.2223076172e+003;4.2147436523e+003;
1.7968750000e+000;4.2865385742e+003;4.2325639648e+003;4.2420512695e+003;4.2470512695e+003;4.2474360352e+003;4.2626923828e+003;4.2565385742e+003;4.2523076172e+003;4.2469228516e+003;4.2107690430e+003;4.2374360352e+003;4.2285898438e+003;4.2455126953e+003;4.2376923828e+003;
1.8046875000e+000;4.2924360352e+003;4.2456411133e+003;4.2602563477e+003;4.2767949219e+003;4.2482050781e+003;4.2528203125e+003;4.2489741211e+003;4.2635898438e+003;4.2426923828e+003;4.2185898438e+003;4.2508974609e+003;4.2456411133e+003;4.2569228516e+003;4.2541025391e+003;
1.8125000000e+000;4.2882050781e+003;4.2396152344e+003;4.2594873047e+003;4.2706411133e+003;4.2325639648e+003;4.2502563477e+003;4.2455126953e+003;4.2633334961e+003;4.2443588867e+003;4.2157690430e+003;4.2460258789e+003;4.2439741211e+003;4.2500000000e+003;4.2512822266e+003;
1.8203125000e+000;4.2915385742e+003;4.2400000000e+003;4.2634614258e+003;4.2637177734e+003;4.2324360352e+003;4.2521796875e+003;4.2553847656e+003;4.2728203125e+003;4.2621796875e+003;4.2225639648e+003;4.2512822266e+003;4.2501284180e+003;4.2500000000e+003;4.2552563477e+003;
1.8281250000e+000;4.2865385742e+003;4.2352563477e+003;4.2582050781e+003;4.2556411133e+003;4.2362822266e+003;4.2442309570e+003;4.2525639648e+003;4.2705126953e+003;4.2606411133e+003;4.2194873047e+003;4.2508974609e+003;4.2461538086e+003;4.2457690430e+003;4.2511538086e+003;
1.8359375000e+000;4.2392309570e+003;4.1870512695e+003;4.2155126953e+003;4.2060258789e+003;4.1984614258e+003;4.2032050781e+003;4.2057690430e+003;4.2262822266e+003;4.2157690430e+003;4.1783334961e+003;4.2175639648e+003;4.1980771484e+003;4.2066665039e+003;4.2084614258e+003;
1.8437500000e+000;4.2264101563e+003;4.1756411133e+003;4.2033334961e+003;4.1976923828e+003;4.1811538086e+003;4.1982050781e+003;4.1952563477e+003;4.2123076172e+003;4.2048715820e+003;4.1658974609e+003;4.2007690430e+003;4.1852563477e+003;4.1961538086e+003;4.1967949219e+003;
1.8515625000e+000;4.2276923828e+003;4.1839741211e+003;4.1946152344e+003;4.2152563477e+003;4.1920512695e+003;4.2069228516e+003;4.2012822266e+003;4.2012822266e+003;4.1982050781e+003;4.1567949219e+003;4.1756411133e+003;4.1789741211e+003;4.1924360352e+003;4.1951284180e+003;
1.8593750000e+000;4.2466665039e+003;4.2043588867e+003;4.2103847656e+003;4.2329487305e+003;4.2216665039e+003;4.2238461914e+003;4.2182050781e+003;4.2166665039e+003;4.2137177734e+003;4.1760258789e+003;4.1955126953e+003;4.1942309570e+003;4.2103847656e+003;4.2119228516e+003;
1.8671875000e+000;4.2687177734e+003;4.2285898438e+003;4.2347436523e+003;4.2474360352e+003;4.2448715820e+003;4.2511538086e+003;4.2403847656e+003;4.2384614258e+003;4.2361538086e+003;4.2041025391e+003;4.2302563477e+003;4.2176923828e+003;4.2346152344e+003;4.2323076172e+003;
1.8750000000e+000;4.2611538086e+003;4.2221796875e+003;4.2301284180e+003;4.2396152344e+003;4.2280771484e+003;4.2507690430e+003;4.2360258789e+003;4.2328203125e+003;4.2306411133e+003;4.1973076172e+003;4.2242309570e+003;4.2130771484e+003;4.2261538086e+003;4.2250000000e+003;
1.8828125000e+000;4.2484614258e+003;4.2116665039e+003;4.2188461914e+003;4.2314101563e+003;4.2101284180e+003;4.2438461914e+003;4.2266665039e+003;4.2229487305e+003;4.2200000000e+003;4.1841025391e+003;4.2082050781e+003;4.2019228516e+003;4.2110258789e+003;4.2126923828e+003;
1.8906250000e+000;4.2264101563e+003;4.1842309570e+003;4.2037177734e+003;4.2162822266e+003;4.2044873047e+003;4.2228203125e+003;4.2150000000e+003;4.2091025391e+003;4.2000000000e+003;4.1607690430e+003;4.1955126953e+003;4.1837177734e+003;4.1912822266e+003;4.1942309570e+003;
1.8984375000e+000;4.2369228516e+003;4.1912822266e+003;4.2123076172e+003;4.2198715820e+003;4.2103847656e+003;4.2334614258e+003;4.2251284180e+003;4.2155126953e+003;4.2080771484e+003;4.1687177734e+003;4.2100000000e+003;4.1925639648e+003;4.2002563477e+003;4.2029487305e+003;
1.9062500000e+000;4.2428203125e+003;4.2001284180e+003;4.2130771484e+003;4.2221796875e+003;4.2197436523e+003;4.2274360352e+003;4.2205126953e+003;4.2185898438e+003;4.2060258789e+003;4.1734614258e+003;4.2044873047e+003;4.1967949219e+003;4.2033334961e+003;4.2024360352e+003;
1.9140625000e+000;4.2900000000e+003;4.2447436523e+003;4.2582050781e+003;4.2575639648e+003;4.2489741211e+003;4.2457690430e+003;4.2484614258e+003;4.2606411133e+003;4.2387177734e+003;4.2132050781e+003;4.2461538086e+003;4.2462822266e+003;4.2467949219e+003;4.2484614258e+003;
1.9218750000e+000;4.2898715820e+003;4.2434614258e+003;4.2592309570e+003;4.2537177734e+003;4.2388461914e+003;4.2457690430e+003;4.2473076172e+003;4.2634614258e+003;4.2450000000e+003;4.2170512695e+003;4.2507690430e+003;4.2507690430e+003;4.2484614258e+003;4.2542309570e+003;
1.9296875000e+000;4.2262822266e+003;4.1729487305e+003;4.1988461914e+003;4.2064101563e+003;4.1730771484e+003;4.1884614258e+003;4.1905126953e+003;4.2106411133e+003;4.2028203125e+003;4.1634614258e+003;4.1887177734e+003;4.1903847656e+003;4.1930771484e+003;4.1978203125e+003;
1.9375000000e+000;4.2260258789e+003;4.1711538086e+003;4.1969228516e+003;4.2129487305e+003;4.1791025391e+003;4.1862822266e+003;4.1916665039e+003;4.2116665039e+003;4.2024360352e+003;4.1619228516e+003;4.1906411133e+003;4.1866665039e+003;4.1916665039e+003;4.1930771484e+003;
1.9453125000e+000;4.2435898438e+003;4.1950000000e+003;4.2123076172e+003;4.2332050781e+003;4.2029487305e+003;4.2102563477e+003;4.2152563477e+003;4.2298715820e+003;4.2191025391e+003;4.1779487305e+003;4.2167949219e+003;4.2020512695e+003;4.2046152344e+003;4.2074360352e+003;
1.9531250000e+000;4.2419228516e+003;4.1994873047e+003;4.2103847656e+003;4.2279487305e+003;4.2021796875e+003;4.2173076172e+003;4.2174360352e+003;4.2279487305e+003;4.2193588867e+003;4.1780771484e+003;4.2150000000e+003;4.2001284180e+003;4.2037177734e+003;4.2073076172e+003;
1.9609375000e+000;4.1514101563e+003;4.1105126953e+003;4.1170512695e+003;4.1297436523e+003;4.1221796875e+003;4.1442309570e+003;4.1328203125e+003;4.1356411133e+003;4.1334614258e+003;4.0935898438e+003;4.1107690430e+003;4.1087177734e+003;4.1223076172e+003;4.1203847656e+003;
1.9687500000e+000;4.1094873047e+003;4.0647436523e+003;4.0748718262e+003;4.0928205566e+003;4.0848718262e+003;4.1015385742e+003;4.0930769043e+003;4.0915385742e+003;4.0903845215e+003;4.0497436523e+003;4.0703845215e+003;4.0694870605e+003;4.0806411133e+003;4.0794870605e+003;
1.9765625000e+000;4.0802563477e+003;4.0335898438e+003;4.0457692871e+003;4.0689743652e+003;4.0574357910e+003;4.0698718262e+003;4.0652563477e+003;4.0600000000e+003;4.0601281738e+003;4.0176923828e+003;4.0458974609e+003;4.0415385742e+003;4.0506411133e+003;4.0507692871e+003;
1.9843750000e+000;4.0585898438e+003;4.0132050781e+003;4.0247436523e+003;4.0428205566e+003;4.0258974609e+003;4.0470512695e+003;4.0400000000e+003;4.0357692871e+003;4.0396154785e+003;3.9914101563e+003;4.0260256348e+003;4.0117949219e+003;4.0262819824e+003;4.0243588867e+003;
1.9921875000e+000;4.0401281738e+003;3.9925642090e+003;4.0057692871e+003;4.0153845215e+003;3.9970512695e+003;4.0311538086e+003;4.0176923828e+003;4.0162819824e+003;4.0203845215e+003;3.9696154785e+003;4.0000000000e+003;3.9873076172e+003;4.0041025391e+003;4.0012819824e+003;
2.0000000000e+000;4.0011538086e+003;3.9480769043e+003;3.9662819824e+003;3.9701281738e+003;3.9488461914e+003;3.9955129395e+003;3.9760256348e+003;3.9761538086e+003;3.9783332520e+003;3.9262819824e+003;3.9523076172e+003;3.9455129395e+003;3.9597436523e+003;3.9589743652e+003;
2.0078125000e+000;3.7247436523e+003;3.6492307129e+003;3.6773076172e+003;3.7062819824e+003;3.6653845215e+003;3.7066667480e+003;3.6993588867e+003;3.6869230957e+003;3.6850000000e+003;3.6282050781e+003;3.6655129395e+003;3.6687180176e+003;3.6729487305e+003;3.6874357910e+003;
2.0156250000e+000;3.6719230957e+003;3.5766667480e+003;3.6079487305e+003;3.6348718262e+003;3.5780769043e+003;3.6288461914e+003;3.6233332520e+003;3.6119230957e+003;3.6117949219e+003;3.5469230957e+003;3.5864101563e+003;3.5961538086e+003;3.6003845215e+003;3.6165385742e+003;
2.0234375000e+000;3.6428205566e+003;3.5364101563e+003;3.5783332520e+003;3.6062819824e+003;3.5412819824e+003;3.5893588867e+003;3.5860256348e+003;3.5820512695e+003;3.5808974609e+003;3.5150000000e+003;3.5588461914e+003;3.5655129395e+003;3.5629487305e+003;3.5834614258e+003;
2.0312500000e+000;3.4433332520e+003;3.3191025391e+003;3.3714101563e+003;3.4119230957e+003;3.3291025391e+003;3.3769230957e+003;3.3816667480e+003;3.3844870605e+003;3.3828205566e+003;3.3119230957e+003;3.3512819824e+003;3.3646154785e+003;3.3519230957e+003;3.3791025391e+003;
2.0390625000e+000;3.4147436523e+003;3.2732050781e+003;3.3234614258e+003;3.3797436523e+003;3.2680769043e+003;3.3451281738e+003;3.3505129395e+003;3.3421794434e+003;3.3461538086e+003;3.2621794434e+003;3.3030769043e+003;3.3197436523e+003;3.3100000000e+003;3.3361538086e+003;
2.0468750000e+000;3.4141025391e+003;3.2630769043e+003;3.3207692871e+003;3.3787180176e+003;3.2625642090e+003;3.3385898438e+003;3.3432050781e+003;3.3366667480e+003;3.3411538086e+003;3.2546154785e+003;3.3016667480e+003;3.3157692871e+003;3.3058974609e+003;3.3347436523e+003;
2.0546875000e+000;3.4130769043e+003;3.2614101563e+003;3.3073076172e+003;3.3719230957e+003;3.2707692871e+003;3.3367949219e+003;3.3405129395e+003;3.3235898438e+003;3.3280769043e+003;3.2450000000e+003;3.2852563477e+003;3.3043588867e+003;3.2996154785e+003;3.3278205566e+003;
2.0625000000e+000;3.4612819824e+003;3.3121794434e+003;3.3483332520e+003;3.4135898438e+003;3.3201281738e+003;3.3896154785e+003;3.3921794434e+003;3.3680769043e+003;3.3710256348e+003;3.2923076172e+003;3.3247436523e+003;3.3466667480e+003;3.3435898438e+003;3.3680769043e+003;
2.0703125000e+000;3.6110256348e+003;3.4556411133e+003;3.4912819824e+003;3.5452563477e+003;3.4711538086e+003;3.5375642090e+003;3.5361538086e+003;3.5111538086e+003;3.5126923828e+003;3.4425642090e+003;3.4667949219e+003;3.4820512695e+003;3.4834614258e+003;3.5007692871e+003;
2.0781250000e+000;3.6702563477e+003;3.5112819824e+003;3.5517949219e+003;3.6003845215e+003;3.5348718262e+003;3.5924357910e+003;3.5892307129e+003;3.5687180176e+003;3.5726923828e+003;3.5057692871e+003;3.5287180176e+003;3.5371794434e+003;3.5417949219e+003;3.5567949219e+003;
2.0859375000e+000;3.7025642090e+003;3.5447436523e+003;3.5864101563e+003;3.6356411133e+003;3.5738461914e+003;3.6226923828e+003;3.6180769043e+003;3.6011538086e+003;3.6087180176e+003;3.5441025391e+003;3.5662819824e+003;3.5700000000e+003;3.5771794434e+003;3.5910256348e+003;
2.0937500000e+000;3.7346154785e+003;3.5919230957e+003;3.6160256348e+003;3.6791025391e+003;3.6107692871e+003;3.6556411133e+003;3.6493588867e+003;3.6305129395e+003;3.6437180176e+003;3.5842307129e+003;3.6041025391e+003;3.6082050781e+003;3.6161538086e+003;3.6308974609e+003;
2.1015625000e+000;3.7639743652e+003;3.6278205566e+003;3.6406411133e+003;3.7066667480e+003;3.6341025391e+003;3.6838461914e+003;3.6765385742e+003;3.6553845215e+003;3.6685898438e+003;3.6147436523e+003;3.6328205566e+003;3.6373076172e+003;3.6441025391e+003;3.6598718262e+003;
2.1093750000e+000;3.7973076172e+003;3.6624357910e+003;3.6707692871e+003;3.7329487305e+003;3.6593588867e+003;3.7146154785e+003;3.7055129395e+003;3.6841025391e+003;3.6951281738e+003;3.6487180176e+003;3.6648718262e+003;3.6678205566e+003;3.6735898438e+003;3.6901281738e+003;
2.1171875000e+000;3.6367949219e+003;3.4869230957e+003;3.5194870605e+003;3.5696154785e+003;3.4980769043e+003;3.5421794434e+003;3.5302563477e+003;3.5089743652e+003;3.5138461914e+003;3.4674357910e+003;3.4939743652e+003;3.5108974609e+003;3.5089743652e+003;3.5264101563e+003;
2.1250000000e+000;3.5858974609e+003;3.4337180176e+003;3.4635898438e+003;3.5205129395e+003;3.4374357910e+003;3.4887180176e+003;3.4789743652e+003;3.4576923828e+003;3.4625642090e+003;3.4138461914e+003;3.4407692871e+003;3.4594870605e+003;3.4567949219e+003;3.4746154785e+003;
2.1328125000e+000;3.4737180176e+003;3.3119230957e+003;3.3500000000e+003;3.4087180176e+003;3.3075642090e+003;3.3648718262e+003;3.3632050781e+003;3.3489743652e+003;3.3484614258e+003;3.2997436523e+003;3.3237180176e+003;3.3467949219e+003;3.3352563477e+003;3.3611538086e+003;
2.1406250000e+000;3.4366667480e+003;3.2617949219e+003;3.3066667480e+003;3.3652563477e+003;3.2776923828e+003;3.3096154785e+003;3.3139743652e+003;3.3079487305e+003;3.3150000000e+003;3.2502563477e+003;3.2888461914e+003;3.3050000000e+003;3.2921794434e+003;3.3180769043e+003;
2.1484375000e+000;3.4414101563e+003;3.2588461914e+003;3.3066667480e+003;3.3652563477e+003;3.2741025391e+003;3.3101281738e+003;3.3164101563e+003;3.3111538086e+003;3.3192307129e+003;3.2491025391e+003;3.2942307129e+003;3.3073076172e+003;3.2924357910e+003;3.3201281738e+003;
2.1562500000e+000;3.4561538086e+003;3.2707692871e+003;3.3166667480e+003;3.3758974609e+003;3.2680769043e+003;3.3312819824e+003;3.3320512695e+003;3.3251281738e+003;3.3320512695e+003;3.2644870605e+003;3.2942307129e+003;3.3135898438e+003;3.3044870605e+003;3.3296154785e+003;
2.1640625000e+000;3.4280769043e+003;3.2476923828e+003;3.2892307129e+003;3.3534614258e+003;3.2471794434e+003;3.3088461914e+003;3.3071794434e+003;3.2983332520e+003;3.3056411133e+003;3.2398718262e+003;3.2608974609e+003;3.2858974609e+003;3.2791025391e+003;3.3012819824e+003;
2.1718750000e+000;3.3620512695e+003;3.1812819824e+003;3.2155129395e+003;3.2911538086e+003;3.1952563477e+003;3.2465385742e+003;3.2424357910e+003;3.2253845215e+003;3.2346154785e+003;3.1692307129e+003;3.1902563477e+003;3.2156411133e+003;3.2105129395e+003;3.2315385742e+003;
2.1796875000e+000;3.3580769043e+003;3.1712819824e+003;3.2055129395e+003;3.2798718262e+003;3.1883332520e+003;3.2412819824e+003;3.2342307129e+003;3.2139743652e+003;3.2241025391e+003;3.1597436523e+003;3.1846154785e+003;3.2042307129e+003;3.2019230957e+003;3.2237180176e+003;
2.1875000000e+000;3.3261538086e+003;3.1270512695e+003;3.1739743652e+003;3.2341025391e+003;3.1429487305e+003;3.2112819824e+003;3.1960256348e+003;3.1752563477e+003;3.1894870605e+003;3.1264101563e+003;3.1480769043e+003;3.1619230957e+003;3.1642307129e+003;3.1878205566e+003;
2.1953125000e+000;3.2755129395e+003;3.0764101563e+003;3.1226923828e+003;3.1908974609e+003;3.0974357910e+003;3.1641025391e+003;3.1497436523e+003;3.1270512695e+003;3.1426923828e+003;3.0771794434e+003;3.0974357910e+003;3.1137180176e+003;3.1141025391e+003;3.1383332520e+003;
2.2031250000e+000;3.2147436523e+003;3.0137180176e+003;3.0480769043e+003;3.1401281738e+003;3.0462819824e+003;3.1080769043e+003;3.0944870605e+003;3.0664101563e+003;3.0847436523e+003;3.0171794434e+003;3.0365385742e+003;3.0543588867e+003;3.0519230957e+003;3.0770512695e+003;
2.2109375000e+000;3.2193588867e+003;3.0132050781e+003;3.0455129395e+003;3.1420512695e+003;3.0479487305e+003;3.1121794434e+003;3.0966667480e+003;3.0674357910e+003;3.0860256348e+003;3.0211538086e+003;3.0375642090e+003;3.0564101563e+003;3.0537180176e+003;3.0787180176e+003;
2.2187500000e+000;3.2625642090e+003;3.0385898438e+003;3.0858974609e+003;3.1742307129e+003;3.0641025391e+003;3.1417949219e+003;3.1233332520e+003;3.0921794434e+003;3.1056411133e+003;3.0529487305e+003;3.0643588867e+003;3.0860256348e+003;3.0901281738e+003;3.1108974609e+003;
2.2265625000e+000;3.2707692871e+003;3.0470512695e+003;3.0944870605e+003;3.1823076172e+003;3.0685898438e+003;3.1421794434e+003;3.1275642090e+003;3.0952563477e+003;3.1066667480e+003;3.0575642090e+003;3.0744870605e+003;3.0932050781e+003;3.0989743652e+003;3.1196154785e+003;
2.2343750000e+000;3.2776923828e+003;3.0550000000e+003;3.0997436523e+003;3.1885898438e+003;3.0741025391e+003;3.1398718262e+003;3.1302563477e+003;3.0961538086e+003;3.1062819824e+003;3.0616667480e+003;3.0853845215e+003;3.1014101563e+003;3.1056411133e+003;3.1284614258e+003;
2.2421875000e+000;3.3550000000e+003;3.1271794434e+003;3.1702563477e+003;3.2388461914e+003;3.1379487305e+003;3.1791025391e+003;3.1860256348e+003;3.1716667480e+003;3.1824357910e+003;3.1388461914e+003;3.1517949219e+003;3.1842307129e+003;3.1773076172e+003;3.1943588867e+003;
2.2500000000e+000;3.3326923828e+003;3.1075642090e+003;3.1487180176e+003;3.2153845215e+003;3.1179487305e+003;3.1556411133e+003;3.1675642090e+003;3.1583332520e+003;3.1692307129e+003;3.1192307129e+003;3.1332050781e+003;3.1647436523e+003;3.1526923828e+003;3.1726923828e+003;
2.2578125000e+000;3.3321794434e+003;3.1001281738e+003;3.1432050781e+003;3.2105129395e+003;3.1091025391e+003;3.1475642090e+003;3.1630769043e+003;3.1578205566e+003;3.1634614258e+003;3.1120512695e+003;3.1329487305e+003;3.1537180176e+003;3.1364101563e+003;3.1623076172e+003;
2.2656250000e+000;3.3637180176e+003;3.1248718262e+003;3.1717949219e+003;3.2441025391e+003;3.1330769043e+003;3.1866667480e+003;3.1957692871e+003;3.1882050781e+003;3.1923076172e+003;3.1423076172e+003;3.1474357910e+003;3.1782050781e+003;3.1673076172e+003;3.1832050781e+003;
2.2734375000e+000;3.3767949219e+003;3.1406411133e+003;3.1828205566e+003;3.2592307129e+003;3.1512819824e+003;3.2058974609e+003;3.2119230957e+003;3.2000000000e+003;3.2073076172e+003;3.1573076172e+003;3.1593588867e+003;3.1893588867e+003;3.1823076172e+003;3.1983332520e+003;
2.2812500000e+000;3.4475642090e+003;3.2197436523e+003;3.2487180176e+003;3.3352563477e+003;3.2425642090e+003;3.2862819824e+003;3.2823076172e+003;3.2641025391e+003;3.2734614258e+003;3.2339743652e+003;3.2301281738e+003;3.2601281738e+003;3.2484614258e+003;3.2730769043e+003;
2.2890625000e+000;3.4529487305e+003;3.2276923828e+003;3.2546154785e+003;3.3369230957e+003;3.2498718262e+003;3.2929487305e+003;3.2869230957e+003;3.2673076172e+003;3.2760256348e+003;3.2398718262e+003;3.2343588867e+003;3.2656411133e+003;3.2514101563e+003;3.2762819824e+003;
2.2968750000e+000;3.4538461914e+003;3.2351281738e+003;3.2574357910e+003;3.3261538086e+003;3.2497436523e+003;3.2978205566e+003;3.2884614258e+003;3.2623076172e+003;3.2788461914e+003;3.2434614258e+003;3.2405129395e+003;3.2606411133e+003;3.2575642090e+003;3.2716667480e+003;
2.3046875000e+000;3.4647436523e+003;3.2480769043e+003;3.2691025391e+003;3.3370512695e+003;3.2601281738e+003;3.3106411133e+003;3.3002563477e+003;3.2689743652e+003;3.2914101563e+003;3.2547436523e+003;3.2567949219e+003;3.2693588867e+003;3.2735898438e+003;3.2823076172e+003;
2.3125000000e+000;3.5811538086e+003;3.3689743652e+003;3.3855129395e+003;3.4689743652e+003;3.3884614258e+003;3.4174357910e+003;3.4092307129e+003;3.3733332520e+003;3.3951281738e+003;3.3665385742e+003;3.3674357910e+003;3.3884614258e+003;3.3889743652e+003;3.4033332520e+003;
2.3203125000e+000;3.6293588867e+003;3.4237180176e+003;3.4344870605e+003;3.5160256348e+003;3.4453845215e+003;3.4617949219e+003;3.4535898438e+003;3.4226923828e+003;3.4394870605e+003;3.4212819824e+003;3.4129487305e+003;3.4384614258e+003;3.4365385742e+003;3.4520512695e+003;
2.3281250000e+000;3.6717949219e+003;3.4789743652e+003;3.4824357910e+003;3.5480769043e+003;3.4923076172e+003;3.5053845215e+003;3.4967949219e+003;3.4729487305e+003;3.4837180176e+003;3.4810256348e+003;3.4658974609e+003;3.4887180176e+003;3.4835898438e+003;3.4975642090e+003;
2.3359375000e+000;3.6742307129e+003;3.4823076172e+003;3.4887180176e+003;3.5478205566e+003;3.4891025391e+003;3.5093588867e+003;3.5024357910e+003;3.4778205566e+003;3.4884614258e+003;3.4860256348e+003;3.4761538086e+003;3.4957692871e+003;3.4878205566e+003;3.5021794434e+003;
2.3437500000e+000;3.7148718262e+003;3.5211538086e+003;3.5365385742e+003;3.5950000000e+003;3.5287180176e+003;3.5406411133e+003;3.5467949219e+003;3.5243588867e+003;3.5379487305e+003;3.5275642090e+003;3.5246154785e+003;3.5441025391e+003;3.5373076172e+003;3.5469230957e+003;
2.3515625000e+000;3.7262819824e+003;3.5348718262e+003;3.5496154785e+003;3.6061538086e+003;3.5441025391e+003;3.5492307129e+003;3.5584614258e+003;3.5410256348e+003;3.5533332520e+003;3.5439743652e+003;3.5352563477e+003;3.5588461914e+003;3.5557692871e+003;3.5610256348e+003;
2.3593750000e+000;3.7328205566e+003;3.5430769043e+003;3.5579487305e+003;3.6108974609e+003;3.5494870605e+003;3.5557692871e+003;3.5660256348e+003;3.5544870605e+003;3.5629487305e+003;3.5558974609e+003;3.5419230957e+003;3.5698718262e+003;3.5676923828e+003;3.5707692871e+003;
2.3671875000e+000;3.7392307129e+003;3.5501281738e+003;3.5660256348e+003;3.6170512695e+003;3.5506411133e+003;3.5648718262e+003;3.5752563477e+003;3.5693588867e+003;3.5725642090e+003;3.5673076172e+003;3.5512819824e+003;3.5811538086e+003;3.5757692871e+003;3.5800000000e+003;
2.3750000000e+000;3.7585898438e+003;3.5793588867e+003;3.5944870605e+003;3.6462819824e+003;3.5906411133e+003;3.5919230957e+003;3.6124357910e+003;3.6075642090e+003;3.6096154785e+003;3.5979487305e+003;3.5869230957e+003;3.6082050781e+003;3.5926923828e+003;3.6021794434e+003;
2.3828125000e+000;3.8992307129e+003;3.7351281738e+003;3.7450000000e+003;3.7853845215e+003;3.7498718262e+003;3.7543588867e+003;3.7647436523e+003;3.7587180176e+003;3.7576923828e+003;3.7569230957e+003;3.7314101563e+003;3.7582050781e+003;3.7429487305e+003;3.7519230957e+003;
2.3906250000e+000;3.8842307129e+003;3.7246154785e+003;3.7347436523e+003;3.7835898438e+003;3.7392307129e+003;3.7505129395e+003;3.7542307129e+003;3.7501281738e+003;3.7462819824e+003;3.7505129395e+003;3.7289743652e+003;3.7505129395e+003;3.7316667480e+003;3.7414101563e+003;
2.3984375000e+000;3.7889743652e+003;3.6380769043e+003;3.6461538086e+003;3.7047436523e+003;3.6566667480e+003;3.6716667480e+003;3.6656411133e+003;3.6557692871e+003;3.6593588867e+003;3.6621794434e+003;3.6462819824e+003;3.6596154785e+003;3.6480769043e+003;3.6488461914e+003;
2.4062500000e+000;3.6961538086e+003;3.5308974609e+003;3.5624357910e+003;3.6084614258e+003;3.5598718262e+003;3.5810256348e+003;3.5720512695e+003;3.5444870605e+003;3.5583332520e+003;3.5546154785e+003;3.5375642090e+003;3.5696154785e+003;3.5491025391e+003;3.5491025391e+003;
2.4140625000e+000;3.6848718262e+003;3.5216667480e+003;3.5514101563e+003;3.5991025391e+003;3.5528205566e+003;3.5689743652e+003;3.5607692871e+003;3.5329487305e+003;3.5455129395e+003;3.5457692871e+003;3.5300000000e+003;3.5600000000e+003;3.5375642090e+003;3.5380769043e+003;
2.4218750000e+000;3.5917949219e+003;3.4387180176e+003;3.4550000000e+003;3.5082050781e+003;3.4569230957e+003;3.4869230957e+003;3.4728205566e+003;3.4444870605e+003;3.4580769043e+003;3.4574357910e+003;3.4407692871e+003;3.4707692871e+003;3.4493588867e+003;3.4478205566e+003;
2.4296875000e+000;3.5267949219e+003;3.3737180176e+003;3.3880769043e+003;3.4428205566e+003;3.3843588867e+003;3.4275642090e+003;3.4108974609e+003;3.3787180176e+003;3.3935898438e+003;3.3867949219e+003;3.3703845215e+003;3.4066667480e+003;3.3829487305e+003;3.3825642090e+003;
2.4375000000e+000;3.4702563477e+003;3.3019230957e+003;3.3330769043e+003;3.3864101563e+003;3.3352563477e+003;3.3514101563e+003;3.3489743652e+003;3.3096154785e+003;3.3228205566e+003;3.3085898438e+003;3.3070512695e+003;3.3487180176e+003;3.3189743652e+003;3.3206411133e+003;
2.4453125000e+000;3.4573076172e+003;3.2862819824e+003;3.3238461914e+003;3.3774357910e+003;3.3258974609e+003;3.3294870605e+003;3.3319230957e+003;3.2976923828e+003;3.3093588867e+003;3.2970512695e+003;3.2997436523e+003;3.3392307129e+003;3.3074357910e+003;3.3098718262e+003;
2.4531250000e+000;3.3467949219e+003;3.1748718262e+003;3.2148718262e+003;3.2801281738e+003;3.1935898438e+003;3.2171794434e+003;3.2182050781e+003;3.1966667480e+003;3.2074357910e+003;3.1889743652e+003;3.1873076172e+003;3.2348718262e+003;3.1957692871e+003;3.2034614258e+003;
2.4609375000e+000;3.2847436523e+003;3.1097436523e+003;3.1485898438e+003;3.2221794434e+003;3.1144870605e+003;3.1570512695e+003;3.1558974609e+003;3.1388461914e+003;3.1492307129e+003;3.1234614258e+003;3.1164101563e+003;3.1698718262e+003;3.1292307129e+003;3.1384614258e+003;
2.4687500000e+000;3.2298718262e+003;3.0284614258e+003;3.0801281738e+003;3.1562819824e+003;3.0456411133e+003;3.0841025391e+003;3.0883332520e+003;3.0787180176e+003;3.0873076172e+003;3.0465385742e+003;3.0491025391e+003;3.0971794434e+003;3.0573076172e+003;3.0655129395e+003;
2.4765625000e+000;3.2300000000e+003;3.0228205566e+003;3.0764101563e+003;3.1487180176e+003;3.0455129395e+003;3.0762819824e+003;3.0816667480e+003;3.0729487305e+003;3.0830769043e+003;3.0416667480e+003;3.0505129395e+003;3.0934614258e+003;3.0541025391e+003;3.0621794434e+003;
2.4843750000e+000;3.2239743652e+003;3.0164101563e+003;3.0660256348e+003;3.1369230957e+003;3.0361538086e+003;3.0675642090e+003;3.0719230957e+003;3.0638461914e+003;3.0765385742e+003;3.0351281738e+003;3.0444870605e+003;3.0841025391e+003;3.0466667480e+003;3.0543588867e+003;
2.4921875000e+000;3.2097436523e+003;3.0053845215e+003;3.0478205566e+003;3.1208974609e+003;3.0166667480e+003;3.0561538086e+003;3.0593588867e+003;3.0511538086e+003;3.0650000000e+003;3.0234614258e+003;3.0276923828e+003;3.0671794434e+003;3.0320512695e+003;3.0388461914e+003;
2.5000000000e+000;3.1900000000e+003;2.9784614258e+003;3.0246154785e+003;3.1176923828e+003;3.0089743652e+003;3.0488461914e+003;3.0544870605e+003;3.0273076172e+003;3.0396154785e+003;2.9969230957e+003;2.9832050781e+003;3.0346154785e+003;3.0033332520e+003;3.0071794434e+003;
2.5078125000e+000;3.1982050781e+003;2.9870512695e+003;3.0292307129e+003;3.1242307129e+003;3.0256411133e+003;3.0571794434e+003;3.0587180176e+003;3.0302563477e+003;3.0462819824e+003;3.0043588867e+003;2.9905129395e+003;3.0389743652e+003;3.0093588867e+003;3.0124357910e+003;
2.5156250000e+000;3.1956411133e+003;2.9917949219e+003;3.0144870605e+003;3.1037180176e+003;3.0133332520e+003;3.0600000000e+003;3.0482050781e+003;3.0125642090e+003;3.0312819824e+003;2.9966667480e+003;2.9925642090e+003;3.0310256348e+003;2.9989743652e+003;3.0079487305e+003;
2.5234375000e+000;3.3826923828e+003;3.1814101563e+003;3.2020512695e+003;3.2970512695e+003;3.2052563477e+003;3.2310256348e+003;3.2279487305e+003;3.1811538086e+003;3.1973076172e+003;3.1775642090e+003;3.1784614258e+003;3.2152563477e+003;3.1873076172e+003;3.1933332520e+003;
2.5312500000e+000;3.4398718262e+003;3.2415385742e+003;3.2616667480e+003;3.3530769043e+003;3.2652563477e+003;3.2857692871e+003;3.2843588867e+003;3.2385898438e+003;3.2534614258e+003;3.2408974609e+003;3.2370512695e+003;3.2753845215e+003;3.2502563477e+003;3.2528205566e+003;
2.5390625000e+000;3.5135898438e+003;3.3184614258e+003;3.3406411133e+003;3.4208974609e+003;3.3394870605e+003;3.3623076172e+003;3.3616667480e+003;3.3255129395e+003;3.3357692871e+003;3.3407692871e+003;3.3202563477e+003;3.3614101563e+003;3.3366667480e+003;3.3344870605e+003;
2.5468750000e+000;3.5366667480e+003;3.3548718262e+003;3.3650000000e+003;3.4508974609e+003;3.3747436523e+003;3.3841025391e+003;3.3906411133e+003;3.3597436523e+003;3.3720512695e+003;3.3730769043e+003;3.3582050781e+003;3.3958974609e+003;3.3670512695e+003;3.3632050781e+003;
2.5546875000e+000;3.5470512695e+003;3.3701281738e+003;3.3757692871e+003;3.4537180176e+003;3.3865385742e+003;3.3901281738e+003;3.3992307129e+003;3.3706411133e+003;3.3839743652e+003;3.3830769043e+003;3.3721794434e+003;3.4062819824e+003;3.3821794434e+003;3.3747436523e+003;
2.5625000000e+000;3.5875642090e+003;3.4088461914e+003;3.4266667480e+003;3.4907692871e+003;3.4250000000e+003;3.4243588867e+003;3.4323076172e+003;3.4198718262e+003;3.4288461914e+003;3.4306411133e+003;3.4170512695e+003;3.4556411133e+003;3.4257692871e+003;3.4194870605e+003;
2.5703125000e+000;3.5907692871e+003;3.4112819824e+003;3.4333332520e+003;3.4967949219e+003;3.4283332520e+003;3.4287180176e+003;3.4346154785e+003;3.4273076172e+003;3.4352563477e+003;3.4355129395e+003;3.4198718262e+003;3.4623076172e+003;3.4256411133e+003;3.4246154785e+003;
2.5781250000e+000;3.5950000000e+003;3.4228205566e+003;3.4394870605e+003;3.4960256348e+003;3.4335898438e+003;3.4325642090e+003;3.4376923828e+003;3.4373076172e+003;3.4473076172e+003;3.4406411133e+003;3.4214101563e+003;3.4653845215e+003;3.4276923828e+003;3.4280769043e+003;
2.5859375000e+000;3.6093588867e+003;3.4419230957e+003;3.4551281738e+003;3.5083332520e+003;3.4483332520e+003;3.4484614258e+003;3.4543588867e+003;3.4534614258e+003;3.4651281738e+003;3.4565385742e+003;3.4337180176e+003;3.4782050781e+003;3.4443588867e+003;3.4405129395e+003;
2.5937500000e+000;3.8280769043e+003;3.6770512695e+003;3.6782050781e+003;3.7358974609e+003;3.6869230957e+003;3.6798718262e+003;3.6914101563e+003;3.6742307129e+003;3.6853845215e+003;3.6880769043e+003;3.6638461914e+003;3.6939743652e+003;3.6775642090e+003;3.6638461914e+003;
2.6015625000e+000;3.9410256348e+003;3.8011538086e+003;3.7908974609e+003;3.8479487305e+003;3.8123076172e+003;3.7957692871e+003;3.8076923828e+003;3.7907692871e+003;3.7996154785e+003;3.8117949219e+003;3.7902563477e+003;3.8076923828e+003;3.7992307129e+003;3.7825642090e+003;
2.6093750000e+000;4.0242307129e+003;3.8971794434e+003;3.8752563477e+003;3.9280769043e+003;3.9056411133e+003;3.8824357910e+003;3.8926923828e+003;3.8801281738e+003;3.8865385742e+003;3.9082050781e+003;3.8866667480e+003;3.8951281738e+003;3.8926923828e+003;3.8720512695e+003;
2.6171875000e+000;4.0579487305e+003;3.9426923828e+003;3.9129487305e+003;3.9597436523e+003;3.9456411133e+003;3.9214101563e+003;3.9288461914e+003;3.9210256348e+003;3.9251281738e+003;3.9541025391e+003;3.9283332520e+003;3.9364101563e+003;3.9361538086e+003;3.9115385742e+003;
2.6250000000e+000;4.0376923828e+003;3.9341025391e+003;3.9197436523e+003;3.9553845215e+003;3.9408974609e+003;3.9266667480e+003;3.9303845215e+003;3.9202563477e+003;3.9258974609e+003;3.9660256348e+003;3.9123076172e+003;3.9420512695e+003;3.9325642090e+003;3.9097436523e+003;
2.6328125000e+000;4.0765385742e+003;3.9901281738e+003;3.9670512695e+003;3.9957692871e+003;3.9944870605e+003;3.9741025391e+003;3.9787180176e+003;3.9680769043e+003;3.9774357910e+003;4.0174357910e+003;3.9757692871e+003;3.9934614258e+003;3.9857692871e+003;3.9588461914e+003;
2.6406250000e+000;4.0975639648e+003;4.0148718262e+003;3.9915385742e+003;4.0220512695e+003;4.0165385742e+003;3.9960256348e+003;3.9983332520e+003;3.9893588867e+003;3.9960256348e+003;4.0397436523e+003;3.9970512695e+003;4.0165385742e+003;4.0107692871e+003;3.9816667480e+003;
2.6484375000e+000;4.1478203125e+003;4.0641025391e+003;4.0466667480e+003;4.0764101563e+003;4.0655129395e+003;4.0437180176e+003;4.0447436523e+003;4.0366667480e+003;4.0370512695e+003;4.0920512695e+003;4.0470512695e+003;4.0723076172e+003;4.0641025391e+003;4.0380769043e+003;
2.6562500000e+000;4.1844873047e+003;4.1007690430e+003;4.0852563477e+003;4.1079487305e+003;4.1026923828e+003;4.0760256348e+003;4.0798718262e+003;4.0708974609e+003;4.0705129395e+003;4.1289741211e+003;4.0847436523e+003;4.1114101563e+003;4.1001284180e+003;4.0767949219e+003;
2.6640625000e+000;4.2461538086e+003;4.1810258789e+003;4.1639741211e+003;4.1669228516e+003;4.1805126953e+003;4.1346152344e+003;4.1482050781e+003;4.1408974609e+003;4.1443588867e+003;4.2025639648e+003;4.1597436523e+003;4.1894873047e+003;4.1700000000e+003;4.1467949219e+003;
2.6718750000e+000;4.2220512695e+003;4.1697436523e+003;4.1506411133e+003;4.1610258789e+003;4.1644873047e+003;4.1197436523e+003;4.1324360352e+003;4.1361538086e+003;4.1338461914e+003;4.1919228516e+003;4.1578203125e+003;4.1808974609e+003;4.1614101563e+003;4.1376923828e+003;
2.6796875000e+000;4.2342309570e+003;4.1825639648e+003;4.1641025391e+003;4.1684614258e+003;4.1735898438e+003;4.1335898438e+003;4.1474360352e+003;4.1565385742e+003;4.1533334961e+003;4.2091025391e+003;4.1764101563e+003;4.1952563477e+003;4.1748715820e+003;4.1503847656e+003;
2.6875000000e+000;4.2456411133e+003;4.2007690430e+003;4.1883334961e+003;4.1820512695e+003;4.1970512695e+003;4.1571796875e+003;4.1760258789e+003;4.1885898438e+003;4.1914101563e+003;4.2332050781e+003;4.1923076172e+003;4.2165385742e+003;4.1925639648e+003;4.1702563477e+003;
2.6953125000e+000;4.2502563477e+003;4.2112822266e+003;4.1960258789e+003;4.1974360352e+003;4.2078203125e+003;4.1702563477e+003;4.1871796875e+003;4.1965385742e+003;4.2014101563e+003;4.2415385742e+003;4.1960258789e+003;4.2221796875e+003;4.2032050781e+003;4.1803847656e+003;
2.7031250000e+000;4.2582050781e+003;4.2306411133e+003;4.2123076172e+003;4.2235898438e+003;4.2230771484e+003;4.1975639648e+003;4.2088461914e+003;4.2142309570e+003;4.2155126953e+003;4.2582050781e+003;4.2084614258e+003;4.2350000000e+003;4.2205126953e+003;4.1965385742e+003;
2.7109375000e+000;4.2539741211e+003;4.2305126953e+003;4.2144873047e+003;4.2241025391e+003;4.2255126953e+003;4.1996152344e+003;4.2101284180e+003;4.2158974609e+003;4.2130771484e+003;4.2580771484e+003;4.2100000000e+003;4.2356411133e+003;4.2178203125e+003;4.1939741211e+003;
2.7187500000e+000;4.2464101563e+003;4.2269228516e+003;4.2120512695e+003;4.2194873047e+003;4.2282050781e+003;4.1952563477e+003;4.2065385742e+003;4.2130771484e+003;4.2073076172e+003;4.2541025391e+003;4.2094873047e+003;4.2323076172e+003;4.2124360352e+003;4.1875639648e+003;
2.7265625000e+000;4.2333334961e+003;4.2223076172e+003;4.2001284180e+003;4.2106411133e+003;4.2335898438e+003;4.1911538086e+003;4.2024360352e+003;4.2044873047e+003;4.2010258789e+003;4.2485898438e+003;4.2105126953e+003;4.2229487305e+003;4.2116665039e+003;4.1807690430e+003;
2.7343750000e+000;4.2344873047e+003;4.2262822266e+003;4.2012822266e+003;4.2123076172e+003;4.2367949219e+003;4.2003847656e+003;4.2105126953e+003;4.2070512695e+003;4.2053847656e+003;4.2532050781e+003;4.2161538086e+003;4.2253847656e+003;4.2184614258e+003;4.1873076172e+003;
2.7421875000e+000;4.2484614258e+003;4.2407690430e+003;4.2173076172e+003;4.2237177734e+003;4.2483334961e+003;4.2210258789e+003;4.2298715820e+003;4.2221796875e+003;4.2200000000e+003;4.2693588867e+003;4.2311538086e+003;4.2406411133e+003;4.2330771484e+003;4.2050000000e+003;
2.7500000000e+000;4.4156411133e+003;4.4293588867e+003;4.3978203125e+003;4.4021796875e+003;4.4397436523e+003;4.3892309570e+003;4.3962822266e+003;4.3870512695e+003;4.3806411133e+003;4.4503847656e+003;4.4023076172e+003;4.4161538086e+003;4.4150000000e+003;4.3808974609e+003;
2.7578125000e+000;4.4715385742e+003;4.4961538086e+003;4.4560258789e+003;4.4624360352e+003;4.4983334961e+003;4.4487177734e+003;4.4546152344e+003;4.4397436523e+003;4.4378203125e+003;4.5101284180e+003;4.4648715820e+003;4.4753847656e+003;4.4787177734e+003;4.4437177734e+003;
2.7656250000e+000;4.6417949219e+003;4.6788461914e+003;4.6412822266e+003;4.6183334961e+003;4.6717949219e+003;4.6148715820e+003;4.6225639648e+003;4.6160258789e+003;4.6151284180e+003;4.6983334961e+003;4.6608974609e+003;4.6592309570e+003;4.6544873047e+003;4.6256411133e+003;
2.7734375000e+000;4.6900000000e+003;4.7352563477e+003;4.7114101563e+003;4.6776923828e+003;4.7408974609e+003;4.6567949219e+003;4.6776923828e+003;4.6810258789e+003;4.6720512695e+003;4.7600000000e+003;4.7202563477e+003;4.7315385742e+003;4.7178203125e+003;4.6894873047e+003;
2.7812500000e+000;4.7171796875e+003;4.7750000000e+003;4.7457690430e+003;4.7144873047e+003;4.7706411133e+003;4.6921796875e+003;4.7116665039e+003;4.7221796875e+003;4.7119228516e+003;4.8003847656e+003;4.7569228516e+003;4.7687177734e+003;4.7571796875e+003;4.7242309570e+003;
2.7890625000e+000;4.7121796875e+003;4.7914101563e+003;4.7567949219e+003;4.7200000000e+003;4.7679487305e+003;4.7035898438e+003;4.7258974609e+003;4.7556411133e+003;4.7389741211e+003;4.8193588867e+003;4.7816665039e+003;4.7807690430e+003;4.7701284180e+003;4.7346152344e+003;
2.7968750000e+000;4.7007690430e+003;4.7824360352e+003;4.7515385742e+003;4.7085898438e+003;4.7767949219e+003;4.7037177734e+003;4.7271796875e+003;4.7566665039e+003;4.7369228516e+003;4.8180771484e+003;4.7791025391e+003;4.7762822266e+003;4.7650000000e+003;4.7303847656e+003;
2.8046875000e+000;4.6705126953e+003;4.7594873047e+003;4.7261538086e+003;4.6824360352e+003;4.7550000000e+003;4.6887177734e+003;4.7055126953e+003;4.7370512695e+003;4.7175639648e+003;4.8029487305e+003;4.7553847656e+003;4.7555126953e+003;4.7452563477e+003;4.7082050781e+003;
2.8125000000e+000;4.5976923828e+003;4.6928203125e+003;4.6579487305e+003;4.6152563477e+003;4.6862822266e+003;4.6333334961e+003;4.6434614258e+003;4.6751284180e+003;4.6565385742e+003;4.7425639648e+003;4.6889741211e+003;4.6901284180e+003;4.6823076172e+003;4.6433334961e+003;
2.8203125000e+000;4.3873076172e+003;4.4815385742e+003;4.4529487305e+003;4.4147436523e+003;4.4715385742e+003;4.4464101563e+003;4.4511538086e+003;4.4715385742e+003;4.4565385742e+003;4.5287177734e+003;4.4784614258e+003;4.4775639648e+003;4.4746152344e+003;4.4370512695e+003;
2.8281250000e+000;4.2662822266e+003;4.3519228516e+003;4.3329487305e+003;4.3015385742e+003;4.3530771484e+003;4.3235898438e+003;4.3284614258e+003;4.3320512695e+003;4.3226923828e+003;4.3747436523e+003;4.3346152344e+003;4.3480771484e+003;4.3391025391e+003;4.3128203125e+003;
2.8359375000e+000;4.2778203125e+003;4.3688461914e+003;4.3429487305e+003;4.3146152344e+003;4.3717949219e+003;4.3332050781e+003;4.3376923828e+003;4.3428203125e+003;4.3342309570e+003;4.3884614258e+003;4.3483334961e+003;4.3605126953e+003;4.3556411133e+003;4.3278203125e+003;
2.8437500000e+000;4.2789741211e+003;4.3751284180e+003;4.3420512695e+003;4.3152563477e+003;4.3775639648e+003;4.3341025391e+003;4.3384614258e+003;4.3462822266e+003;4.3374360352e+003;4.3958974609e+003;4.3560258789e+003;4.3621796875e+003;4.3632050781e+003;4.3321796875e+003;
2.8515625000e+000;4.2160258789e+003;4.3062822266e+003;4.2766665039e+003;4.2475639648e+003;4.3024360352e+003;4.2773076172e+003;4.2798715820e+003;4.2835898438e+003;4.2758974609e+003;4.3341025391e+003;4.3005126953e+003;4.2975639648e+003;4.2985898438e+003;4.2685898438e+003;
2.8593750000e+000;4.1812822266e+003;4.2634614258e+003;4.2415385742e+003;4.2116665039e+003;4.2569228516e+003;4.2460258789e+003;4.2466665039e+003;4.2428203125e+003;4.2380771484e+003;4.2905126953e+003;4.2614101563e+003;4.2592309570e+003;4.2558974609e+003;4.2296152344e+003;
2.8671875000e+000;4.1698715820e+003;4.2460258789e+003;4.2296152344e+003;4.1998715820e+003;4.2393588867e+003;4.2342309570e+003;4.2332050781e+003;4.2233334961e+003;4.2217949219e+003;4.2689741211e+003;4.2411538086e+003;4.2423076172e+003;4.2365385742e+003;4.2124360352e+003;
2.8750000000e+000;4.1530771484e+003;4.2273076172e+003;4.2117949219e+003;4.1782050781e+003;4.2124360352e+003;4.1906411133e+003;4.1957690430e+003;4.1964101563e+003;4.1850000000e+003;4.2369228516e+003;4.2017949219e+003;4.2212822266e+003;4.2112822266e+003;4.1898715820e+003;
2.8828125000e+000;4.1725639648e+003;4.2453847656e+003;4.2289741211e+003;4.2003847656e+003;4.2294873047e+003;4.2074360352e+003;4.2158974609e+003;4.2153847656e+003;4.2050000000e+003;4.2535898438e+003;4.2260258789e+003;4.2397436523e+003;4.2316665039e+003;4.2106411133e+003;
2.8906250000e+000;4.1765385742e+003;4.2405126953e+003;4.2269228516e+003;4.1941025391e+003;4.2320512695e+003;4.1905126953e+003;4.2064101563e+003;4.2180771484e+003;4.2093588867e+003;4.2497436523e+003;4.2294873047e+003;4.2373076172e+003;4.2287177734e+003;4.2105126953e+003;
2.8984375000e+000;4.3806411133e+003;4.4501284180e+003;4.4303847656e+003;4.3830771484e+003;4.4316665039e+003;4.3912822266e+003;4.4079487305e+003;4.4180771484e+003;4.4106411133e+003;4.4553847656e+003;4.4180771484e+003;4.4361538086e+003;4.4276923828e+003;4.4097436523e+003;
2.9062500000e+000;4.5819228516e+003;4.6615385742e+003;4.6298715820e+003;4.5882050781e+003;4.6376923828e+003;4.5970512695e+003;4.6133334961e+003;4.6224360352e+003;4.6135898438e+003;4.6647436523e+003;4.6226923828e+003;4.6357690430e+003;4.6329487305e+003;4.6107690430e+003;
2.9140625000e+000;4.9942309570e+003;5.1016665039e+003;5.0538461914e+003;4.9975639648e+003;5.0848715820e+003;5.0189741211e+003;5.0294873047e+003;5.0530771484e+003;5.0366665039e+003;5.1150000000e+003;5.0651284180e+003;5.0570512695e+003;5.0684614258e+003;5.0280771484e+003;
2.9218750000e+000;4.8673076172e+003;5.0037177734e+003;4.9584614258e+003;4.8898715820e+003;4.9898715820e+003;4.9279487305e+003;4.9333334961e+003;4.9447436523e+003;4.9374360352e+003;5.0101284180e+003;4.9665385742e+003;4.9573076172e+003;4.9598715820e+003;4.9267949219e+003;
2.9296875000e+000;4.9105126953e+003;5.0607690430e+003;5.0034614258e+003;4.9442309570e+003;5.0401284180e+003;4.9823076172e+003;4.9888461914e+003;4.9933334961e+003;4.9869228516e+003;5.0592309570e+003;5.0135898438e+003;5.0055126953e+003;5.0105126953e+003;4.9765385742e+003;
2.9375000000e+000;4.9994873047e+003;5.1616665039e+003;5.0923076172e+003;5.0396152344e+003;5.1371796875e+003;5.0788461914e+003;5.0855126953e+003;5.0888461914e+003;5.0815385742e+003;5.1589741211e+003;5.1069228516e+003;5.0984614258e+003;5.1093588867e+003;5.0696152344e+003;
2.9453125000e+000;5.1093588867e+003;5.2833334961e+003;5.2135898438e+003;5.1508974609e+003;5.2687177734e+003;5.1988461914e+003;5.2028203125e+003;5.2121796875e+003;5.2052563477e+003;5.2943588867e+003;5.2334614258e+003;5.2207690430e+003;5.2391025391e+003;5.1889741211e+003;
2.9531250000e+000;5.0173076172e+003;5.1966665039e+003;5.1439741211e+003;5.0761538086e+003;5.1958974609e+003;5.1114101563e+003;5.1206411133e+003;5.1332050781e+003;5.1325639648e+003;5.2080771484e+003;5.1587177734e+003;5.1444873047e+003;5.1560258789e+003;5.1129487305e+003;
2.9609375000e+000;4.9770512695e+003;5.1584614258e+003;5.1043588867e+003;5.0471796875e+003;5.1489741211e+003;5.0757690430e+003;5.0851284180e+003;5.1005126953e+003;5.0987177734e+003;5.1701284180e+003;5.1197436523e+003;5.1073076172e+003;5.1192309570e+003;5.0748715820e+003;
2.9687500000e+000;4.9293588867e+003;5.1130771484e+003;5.0582050781e+003;5.0092309570e+003;5.0915385742e+003;5.0365385742e+003;5.0438461914e+003;5.0608974609e+003;5.0561538086e+003;5.1271796875e+003;5.0739741211e+003;5.0646152344e+003;5.0770512695e+003;5.0305126953e+003;
2.9765625000e+000;4.8453847656e+003;5.0338461914e+003;4.9833334961e+003;4.9275639648e+003;5.0011538086e+003;4.9630771484e+003;4.9651284180e+003;4.9785898438e+003;4.9716665039e+003;5.0460258789e+003;4.9950000000e+003;4.9914101563e+003;5.0006411133e+003;4.9580771484e+003;
2.9843750000e+000;4.8312822266e+003;5.0208974609e+003;4.9726923828e+003;4.9075639648e+003;4.9943588867e+003;4.9437177734e+003;4.9453847656e+003;4.9576923828e+003;4.9526923828e+003;5.0273076172e+003;4.9811538086e+003;4.9792309570e+003;4.9847436523e+003;4.9484614258e+003;
2.9921875000e+000;4.8273076172e+003;5.0170512695e+003;4.9697436523e+003;4.8988461914e+003;4.9988461914e+003;4.9307690430e+003;4.9339741211e+003;4.9482050781e+003;4.9456411133e+003;5.0179487305e+003;4.9756411133e+003;4.9757690430e+003;4.9770512695e+003;4.9470512695e+003;
3.0000000000e+000;4.7939741211e+003;4.9683334961e+003;4.9457690430e+003;4.8642309570e+003;4.9470512695e+003;4.9048715820e+003;4.9148715820e+003;4.9493588867e+003;4.9448715820e+003;4.9996152344e+003;4.9635898438e+003;4.9488461914e+003;4.9453847656e+003;4.9179487305e+003;
3.0078125000e+000;4.7334614258e+003;4.9075639648e+003;4.8900000000e+003;4.8100000000e+003;4.8920512695e+003;4.8484614258e+003;4.8573076172e+003;4.8987177734e+003;4.8948715820e+003;4.9467949219e+003;4.9080771484e+003;4.8975639648e+003;4.8914101563e+003;4.8639741211e+003;
3.0156250000e+000;4.6725639648e+003;4.8511538086e+003;4.8176923828e+003;4.7594873047e+003;4.8473076172e+003;4.7896152344e+003;4.8051284180e+003;4.8230771484e+003;4.8232050781e+003;4.8644873047e+003;4.8288461914e+003;4.8271796875e+003;4.8302563477e+003;4.8020512695e+003;
3.0234375000e+000;5.0292309570e+003;5.2287177734e+003;5.1802563477e+003;5.1069228516e+003;5.2033334961e+003;5.1435898438e+003;5.1583334961e+003;5.2001284180e+003;5.1919228516e+003;5.2517949219e+003;5.2007690430e+003;5.1917949219e+003;5.1962822266e+003;5.1642309570e+003;
3.0312500000e+000;4.8064101563e+003;5.0065385742e+003;4.9706411133e+003;4.8956411133e+003;4.9778203125e+003;4.9357690430e+003;4.9406411133e+003;4.9966665039e+003;4.9864101563e+003;5.0417949219e+003;4.9857690430e+003;4.9852563477e+003;4.9792309570e+003;4.9510258789e+003;
3.0390625000e+000;3.7655129395e+003;3.9250000000e+003;3.9266667480e+003;3.8878205566e+003;3.9252563477e+003;3.9455129395e+003;3.9325642090e+003;3.9451281738e+003;3.9425642090e+003;3.9458974609e+003;3.9241025391e+003;3.9265385742e+003;3.9207692871e+003;3.9037180176e+003;
3.0468750000e+000;3.6753845215e+003;3.7905129395e+003;3.7944870605e+003;3.7837180176e+003;3.8030769043e+003;3.8275642090e+003;3.8232050781e+003;3.8146154785e+003;3.8183332520e+003;3.7996154785e+003;3.7874357910e+003;3.7994870605e+003;3.7898718262e+003;3.7896154785e+003;
3.0546875000e+000;3.6129487305e+003;3.7180769043e+003;3.7251281738e+003;3.7180769043e+003;3.7174357910e+003;3.7592307129e+003;3.7505129395e+003;3.7458974609e+003;3.7516667480e+003;3.7305129395e+003;3.7158974609e+003;3.7334614258e+003;3.7175642090e+003;3.7242307129e+003;
3.0625000000e+000;3.5050000000e+003;3.5984614258e+003;3.6103845215e+003;3.6070512695e+003;3.5867949219e+003;3.6476923828e+003;3.6346154785e+003;3.6276923828e+003;3.6355129395e+003;3.6108974609e+003;3.5994870605e+003;3.6194870605e+003;3.6005129395e+003;3.6112819824e+003;
3.0703125000e+000;3.3860256348e+003;3.4515385742e+003;3.4693588867e+003;3.4751281738e+003;3.4473076172e+003;3.5050000000e+003;3.4966667480e+003;3.4747436523e+003;3.4824357910e+003;3.4532050781e+003;3.4552563477e+003;3.4757692871e+003;3.4623076172e+003;3.4684614258e+003;
3.0781250000e+000;3.4523076172e+003;3.4862819824e+003;3.5088461914e+003;3.5191025391e+003;3.4962819824e+003;3.5161538086e+003;3.5229487305e+003;3.5080769043e+003;3.5074357910e+003;3.4883332520e+003;3.4924357910e+003;3.5161538086e+003;3.4991025391e+003;3.5051281738e+003;
3.0859375000e+000;3.4083332520e+003;3.4298718262e+003;3.4617949219e+003;3.4706411133e+003;3.4323076172e+003;3.4661538086e+003;3.4706411133e+003;3.4569230957e+003;3.4538461914e+003;3.4356411133e+003;3.4439743652e+003;3.4679487305e+003;3.4442307129e+003;3.4582050781e+003;
3.0937500000e+000;3.3329487305e+003;3.3406411133e+003;3.3824357910e+003;3.3910256348e+003;3.3348718262e+003;3.3889743652e+003;3.3897436523e+003;3.3750000000e+003;3.3697436523e+003;3.3489743652e+003;3.3624357910e+003;3.3873076172e+003;3.3579487305e+003;3.3796154785e+003;
3.1015625000e+000;3.1719230957e+003;3.1571794434e+003;3.2060256348e+003;3.2261538086e+003;3.1508974609e+003;3.2235898438e+003;3.2248718262e+003;3.2091025391e+003;3.2015385742e+003;3.1667949219e+003;3.1826923828e+003;3.2129487305e+003;3.1793588867e+003;3.2051281738e+003;
3.1093750000e+000;3.1329487305e+003;3.1100000000e+003;3.1561538086e+003;3.1869230957e+003;3.1129487305e+003;3.1769230957e+003;3.1834614258e+003;3.1670512695e+003;3.1598718262e+003;3.1166667480e+003;3.1317949219e+003;3.1652563477e+003;3.1319230957e+003;3.1550000000e+003;
3.1171875000e+000;3.1491025391e+003;3.1183332520e+003;3.1602563477e+003;3.2006411133e+003;3.1316667480e+003;3.1812819824e+003;3.1929487305e+003;3.1743588867e+003;3.1688461914e+003;3.1197436523e+003;3.1350000000e+003;3.1700000000e+003;3.1388461914e+003;3.1582050781e+003;
3.1250000000e+000;3.1711538086e+003;3.1092307129e+003;3.1482050781e+003;3.1964101563e+003;3.1052563477e+003;3.1852563477e+003;3.1774357910e+003;3.1655129395e+003;3.1635898438e+003;3.1215385742e+003;3.1300000000e+003;3.1617949219e+003;3.1355129395e+003;3.1571794434e+003;
3.1328125000e+000;3.0637180176e+003;2.9905129395e+003;3.0369230957e+003;3.0930769043e+003;2.9969230957e+003;3.0779487305e+003;3.0710256348e+003;3.0535898438e+003;3.0496154785e+003;3.0038461914e+003;3.0167949219e+003;3.0507692871e+003;3.0185898438e+003;3.0448718262e+003;
3.1406250000e+000;3.1761538086e+003;3.0855129395e+003;3.1202563477e+003;3.1861538086e+003;3.1174357910e+003;3.1628205566e+003;3.1656411133e+003;3.1233332520e+003;3.1283332520e+003;3.0819230957e+003;3.0994870605e+003;3.1284614258e+003;3.1070512695e+003;3.1310256348e+003;
3.1484375000e+000;3.2706411133e+003;3.1806411133e+003;3.2084614258e+003;3.2575642090e+003;3.1842307129e+003;3.2539743652e+003;3.2425642090e+003;3.2133332520e+003;3.2226923828e+003;3.1876923828e+003;3.1856411133e+003;3.2166667480e+003;3.2001281738e+003;3.2256411133e+003;
3.1562500000e+000;3.2266667480e+003;3.1338461914e+003;3.1597436523e+003;3.2150000000e+003;3.1367949219e+003;3.2103845215e+003;3.1971794434e+003;3.1680769043e+003;3.1766667480e+003;3.1425642090e+003;3.1382050781e+003;3.1721794434e+003;3.1535898438e+003;3.1793588867e+003;
3.1640625000e+000;3.2246154785e+003;3.1169230957e+003;3.1433332520e+003;3.2094870605e+003;3.1429487305e+003;3.1892307129e+003;3.1855129395e+003;3.1425642090e+003;3.1556411133e+003;3.1167949219e+003;3.1258974609e+003;3.1562819824e+003;3.1357692871e+003;3.1585898438e+003;
3.1718750000e+000;3.2543588867e+003;3.1383332520e+003;3.1708974609e+003;3.2335898438e+003;3.1670512695e+003;3.2080769043e+003;3.2074357910e+003;3.1641025391e+003;3.1788461914e+003;3.1388461914e+003;3.1532050781e+003;3.1783332520e+003;3.1603845215e+003;3.1816667480e+003;
3.1796875000e+000;3.2573076172e+003;3.1317949219e+003;3.1650000000e+003;3.2300000000e+003;3.1467949219e+003;3.2008974609e+003;3.1997436523e+003;3.1611538086e+003;3.1725642090e+003;3.1365385742e+003;3.1485898438e+003;3.1720512695e+003;3.1592307129e+003;3.1748718262e+003;
3.1875000000e+000;3.2276923828e+003;3.1032050781e+003;3.1303845215e+003;3.1987180176e+003;3.1084614258e+003;3.1717949219e+003;3.1687180176e+003;3.1321794434e+003;3.1380769043e+003;3.1056411133e+003;3.1135898438e+003;3.1428205566e+003;3.1280769043e+003;3.1430769043e+003;
3.1953125000e+000;3.2056411133e+003;3.0800000000e+003;3.1033332520e+003;3.1638461914e+003;3.0889743652e+003;3.1264101563e+003;3.1319230957e+003;3.1006411133e+003;3.0951281738e+003;3.0670512695e+003;3.0774357910e+003;3.1198718262e+003;3.0932050781e+003;3.1110256348e+003;
3.2031250000e+000;3.2356411133e+003;3.1026923828e+003;3.1301281738e+003;3.1893588867e+003;3.1166667480e+003;3.1408974609e+003;3.1526923828e+003;3.1234614258e+003;3.1206411133e+003;3.0908974609e+003;3.1019230957e+003;3.1452563477e+003;3.1174357910e+003;3.1332050781e+003;
3.2109375000e+000;3.2760256348e+003;3.1266667480e+003;3.1612819824e+003;3.2303845215e+003;3.1358974609e+003;3.1662819824e+003;3.1830769043e+003;3.1557692871e+003;3.1605129395e+003;3.1244870605e+003;3.1365385742e+003;3.1796154785e+003;3.1448718262e+003;3.1628205566e+003;
3.2187500000e+000;3.2769230957e+003;3.1216667480e+003;3.1611538086e+003;3.2343588867e+003;3.1267949219e+003;3.1698718262e+003;3.1844870605e+003;3.1587180176e+003;3.1646154785e+003;3.1246154785e+003;3.1420512695e+003;3.1812819824e+003;3.1408974609e+003;3.1633332520e+003;
3.2265625000e+000;3.2944870605e+003;3.1379487305e+003;3.1805129395e+003;3.2455129395e+003;3.1492307129e+003;3.2037180176e+003;3.2123076172e+003;3.1883332520e+003;3.1910256348e+003;3.1451281738e+003;3.1694870605e+003;3.2043588867e+003;3.1635898438e+003;3.1788461914e+003;
3.2343750000e+000;3.3311538086e+003;3.1794870605e+003;3.2115385742e+003;3.2760256348e+003;3.1939743652e+003;3.2414101563e+003;3.2514101563e+003;3.2232050781e+003;3.2262819824e+003;3.1826923828e+003;3.1964101563e+003;3.2383332520e+003;3.2038461914e+003;3.2107692871e+003;
3.2421875000e+000;3.3752563477e+003;3.2294870605e+003;3.2487180176e+003;3.3153845215e+003;3.2469230957e+003;3.2841025391e+003;3.2955129395e+003;3.2641025391e+003;3.2687180176e+003;3.2288461914e+003;3.2300000000e+003;3.2779487305e+003;3.2492307129e+003;3.2503845215e+003;
3.2500000000e+000;3.1466667480e+003;2.9875642090e+003;3.0150000000e+003;3.0878205566e+003;3.0011538086e+003;3.0751281738e+003;3.0700000000e+003;3.0364101563e+003;3.0466667480e+003;2.9991025391e+003;3.0073076172e+003;3.0476923828e+003;3.0115385742e+003;3.0230769043e+003;
3.2578125000e+000;3.1294870605e+003;2.9689743652e+003;2.9905129395e+003;3.0726923828e+003;2.9783332520e+003;3.0570512695e+003;3.0525642090e+003;3.0121794434e+003;3.0264101563e+003;2.9776923828e+003;2.9847436523e+003;3.0237180176e+003;2.9929487305e+003;2.9997436523e+003;
3.2656250000e+000;3.2241025391e+003;3.0667949219e+003;3.0769230957e+003;3.1741025391e+003;3.0921794434e+003;3.1308974609e+003;3.1316667480e+003;3.0985898438e+003;3.1202563477e+003;3.0757692871e+003;3.0714101563e+003;3.1124357910e+003;3.0774357910e+003;3.0846154785e+003;
3.2734375000e+000;3.2251281738e+003;3.0666667480e+003;3.0785898438e+003;3.1728205566e+003;3.0926923828e+003;3.1288461914e+003;3.1292307129e+003;3.0992307129e+003;3.1206411133e+003;3.0764101563e+003;3.0732050781e+003;3.1151281738e+003;3.0765385742e+003;3.0875642090e+003;
3.2812500000e+000;3.2110256348e+003;3.0507692871e+003;3.0596154785e+003;3.1505129395e+003;3.0626923828e+003;3.1133332520e+003;3.1116667480e+003;3.0797436523e+003;3.0993588867e+003;3.0582050781e+003;3.0561538086e+003;3.0969230957e+003;3.0664101563e+003;3.0744870605e+003;
3.2890625000e+000;3.1838461914e+003;3.0088461914e+003;3.0317949219e+003;3.1246154785e+003;3.0282050781e+003;3.0615385742e+003;3.0669230957e+003;3.0379487305e+003;3.0465385742e+003;3.0123076172e+003;3.0160256348e+003;3.0679487305e+003;3.0321794434e+003;3.0391025391e+003;
3.2968750000e+000;3.1915385742e+003;3.0108974609e+003;3.0373076172e+003;3.1288461914e+003;3.0320512695e+003;3.0583332520e+003;3.0708974609e+003;3.0414101563e+003;3.0493588867e+003;3.0153845215e+003;3.0244870605e+003;3.0715385742e+003;3.0370512695e+003;3.0443588867e+003;
3.3046875000e+000;3.2267949219e+003;3.0344870605e+003;3.0666667480e+003;3.1460256348e+003;3.0480769043e+003;3.0766667480e+003;3.0969230957e+003;3.0684614258e+003;3.0779487305e+003;3.0460256348e+003;3.0582050781e+003;3.1007692871e+003;3.0670512695e+003;3.0758974609e+003;
3.3125000000e+000;3.2326923828e+003;3.0362819824e+003;3.0720512695e+003;3.1421794434e+003;3.0428205566e+003;3.0803845215e+003;3.0975642090e+003;3.0732050781e+003;3.0829487305e+003;3.0526923828e+003;3.0614101563e+003;3.1079487305e+003;3.0700000000e+003;3.0815385742e+003;
3.3203125000e+000;3.1919230957e+003;3.0014101563e+003;3.0321794434e+003;3.1060256348e+003;2.9946154785e+003;3.0515385742e+003;3.0583332520e+003;3.0479487305e+003;3.0561538086e+003;3.0255129395e+003;3.0194870605e+003;3.0764101563e+003;3.0258974609e+003;3.0441025391e+003;
3.3281250000e+000;3.1975642090e+003;3.0091025391e+003;3.0364101563e+003;3.1182050781e+003;3.0069230957e+003;3.0584614258e+003;3.0698718262e+003;3.0569230957e+003;3.0652563477e+003;3.0315385742e+003;3.0235898438e+003;3.0807692871e+003;3.0307692871e+003;3.0476923828e+003;
3.3359375000e+000;3.2789743652e+003;3.0885898438e+003;3.1146154785e+003;3.1967949219e+003;3.1003845215e+003;3.1379487305e+003;3.1588461914e+003;3.1337180176e+003;3.1452563477e+003;3.1082050781e+003;3.0979487305e+003;3.1515385742e+003;3.1084614258e+003;3.1197436523e+003;
3.3437500000e+000;3.3252563477e+003;3.1337180176e+003;3.1607692871e+003;3.2367949219e+003;3.1485898438e+003;3.1862819824e+003;3.2060256348e+003;3.1767949219e+003;3.1901281738e+003;3.1556411133e+003;3.1438461914e+003;3.1937180176e+003;3.1543588867e+003;3.1632050781e+003;
3.3515625000e+000;3.3503845215e+003;3.1660256348e+003;3.1865385742e+003;3.2576923828e+003;3.1776923828e+003;3.2216667480e+003;3.2273076172e+003;3.2007692871e+003;3.2146154785e+003;3.1916667480e+003;3.1780769043e+003;3.2211538086e+003;3.1848718262e+003;3.1946154785e+003;
3.3593750000e+000;3.3547436523e+003;3.1756411133e+003;3.1883332520e+003;3.2623076172e+003;3.1871794434e+003;3.2252563477e+003;3.2282050781e+003;3.2061538086e+003;3.2200000000e+003;3.1982050781e+003;3.1824357910e+003;3.2251281738e+003;3.1898718262e+003;3.1992307129e+003;
3.3671875000e+000;3.3657692871e+003;3.1914101563e+003;3.1970512695e+003;3.2724357910e+003;3.2030769043e+003;3.2362819824e+003;3.2374357910e+003;3.2189743652e+003;3.2337180176e+003;3.2121794434e+003;3.1929487305e+003;3.2347436523e+003;3.2012819824e+003;3.2082050781e+003;
3.3750000000e+000;3.3701281738e+003;3.1992307129e+003;3.2015385742e+003;3.2765385742e+003;3.2096154785e+003;3.2441025391e+003;3.2437180176e+003;3.2257692871e+003;3.2420512695e+003;3.2202563477e+003;3.1973076172e+003;3.2389743652e+003;3.2066667480e+003;3.2101281738e+003;
3.3828125000e+000;3.3419230957e+003;3.1815385742e+003;3.1785898438e+003;3.2666667480e+003;3.1864101563e+003;3.2251281738e+003;3.2235898438e+003;3.1916667480e+003;3.2120512695e+003;3.1932050781e+003;3.1711538086e+003;3.2133332520e+003;3.1824357910e+003;3.1856411133e+003;
3.3906250000e+000;3.3608974609e+003;3.1782050781e+003;3.1920512695e+003;3.2607692871e+003;3.1679487305e+003;3.2216667480e+003;3.2214101563e+003;3.1946154785e+003;3.2092307129e+003;3.2073076172e+003;3.1900000000e+003;3.2334614258e+003;3.2083332520e+003;3.2080769043e+003;
3.3984375000e+000;3.3560256348e+003;3.1752563477e+003;3.1866667480e+003;3.2623076172e+003;3.1644870605e+003;3.2114101563e+003;3.2147436523e+003;3.1858974609e+003;3.1993588867e+003;3.1998718262e+003;3.1878205566e+003;3.2308974609e+003;3.2025642090e+003;3.2056411133e+003;
3.4062500000e+000;3.3420512695e+003;3.1697436523e+003;3.1748718262e+003;3.2669230957e+003;3.1708974609e+003;3.1906411133e+003;3.1994870605e+003;3.1685898438e+003;3.1815385742e+003;3.1864101563e+003;3.1800000000e+003;3.2226923828e+003;3.1864101563e+003;3.1983332520e+003;
3.4140625000e+000;3.3529487305e+003;3.1738461914e+003;3.1857692871e+003;3.2469230957e+003;3.1661538086e+003;3.1908974609e+003;3.2046154785e+003;3.1833332520e+003;3.1928205566e+003;3.2050000000e+003;3.1857692871e+003;3.2341025391e+003;3.2075642090e+003;3.2119230957e+003;
3.4218750000e+000;3.3803845215e+003;3.1967949219e+003;3.2130769043e+003;3.2683332520e+003;3.1850000000e+003;3.2121794434e+003;3.2282050781e+003;3.2119230957e+003;3.2219230957e+003;3.2324357910e+003;3.2162819824e+003;3.2608974609e+003;3.2311538086e+003;3.2389743652e+003;
3.4296875000e+000;3.4339743652e+003;3.2485898438e+003;3.2667949219e+003;3.3285898438e+003;3.2384614258e+003;3.2591025391e+003;3.2764101563e+003;3.2648718262e+003;3.2847436523e+003;3.2871794434e+003;3.2798718262e+003;3.3126923828e+003;3.2784614258e+003;3.2901281738e+003;
