Time (s);AF3;F7;F3;FC5;T7;P7;O1;O2;P8;T8;FC6;F4;F8;AF4;Sampling Rate
0.0000000000e+000;4.3579487305e+003;4.3616665039e+003;4.3489741211e+003;4.3523076172e+003;4.3357690430e+003;4.3067949219e+003;4.3200000000e+003;4.3371796875e+003;4.3426923828e+003;4.3634614258e+003;4.3575639648e+003;4.3650000000e+003;4.3619228516e+003;4.3539741211e+003;128
7.8125000000e-003;4.3384614258e+003;4.3406411133e+003;4.3267949219e+003;4.3380771484e+003;4.3165385742e+003;4.2867949219e+003;4.2992309570e+003;4.3297436523e+003;4.3393588867e+003;4.3501284180e+003;4.3380771484e+003;4.3465385742e+003;4.3429487305e+003;4.3356411133e+003;
1.5625000000e-002;4.3732050781e+003;4.3729487305e+003;4.3615385742e+003;4.3637177734e+003;4.3498715820e+003;4.3185898438e+003;4.3335898438e+003;4.3651284180e+003;4.3741025391e+003;4.3801284180e+003;4.3692309570e+003;4.3767949219e+003;4.3747436523e+003;4.3661538086e+003;
2.3437500000e-002;4.3994873047e+003;4.4014101563e+003;4.3987177734e+003;4.3817949219e+003;4.3812822266e+003;4.3464101563e+003;4.3683334961e+003;4.4073076172e+003;4.4078203125e+003;4.4142309570e+003;4.3950000000e+003;4.4052563477e+003;4.3988461914e+003;4.3914101563e+003;
3.1250000000e-002;4.3446152344e+003;4.3514101563e+003;4.3453847656e+003;4.3367949219e+003;4.3321796875e+003;4.3043588867e+003;4.3257690430e+003;4.3587177734e+003;4.3562822266e+003;4.3611538086e+003;4.3438461914e+003;4.3537177734e+003;4.3458974609e+003;4.3394873047e+003;
3.9062500000e-002;4.3438461914e+003;4.3519228516e+003;4.3424360352e+003;4.3403847656e+003;4.3423076172e+003;4.3229487305e+003;4.3438461914e+003;4.3616665039e+003;4.3584614258e+003;4.3596152344e+003;4.3523076172e+003;4.3541025391e+003;4.3482050781e+003;4.3383334961e+003;
4.6875000000e-002;4.3721796875e+003;4.3757690430e+003;4.3715385742e+003;4.3644873047e+003;4.3738461914e+003;4.3562822266e+003;4.3769228516e+003;4.3896152344e+003;4.3875639648e+003;4.3893588867e+003;4.3828203125e+003;4.3819228516e+003;4.3761538086e+003;4.3643588867e+003;
5.4687500000e-002;4.4455126953e+003;4.4512822266e+003;4.4402563477e+003;4.4366665039e+003;4.4328203125e+003;4.4356411133e+003;4.4569228516e+003;4.4517949219e+003;4.4478203125e+003;4.4592309570e+003;4.4424360352e+003;4.4428203125e+003;4.4470512695e+003;4.4303847656e+003;
6.2500000000e-002;4.4885898438e+003;4.4996152344e+003;4.4779487305e+003;4.4794873047e+003;4.4748715820e+003;4.4764101563e+003;4.4976923828e+003;4.4917949219e+003;4.4861538086e+003;4.5016665039e+003;4.4837177734e+003;4.4829487305e+003;4.4928203125e+003;4.4742309570e+003;
7.0312500000e-002;4.5057690430e+003;4.5179487305e+003;4.4928203125e+003;4.4960258789e+003;4.5000000000e+003;4.4930771484e+003;4.5125639648e+003;4.5079487305e+003;4.5010258789e+003;4.5193588867e+003;4.5033334961e+003;4.5010258789e+003;4.5125639648e+003;4.4937177734e+003;
7.8125000000e-002;4.4906411133e+003;4.4985898438e+003;4.4787177734e+003;4.4796152344e+003;4.4979487305e+003;4.4798715820e+003;4.4962822266e+003;4.4908974609e+003;4.4825639648e+003;4.5028203125e+003;4.4917949219e+003;4.4882050781e+003;4.4967949219e+003;4.4793588867e+003;
8.5937500000e-002;4.5628203125e+003;4.5670512695e+003;4.5530771484e+003;4.5362822266e+003;4.5770512695e+003;4.5370512695e+003;4.5541025391e+003;4.5469228516e+003;4.5317949219e+003;4.5684614258e+003;4.5662822266e+003;4.5592309570e+003;4.5623076172e+003;4.5494873047e+003;
9.3750000000e-002;4.3034614258e+003;4.2965385742e+003;4.2973076172e+003;4.2908974609e+003;4.2966665039e+003;4.2628203125e+003;4.2760258789e+003;4.2905126953e+003;4.2715385742e+003;4.2975639648e+003;4.3043588867e+003;4.3052563477e+003;4.3024360352e+003;4.2967949219e+003;
1.0156250000e-001;4.2393588867e+003;4.2289741211e+003;4.2321796875e+003;4.2251284180e+003;4.2237177734e+003;4.2006411133e+003;4.2114101563e+003;4.2284614258e+003;4.2092309570e+003;4.2325639648e+003;4.2407690430e+003;4.2441025391e+003;4.2367949219e+003;4.2339741211e+003;
1.0937500000e-001;4.2017949219e+003;4.1933334961e+003;4.1960258789e+003;4.1882050781e+003;4.1776923828e+003;4.1693588867e+003;4.1817949219e+003;4.1985898438e+003;4.1787177734e+003;4.1925639648e+003;4.2017949219e+003;4.2108974609e+003;4.2006411133e+003;4.1998715820e+003;
1.1718750000e-001;4.3798715820e+003;4.3794873047e+003;4.3774360352e+003;4.3739741211e+003;4.3848715820e+003;4.3550000000e+003;4.3747436523e+003;4.4058974609e+003;4.3998715820e+003;4.3997436523e+003;4.3891025391e+003;4.3889741211e+003;4.3789741211e+003;4.3757690430e+003;
1.2500000000e-001;4.3712822266e+003;4.3743588867e+003;4.3673076172e+003;4.3647436523e+003;4.3775639648e+003;4.3573076172e+003;4.3776923828e+003;4.4039741211e+003;4.4000000000e+003;4.3973076172e+003;4.3800000000e+003;4.3783334961e+003;4.3711538086e+003;4.3646152344e+003;
1.3281250000e-001;4.4397436523e+003;4.4448715820e+003;4.4300000000e+003;4.4246152344e+003;4.4416665039e+003;4.4288461914e+003;4.4543588867e+003;4.4726923828e+003;4.4688461914e+003;4.4644873047e+003;4.4412822266e+003;4.4375639648e+003;4.4416665039e+003;4.4267949219e+003;
1.4062500000e-001;4.4661538086e+003;4.4691025391e+003;4.4569228516e+003;4.4501284180e+003;4.4673076172e+003;4.4534614258e+003;4.4778203125e+003;4.4976923828e+003;4.4928203125e+003;4.4896152344e+003;4.4662822266e+003;4.4641025391e+003;4.4692309570e+003;4.4537177734e+003;
1.4843750000e-001;4.3523076172e+003;4.3519228516e+003;4.3507690430e+003;4.3392309570e+003;4.3556411133e+003;4.3557690430e+003;4.3652563477e+003;4.3717949219e+003;4.3667949219e+003;4.3634614258e+003;4.3520512695e+003;4.3564101563e+003;4.3484614258e+003;4.3451284180e+003;
1.5625000000e-001;4.3506411133e+003;4.3510258789e+003;4.3471796875e+003;4.3312822266e+003;4.3424360352e+003;4.3529487305e+003;4.3619228516e+003;4.3629487305e+003;4.3591025391e+003;4.3583334961e+003;4.3478203125e+003;4.3516665039e+003;4.3415385742e+003;4.3424360352e+003;
1.6406250000e-001;4.3683334961e+003;4.3675639648e+003;4.3629487305e+003;4.3467949219e+003;4.3402563477e+003;4.3601284180e+003;4.3737177734e+003;4.3693588867e+003;4.3635898438e+003;4.3707690430e+003;4.3583334961e+003;4.3656411133e+003;4.3530771484e+003;4.3603847656e+003;
1.7187500000e-001;4.3802563477e+003;4.3779487305e+003;4.3762822266e+003;4.3656411133e+003;4.3612822266e+003;4.3669228516e+003;4.3842309570e+003;4.3733334961e+003;4.3657690430e+003;4.3760258789e+003;4.3667949219e+003;4.3765385742e+003;4.3648715820e+003;4.3729487305e+003;
1.7968750000e-001;4.5597436523e+003;4.5584614258e+003;4.5496152344e+003;4.5376923828e+003;4.5851284180e+003;4.5212822266e+003;4.5403847656e+003;4.5253847656e+003;4.5188461914e+003;4.5448715820e+003;4.5428203125e+003;4.5485898438e+003;4.5420512695e+003;4.5446152344e+003;
1.8750000000e-001;4.5973076172e+003;4.5974360352e+003;4.5837177734e+003;4.5637177734e+003;4.6139741211e+003;4.5523076172e+003;4.5682050781e+003;4.5588461914e+003;4.5520512695e+003;4.5816665039e+003;4.5780771484e+003;4.5844873047e+003;4.5751284180e+003;4.5767949219e+003;
1.9531250000e-001;4.6198715820e+003;4.6208974609e+003;4.6041025391e+003;4.5775639648e+003;4.6206411133e+003;4.5692309570e+003;4.5842309570e+003;4.5779487305e+003;4.5693588867e+003;4.6002563477e+003;4.5969228516e+003;4.6044873047e+003;4.5930771484e+003;4.5941025391e+003;
2.0312500000e-001;4.5394873047e+003;4.5350000000e+003;4.5282050781e+003;4.4960258789e+003;4.5191025391e+003;4.4753847656e+003;4.4956411133e+003;4.5202563477e+003;4.5033334961e+003;4.5326923828e+003;4.5317949219e+003;4.5347436523e+003;4.5243588867e+003;4.5280771484e+003;
2.1093750000e-001;4.4292309570e+003;4.4257690430e+003;4.4210258789e+003;4.3953847656e+003;4.4064101563e+003;4.3734614258e+003;4.3939741211e+003;4.4208974609e+003;4.4051284180e+003;4.4247436523e+003;4.4248715820e+003;4.4280771484e+003;4.4175639648e+003;4.4202563477e+003;
2.1875000000e-001;4.3584614258e+003;4.3584614258e+003;4.3526923828e+003;4.3429487305e+003;4.3407690430e+003;4.3178203125e+003;4.3398715820e+003;4.3653847656e+003;4.3516665039e+003;4.3547436523e+003;4.3537177734e+003;4.3585898438e+003;4.3584614258e+003;4.3543588867e+003;
2.2656250000e-001;4.4135898438e+003;4.4139741211e+003;4.4082050781e+003;4.3950000000e+003;4.3994873047e+003;4.3797436523e+003;4.4000000000e+003;4.4197436523e+003;4.4055126953e+003;4.4116665039e+003;4.4070512695e+003;4.4121796875e+003;4.4137177734e+003;4.4088461914e+003;
2.3437500000e-001;4.5935898438e+003;4.5970512695e+003;4.5882050781e+003;4.5621796875e+003;4.5869228516e+003;4.5670512695e+003;4.5870512695e+003;4.6000000000e+003;4.5870512695e+003;4.6029487305e+003;4.5880771484e+003;4.5853847656e+003;4.5902563477e+003;4.5826923828e+003;
2.4218750000e-001;4.6342309570e+003;4.6402563477e+003;4.6297436523e+003;4.6008974609e+003;4.6347436523e+003;4.6106411133e+003;4.6300000000e+003;4.6456411133e+003;4.6341025391e+003;4.6506411133e+003;4.6319228516e+003;4.6261538086e+003;4.6298715820e+003;4.6224360352e+003;
2.5000000000e-001;4.5414101563e+003;4.5593588867e+003;4.5353847656e+003;4.5197436523e+003;4.5476923828e+003;4.5334614258e+003;4.5500000000e+003;4.5546152344e+003;4.5443588867e+003;4.5497436523e+003;4.5373076172e+003;4.5374360352e+003;4.5341025391e+003;4.5294873047e+003;
2.5781250000e-001;4.7401284180e+003;4.7529487305e+003;4.7308974609e+003;4.7008974609e+003;4.7396152344e+003;4.7174360352e+003;4.7378203125e+003;4.7426923828e+003;4.7374360352e+003;4.7570512695e+003;4.7369228516e+003;4.7292309570e+003;4.7366665039e+003;4.7241025391e+003;
2.6562500000e-001;4.6974360352e+003;4.7060258789e+003;4.6933334961e+003;4.6584614258e+003;4.7075639648e+003;4.6770512695e+003;4.6939741211e+003;4.7008974609e+003;4.6979487305e+003;4.7170512695e+003;4.6982050781e+003;4.6892309570e+003;4.6958974609e+003;4.6844873047e+003;
2.7343750000e-001;4.6128203125e+003;4.6211538086e+003;4.6120512695e+003;4.5774360352e+003;4.6341025391e+003;4.5973076172e+003;4.6102563477e+003;4.6143588867e+003;4.6141025391e+003;4.6297436523e+003;4.6165385742e+003;4.6067949219e+003;4.6120512695e+003;4.6030771484e+003;
2.8125000000e-001;4.5041025391e+003;4.5197436523e+003;4.5016665039e+003;4.4784614258e+003;4.5273076172e+003;4.4942309570e+003;4.5012822266e+003;4.4983334961e+003;4.5023076172e+003;4.5173076172e+003;4.5119228516e+003;4.5008974609e+003;4.5057690430e+003;4.4998715820e+003;
2.8906250000e-001;4.4842309570e+003;4.5007690430e+003;4.4816665039e+003;4.4642309570e+003;4.4998715820e+003;4.4753847656e+003;4.4807690430e+003;4.4767949219e+003;4.4805126953e+003;4.4989741211e+003;4.4930771484e+003;4.4826923828e+003;4.4880771484e+003;4.4817949219e+003;
2.9687500000e-001;4.4776923828e+003;4.4916665039e+003;4.4767949219e+003;4.4610258789e+003;4.4869228516e+003;4.4680771484e+003;4.4730771484e+003;4.4673076172e+003;4.4700000000e+003;4.4910258789e+003;4.4846152344e+003;4.4758974609e+003;4.4825639648e+003;4.4750000000e+003;
3.0468750000e-001;4.6862822266e+003;4.6838461914e+003;4.6808974609e+003;4.6391025391e+003;4.6715385742e+003;4.6182050781e+003;4.6402563477e+003;4.6552563477e+003;4.6546152344e+003;4.6769228516e+003;4.6726923828e+003;4.6771796875e+003;4.6707690430e+003;4.6614101563e+003;
3.1250000000e-001;4.6632050781e+003;4.6567949219e+003;4.6564101563e+003;4.6141025391e+003;4.6398715820e+003;4.5914101563e+003;4.6153847656e+003;4.6329487305e+003;4.6296152344e+003;4.6492309570e+003;4.6491025391e+003;4.6520512695e+003;4.6444873047e+003;4.6353847656e+003;
3.2031250000e-001;4.6647436523e+003;4.6573076172e+003;4.6625639648e+003;4.6017949219e+003;4.6312822266e+003;4.5907690430e+003;4.6183334961e+003;4.6483334961e+003;4.6371796875e+003;4.6541025391e+003;4.6553847656e+003;4.6551284180e+003;4.6547436523e+003;4.6406411133e+003;
3.2812500000e-001;4.5657690430e+003;4.5638461914e+003;4.5669228516e+003;4.5334614258e+003;4.5573076172e+003;4.5110258789e+003;4.5412822266e+003;4.5712822266e+003;4.5607690430e+003;4.5679487305e+003;4.5733334961e+003;4.5655126953e+003;4.5621796875e+003;4.5498715820e+003;
3.3593750000e-001;4.5392309570e+003;4.5366665039e+003;4.5401284180e+003;4.5105126953e+003;4.5324360352e+003;4.4907690430e+003;4.5196152344e+003;4.5476923828e+003;4.5385898438e+003;4.5411538086e+003;4.5475639648e+003;4.5376923828e+003;4.5357690430e+003;4.5234614258e+003;
3.4375000000e-001;4.4555126953e+003;4.4524360352e+003;4.4608974609e+003;4.4189741211e+003;4.4320512695e+003;4.4355126953e+003;4.4558974609e+003;4.4643588867e+003;4.4578203125e+003;4.4480771484e+003;4.4505126953e+003;4.4476923828e+003;4.4473076172e+003;4.4352563477e+003;
3.5156250000e-001;4.5489741211e+003;4.5534614258e+003;4.5439741211e+003;4.5096152344e+003;4.5701284180e+003;4.5369228516e+003;4.5485898438e+003;4.5471796875e+003;4.5469228516e+003;4.5402563477e+003;4.5474360352e+003;4.5292309570e+003;4.5394873047e+003;4.5283334961e+003;
3.5937500000e-001;4.5437177734e+003;4.5511538086e+003;4.5408974609e+003;4.5121796875e+003;4.5719228516e+003;4.5356411133e+003;4.5448715820e+003;4.5405126953e+003;4.5434614258e+003;4.5370512695e+003;4.5442309570e+003;4.5258974609e+003;4.5355126953e+003;4.5257690430e+003;
3.6718750000e-001;4.5401284180e+003;4.5508974609e+003;4.5401284180e+003;4.5161538086e+003;4.5661538086e+003;4.5334614258e+003;4.5426923828e+003;4.5319228516e+003;4.5384614258e+003;4.5328203125e+003;4.5382050781e+003;4.5228203125e+003;4.5321796875e+003;4.5223076172e+003;
3.7500000000e-001;4.5961538086e+003;4.6067949219e+003;4.5935898438e+003;4.5708974609e+003;4.6057690430e+003;4.5783334961e+003;4.5871796875e+003;4.5706411133e+003;4.5830771484e+003;4.5848715820e+003;4.5838461914e+003;4.5717949219e+003;4.5874360352e+003;4.5703847656e+003;
3.8281250000e-001;4.5715385742e+003;4.5725639648e+003;4.5676923828e+003;4.5367949219e+003;4.5773076172e+003;4.5537177734e+003;4.5524360352e+003;4.5421796875e+003;4.5478203125e+003;4.5534614258e+003;4.5625639648e+003;4.5435898438e+003;4.5606411133e+003;4.5443588867e+003;
3.9062500000e-001;4.6041025391e+003;4.6102563477e+003;4.5994873047e+003;4.5685898438e+003;4.6123076172e+003;4.5821796875e+003;4.5857690430e+003;4.5793588867e+003;4.5805126953e+003;4.5855126953e+003;4.5975639648e+003;4.5775639648e+003;4.5943588867e+003;4.5782050781e+003;
3.9843750000e-001;4.6621796875e+003;4.6756411133e+003;4.6558974609e+003;4.6253847656e+003;4.6696152344e+003;4.6319228516e+003;4.6416665039e+003;4.6447436523e+003;4.6429487305e+003;4.6487177734e+003;4.6574360352e+003;4.6389741211e+003;4.6555126953e+003;4.6379487305e+003;
4.0625000000e-001;4.6517949219e+003;4.6706411133e+003;4.6473076172e+003;4.6179487305e+003;4.6511538086e+003;4.6191025391e+003;4.6284614258e+003;4.6506411133e+003;4.6462822266e+003;4.6516665039e+003;4.6484614258e+003;4.6391025391e+003;4.6460258789e+003;4.6325639648e+003;
4.1406250000e-001;4.5911538086e+003;4.6062822266e+003;4.5884614258e+003;4.5602563477e+003;4.5865385742e+003;4.5633334961e+003;4.5692309570e+003;4.5914101563e+003;4.5855126953e+003;4.5876923828e+003;4.5860258789e+003;4.5793588867e+003;4.5796152344e+003;4.5726923828e+003;
4.2187500000e-001;4.5664101563e+003;4.5766665039e+003;4.5638461914e+003;4.5361538086e+003;4.5594873047e+003;4.5375639648e+003;4.5433334961e+003;4.5629487305e+003;4.5558974609e+003;4.5548715820e+003;4.5594873047e+003;4.5516665039e+003;4.5484614258e+003;4.5473076172e+003;
4.2968750000e-001;4.4893588867e+003;4.4996152344e+003;4.4915385742e+003;4.4611538086e+003;4.4884614258e+003;4.4470512695e+003;4.4621796875e+003;4.4951284180e+003;4.4816665039e+003;4.4771796875e+003;4.4893588867e+003;4.4842309570e+003;4.4911538086e+003;4.4811538086e+003;
4.3750000000e-001;4.4544873047e+003;4.4669228516e+003;4.4580771484e+003;4.4321796875e+003;4.4438461914e+003;4.4183334961e+003;4.4353847656e+003;4.4624360352e+003;4.4520512695e+003;4.4425639648e+003;4.4539741211e+003;4.4519228516e+003;4.4574360352e+003;4.4484614258e+003;
4.4531250000e-001;4.4369228516e+003;4.4501284180e+003;4.4400000000e+003;4.4238461914e+003;4.4157690430e+003;4.4111538086e+003;4.4261538086e+003;4.4400000000e+003;4.4360258789e+003;4.4228203125e+003;4.4423076172e+003;4.4384614258e+003;4.4357690430e+003;4.4343588867e+003;
4.5312500000e-001;4.4900000000e+003;4.5001284180e+003;4.4912822266e+003;4.4674360352e+003;4.5008974609e+003;4.4676923828e+003;4.4792309570e+003;4.4820512695e+003;4.4747436523e+003;4.4705126953e+003;4.4862822266e+003;4.4864101563e+003;4.4850000000e+003;4.4865385742e+003;
4.6093750000e-001;4.4770512695e+003;4.4876923828e+003;4.4793588867e+003;4.4569228516e+003;4.4867949219e+003;4.4573076172e+003;4.4670512695e+003;4.4679487305e+003;4.4617949219e+003;4.4571796875e+003;4.4723076172e+003;4.4746152344e+003;4.4694873047e+003;4.4743588867e+003;
4.6875000000e-001;4.5020512695e+003;4.5007690430e+003;4.5055126953e+003;4.4710258789e+003;4.4916665039e+003;4.4791025391e+003;4.4842309570e+003;4.4755126953e+003;4.4769228516e+003;4.4684614258e+003;4.4971796875e+003;4.4900000000e+003;4.4867949219e+003;4.4873076172e+003;
4.7656250000e-001;4.5379487305e+003;4.5344873047e+003;4.5402563477e+003;4.5008974609e+003;4.5293588867e+003;4.5129487305e+003;4.5185898438e+003;4.5114101563e+003;4.5143588867e+003;4.5080771484e+003;4.5332050781e+003;4.5237177734e+003;4.5228203125e+003;4.5212822266e+003;
4.8437500000e-001;4.5373076172e+003;4.5415385742e+003;4.5376923828e+003;4.5060258789e+003;4.5383334961e+003;4.5166665039e+003;4.5260258789e+003;4.5239741211e+003;4.5234614258e+003;4.5178203125e+003;4.5332050781e+003;4.5225639648e+003;4.5232050781e+003;4.5237177734e+003;
4.9218750000e-001;4.5489741211e+003;4.5588461914e+003;4.5475639648e+003;4.5226923828e+003;4.5512822266e+003;4.5283334961e+003;4.5393588867e+003;4.5403847656e+003;4.5378203125e+003;4.5307690430e+003;4.5458974609e+003;4.5319228516e+003;4.5360258789e+003;4.5365385742e+003;
5.0000000000e-001;4.6289741211e+003;4.6371796875e+003;4.6287177734e+003;4.5957690430e+003;4.6187177734e+003;4.5967949219e+003;4.6034614258e+003;4.6314101563e+003;4.6250000000e+003;4.6219228516e+003;4.6306411133e+003;4.6156411133e+003;4.6226923828e+003;4.6176923828e+003;
5.0781250000e-001;4.5582050781e+003;4.5620512695e+003;4.5628203125e+003;4.5264101563e+003;4.5429487305e+003;4.5293588867e+003;4.5347436523e+003;4.5669228516e+003;4.5585898438e+003;4.5529487305e+003;4.5589741211e+003;4.5508974609e+003;4.5529487305e+003;4.5478203125e+003;
5.1562500000e-001;4.3650000000e+003;4.3634614258e+003;4.3733334961e+003;4.3425639648e+003;4.3470512695e+003;4.3439741211e+003;4.3503847656e+003;4.3811538086e+003;4.3678203125e+003;4.3526923828e+003;4.3661538086e+003;4.3643588867e+003;4.3608974609e+003;4.3575639648e+003;
5.2343750000e-001;4.2982050781e+003;4.2944873047e+003;4.3065385742e+003;4.2784614258e+003;4.2775639648e+003;4.2776923828e+003;4.2843588867e+003;4.3157690430e+003;4.3007690430e+003;4.2828203125e+003;4.3034614258e+003;4.2993588867e+003;4.2952563477e+003;4.2943588867e+003;
5.3125000000e-001;4.2023076172e+003;4.1906411133e+003;4.2194873047e+003;4.1935898438e+003;4.1560258789e+003;4.1811538086e+003;4.1915385742e+003;4.2152563477e+003;4.2021796875e+003;4.1806411133e+003;4.2103847656e+003;4.2071796875e+003;4.1997436523e+003;4.2079487305e+003;
5.3906250000e-001;4.2097436523e+003;4.1988461914e+003;4.2262822266e+003;4.2055126953e+003;4.1667949219e+003;4.1867949219e+003;4.1991025391e+003;4.2201284180e+003;4.2080771484e+003;4.1867949219e+003;4.2142309570e+003;4.2139741211e+003;4.2048715820e+003;4.2147436523e+003;
5.4687500000e-001;4.1991025391e+003;4.1903847656e+003;4.2139741211e+003;4.1988461914e+003;4.1693588867e+003;4.1775639648e+003;4.1885898438e+003;4.2111538086e+003;4.1984614258e+003;4.1774360352e+003;4.2029487305e+003;4.2052563477e+003;4.1921796875e+003;4.2042309570e+003;
5.5468750000e-001;4.1375639648e+003;4.1307690430e+003;4.1525639648e+003;4.1416665039e+003;4.1251284180e+003;4.1250000000e+003;4.1310258789e+003;4.1552563477e+003;4.1406411133e+003;4.1176923828e+003;4.1448715820e+003;4.1485898438e+003;4.1297436523e+003;4.1451284180e+003;
5.6250000000e-001;3.9588461914e+003;3.9546154785e+003;3.9835898438e+003;3.9811538086e+003;3.9588461914e+003;3.9919230957e+003;3.9839743652e+003;3.9733332520e+003;3.9639743652e+003;3.9288461914e+003;3.9689743652e+003;3.9687180176e+003;3.9583332520e+003;3.9751281738e+003;
5.7031250000e-001;4.0723076172e+003;4.0653845215e+003;4.0869230957e+003;4.0802563477e+003;4.0669230957e+003;4.0919230957e+003;4.0844870605e+003;4.0587180176e+003;4.0566667480e+003;4.0285898438e+003;4.0680769043e+003;4.0708974609e+003;4.0552563477e+003;4.0762819824e+003;
5.7812500000e-001;4.0988461914e+003;4.0921794434e+003;4.1108974609e+003;4.1044873047e+003;4.0935898438e+003;4.1152563477e+003;4.1083334961e+003;4.0842307129e+003;4.0847436523e+003;4.0582050781e+003;4.0967949219e+003;4.0984614258e+003;4.0834614258e+003;4.1035898438e+003;
5.8593750000e-001;4.1405126953e+003;4.1332050781e+003;4.1529487305e+003;4.1525639648e+003;4.1335898438e+003;4.1588461914e+003;4.1493588867e+003;4.1346152344e+003;4.1371796875e+003;4.1112822266e+003;4.1443588867e+003;4.1443588867e+003;4.1344873047e+003;4.1505126953e+003;
5.9375000000e-001;4.4398715820e+003;4.4365385742e+003;4.4424360352e+003;4.4229487305e+003;4.4379487305e+003;4.4267949219e+003;4.4332050781e+003;4.4538461914e+003;4.4467949219e+003;4.4292309570e+003;4.4500000000e+003;4.4374360352e+003;4.4403847656e+003;4.4453847656e+003;
6.0156250000e-001;4.4371796875e+003;4.4324360352e+003;4.4421796875e+003;4.4182050781e+003;4.4405126953e+003;4.4207690430e+003;4.4305126953e+003;4.4560258789e+003;4.4461538086e+003;4.4311538086e+003;4.4484614258e+003;4.4385898438e+003;4.4402563477e+003;4.4423076172e+003;
6.0937500000e-001;4.4385898438e+003;4.4292309570e+003;4.4479487305e+003;4.4203847656e+003;4.4230771484e+003;4.4121796875e+003;4.4270512695e+003;4.4526923828e+003;4.4394873047e+003;4.4283334961e+003;4.4458974609e+003;4.4388461914e+003;4.4443588867e+003;4.4414101563e+003;
6.1718750000e-001;4.4637177734e+003;4.4538461914e+003;4.4728203125e+003;4.4429487305e+003;4.4273076172e+003;4.4308974609e+003;4.4465385742e+003;4.4760258789e+003;4.4615385742e+003;4.4516665039e+003;4.4700000000e+003;4.4619228516e+003;4.4707690430e+003;4.4676923828e+003;
6.2500000000e-001;4.3657690430e+003;4.3647436523e+003;4.3725639648e+003;4.3450000000e+003;4.3470512695e+003;4.3438461914e+003;4.3573076172e+003;4.3846152344e+003;4.3675639648e+003;4.3533334961e+003;4.3734614258e+003;4.3687177734e+003;4.3717949219e+003;4.3760258789e+003;
6.3281250000e-001;4.3534614258e+003;4.3550000000e+003;4.3597436523e+003;4.3341025391e+003;4.3607690430e+003;4.3315385742e+003;4.3478203125e+003;4.3674360352e+003;4.3534614258e+003;4.3380771484e+003;4.3601284180e+003;4.3553847656e+003;4.3565385742e+003;4.3612822266e+003;
6.4062500000e-001;4.3852563477e+003;4.3850000000e+003;4.3955126953e+003;4.3710258789e+003;4.4047436523e+003;4.3567949219e+003;4.3770512695e+003;4.3928203125e+003;4.3857690430e+003;4.3702563477e+003;4.3946152344e+003;4.3879487305e+003;4.3887177734e+003;4.3911538086e+003;
6.4843750000e-001;4.3621796875e+003;4.3592309570e+003;4.3762822266e+003;4.3533334961e+003;4.3687177734e+003;4.3401284180e+003;4.3583334961e+003;4.3714101563e+003;4.3657690430e+003;4.3491025391e+003;4.3737177734e+003;4.3679487305e+003;4.3688461914e+003;4.3700000000e+003;
6.5625000000e-001;4.3369228516e+003;4.3384614258e+003;4.3510258789e+003;4.3262822266e+003;4.3371796875e+003;4.3392309570e+003;4.3483334961e+003;4.3380771484e+003;4.3357690430e+003;4.3239741211e+003;4.3430771484e+003;4.3380771484e+003;4.3432050781e+003;4.3439741211e+003;
6.6406250000e-001;4.3573076172e+003;4.3615385742e+003;4.3714101563e+003;4.3444873047e+003;4.3667949219e+003;4.3580771484e+003;4.3639741211e+003;4.3534614258e+003;4.3532050781e+003;4.3448715820e+003;4.3625639648e+003;4.3571796875e+003;4.3606411133e+003;4.3637177734e+003;
6.7187500000e-001;4.3428203125e+003;4.3478203125e+003;4.3593588867e+003;4.3335898438e+003;4.3567949219e+003;4.3433334961e+003;4.3452563477e+003;4.3369228516e+003;4.3388461914e+003;4.3296152344e+003;4.3494873047e+003;4.3448715820e+003;4.3447436523e+003;4.3503847656e+003;
6.7968750000e-001;4.2865385742e+003;4.2835898438e+003;4.2998715820e+003;4.2791025391e+003;4.2728203125e+003;4.2862822266e+003;4.2823076172e+003;4.2807690430e+003;4.2898715820e+003;4.2730771484e+003;4.2948715820e+003;4.2843588867e+003;4.2825639648e+003;4.2905126953e+003;
6.8750000000e-001;4.3582050781e+003;4.3543588867e+003;4.3678203125e+003;4.3437177734e+003;4.3439741211e+003;4.3502563477e+003;4.3476923828e+003;4.3480771484e+003;4.3534614258e+003;4.3406411133e+003;4.3588461914e+003;4.3485898438e+003;4.3487177734e+003;4.3575639648e+003;
6.9531250000e-001;4.6265385742e+003;4.6234614258e+003;4.6257690430e+003;4.5957690430e+003;4.6150000000e+003;4.5847436523e+003;4.5924360352e+003;4.6228203125e+003;4.6212822266e+003;4.6108974609e+003;4.6205126953e+003;4.6093588867e+003;4.6206411133e+003;4.6202563477e+003;
7.0312500000e-001;4.5455126953e+003;4.5482050781e+003;4.5476923828e+003;4.5191025391e+003;4.5038461914e+003;4.5107690430e+003;4.5291025391e+003;4.5526923828e+003;4.5437177734e+003;4.5311538086e+003;4.5442309570e+003;4.5311538086e+003;4.5337177734e+003;4.5380771484e+003;
7.1093750000e-001;4.6016665039e+003;4.6048715820e+003;4.5993588867e+003;4.5730771484e+003;4.5656411133e+003;4.5651284180e+003;4.5866665039e+003;4.6074360352e+003;4.5932050781e+003;4.5858974609e+003;4.5988461914e+003;4.5832050781e+003;4.5893588867e+003;4.5915385742e+003;
7.1875000000e-001;4.5821796875e+003;4.5828203125e+003;4.5862822266e+003;4.5452563477e+003;4.5908974609e+003;4.5389741211e+003;4.5589741211e+003;4.5910258789e+003;4.5717949219e+003;4.5691025391e+003;4.5719228516e+003;4.5700000000e+003;4.5696152344e+003;4.5747436523e+003;
7.2656250000e-001;4.4843588867e+003;4.4841025391e+003;4.4956411133e+003;4.4517949219e+003;4.4955126953e+003;4.4429487305e+003;4.4643588867e+003;4.4889741211e+003;4.4729487305e+003;4.4656411133e+003;4.4711538086e+003;4.4733334961e+003;4.4679487305e+003;4.4767949219e+003;
7.3437500000e-001;4.3725639648e+003;4.3688461914e+003;4.3882050781e+003;4.3574360352e+003;4.3682050781e+003;4.3364101563e+003;4.3602563477e+003;4.3683334961e+003;4.3574360352e+003;4.3461538086e+003;4.3607690430e+003;4.3616665039e+003;4.3534614258e+003;4.3646152344e+003;
7.4218750000e-001;4.3434614258e+003;4.3382050781e+003;4.3585898438e+003;4.3373076172e+003;4.3332050781e+003;4.3146152344e+003;4.3348715820e+003;4.3388461914e+003;4.3287177734e+003;4.3173076172e+003;4.3348715820e+003;4.3356411133e+003;4.3273076172e+003;4.3382050781e+003;
7.5000000000e-001;4.2207690430e+003;4.2170512695e+003;4.2412822266e+003;4.2146152344e+003;4.2162822266e+003;4.2161538086e+003;4.2180771484e+003;4.2093588867e+003;4.2092309570e+003;4.1948715820e+003;4.2180771484e+003;4.2238461914e+003;4.2125639648e+003;4.2243588867e+003;
7.5781250000e-001;4.1605126953e+003;4.1569228516e+003;4.1830771484e+003;4.1547436523e+003;4.1574360352e+003;4.1629487305e+003;4.1601284180e+003;4.1466665039e+003;4.1510258789e+003;4.1355126953e+003;4.1594873047e+003;4.1682050781e+003;4.1530771484e+003;4.1664101563e+003;
7.6562500000e-001;4.1112822266e+003;4.1078203125e+003;4.1330771484e+003;4.1125639648e+003;4.1088461914e+003;4.1210258789e+003;4.1152563477e+003;4.0960258789e+003;4.1033334961e+003;4.0852563477e+003;4.1105126953e+003;4.1226923828e+003;4.1035898438e+003;4.1185898438e+003;
7.7343750000e-001;4.1203847656e+003;4.1180771484e+003;4.1375639648e+003;4.1298715820e+003;4.1187177734e+003;4.1332050781e+003;4.1274360352e+003;4.1028203125e+003;4.1123076172e+003;4.0905129395e+003;4.1176923828e+003;4.1311538086e+003;4.1115385742e+003;4.1267949219e+003;
7.8125000000e-001;4.5178203125e+003;4.5126923828e+003;4.5203847656e+003;4.4911538086e+003;4.5065385742e+003;4.4919228516e+003;4.5007690430e+003;4.5097436523e+003;4.5255126953e+003;4.5064101563e+003;4.5153847656e+003;4.5155126953e+003;4.5074360352e+003;4.5191025391e+003;
7.8906250000e-001;4.4783334961e+003;4.4729487305e+003;4.4861538086e+003;4.4525639648e+003;4.4693588867e+003;4.4589741211e+003;4.4656411133e+003;4.4824360352e+003;4.4932050781e+003;4.4753847656e+003;4.4796152344e+003;4.4797436523e+003;4.4696152344e+003;4.4811538086e+003;
7.9687500000e-001;4.4673076172e+003;4.4683334961e+003;4.4775639648e+003;4.4506411133e+003;4.4629487305e+003;4.4556411133e+003;4.4626923828e+003;4.4834614258e+003;4.4825639648e+003;4.4650000000e+003;4.4675639648e+003;4.4664101563e+003;4.4573076172e+003;4.4670512695e+003;
8.0468750000e-001;4.5166665039e+003;4.5188461914e+003;4.5253847656e+003;4.4975639648e+003;4.5091025391e+003;4.4994873047e+003;4.5085898438e+003;4.5333334961e+003;4.5291025391e+003;4.5125639648e+003;4.5146152344e+003;4.5134614258e+003;4.5047436523e+003;4.5157690430e+003;
8.1250000000e-001;4.4694873047e+003;4.4679487305e+003;4.4825639648e+003;4.4476923828e+003;4.4685898438e+003;4.4503847656e+003;4.4620512695e+003;4.4783334961e+003;4.4692309570e+003;4.4532050781e+003;4.4607690430e+003;4.4655126953e+003;4.4550000000e+003;4.4689741211e+003;
8.2031250000e-001;4.4635898438e+003;4.4682050781e+003;4.4758974609e+003;4.4461538086e+003;4.4764101563e+003;4.4456411133e+003;4.4594873047e+003;4.4676923828e+003;4.4564101563e+003;4.4414101563e+003;4.4524360352e+003;4.4573076172e+003;4.4488461914e+003;4.4607690430e+003;
8.2812500000e-001;4.4841025391e+003;4.4994873047e+003;4.4967949219e+003;4.4751284180e+003;4.4829487305e+003;4.4698715820e+003;4.4858974609e+003;4.4888461914e+003;4.4728203125e+003;4.4642309570e+003;4.4767949219e+003;4.4850000000e+003;4.4673076172e+003;4.4861538086e+003;
8.3593750000e-001;4.3821796875e+003;4.3879487305e+003;4.3964101563e+003;4.3719228516e+003;4.3770512695e+003;4.3758974609e+003;4.3917949219e+003;4.3924360352e+003;4.3788461914e+003;4.3712822266e+003;4.3839741211e+003;4.3887177734e+003;4.3765385742e+003;4.3912822266e+003;
8.4375000000e-001;4.3779487305e+003;4.3844873047e+003;4.3920512695e+003;4.3666665039e+003;4.3929487305e+003;4.3715385742e+003;4.3871796875e+003;4.3910258789e+003;4.3783334961e+003;4.3703847656e+003;4.3812822266e+003;4.3853847656e+003;4.3757690430e+003;4.3891025391e+003;
8.5156250000e-001;4.3843588867e+003;4.3920512695e+003;4.3992309570e+003;4.3723076172e+003;4.4144873047e+003;4.3784614258e+003;4.3942309570e+003;4.3996152344e+003;4.3878203125e+003;4.3794873047e+003;4.3880771484e+003;4.3923076172e+003;4.3835898438e+003;4.3970512695e+003;
8.5937500000e-001;4.4107690430e+003;4.4174360352e+003;4.4255126953e+003;4.3996152344e+003;4.4360258789e+003;4.4056411133e+003;4.4226923828e+003;4.4279487305e+003;4.4202563477e+003;4.4161538086e+003;4.4179487305e+003;4.4203847656e+003;4.4126923828e+003;4.4244873047e+003;
8.6718750000e-001;4.2561538086e+003;4.2585898438e+003;4.2769228516e+003;4.2666665039e+003;4.2603847656e+003;4.2771796875e+003;4.2798715820e+003;4.2829487305e+003;4.2851284180e+003;4.2784614258e+003;4.2800000000e+003;4.2857690430e+003;4.2729487305e+003;4.2844873047e+003;
8.7500000000e-001;4.2288461914e+003;4.2298715820e+003;4.2505126953e+003;4.2398715820e+003;4.2338461914e+003;4.2571796875e+003;4.2573076172e+003;4.2519228516e+003;4.2548715820e+003;4.2424360352e+003;4.2517949219e+003;4.2592309570e+003;4.2447436523e+003;4.2598715820e+003;
8.8281250000e-001;4.2744873047e+003;4.2752563477e+003;4.2933334961e+003;4.2796152344e+003;4.2807690430e+003;4.2997436523e+003;4.3024360352e+003;4.2912822266e+003;4.2934614258e+003;4.2783334961e+003;4.2938461914e+003;4.3007690430e+003;4.2875639648e+003;4.3052563477e+003;
8.9062500000e-001;4.3573076172e+003;4.3598715820e+003;4.3721796875e+003;4.3558974609e+003;4.3642309570e+003;4.3729487305e+003;4.3801284180e+003;4.3711538086e+003;4.3721796875e+003;4.3582050781e+003;4.3742309570e+003;4.3793588867e+003;4.3692309570e+003;4.3867949219e+003;
8.9843750000e-001;4.3244873047e+003;4.3355126953e+003;4.3412822266e+003;4.3251284180e+003;4.3448715820e+003;4.3434614258e+003;4.3443588867e+003;4.3530771484e+003;4.3534614258e+003;4.3326923828e+003;4.3385898438e+003;4.3370512695e+003;4.3393588867e+003;4.3457690430e+003;
9.0625000000e-001;4.3337177734e+003;4.3561538086e+003;4.3482050781e+003;4.3444873047e+003;4.3635898438e+003;4.3624360352e+003;4.3560258789e+003;4.3716665039e+003;4.3689741211e+003;4.3491025391e+003;4.3464101563e+003;4.3410258789e+003;4.3496152344e+003;4.3594873047e+003;
9.1406250000e-001;4.2438461914e+003;4.2694873047e+003;4.2588461914e+003;4.2676923828e+003;4.2771796875e+003;4.2782050781e+003;4.2708974609e+003;4.2867949219e+003;4.2826923828e+003;4.2582050781e+003;4.2571796875e+003;4.2578203125e+003;4.2624360352e+003;4.2737177734e+003;
9.2187500000e-001;4.0897436523e+003;4.1100000000e+003;4.1074360352e+003;4.1216665039e+003;4.1207690430e+003;4.1306411133e+003;4.1224360352e+003;4.1353847656e+003;4.1266665039e+003;4.0932050781e+003;4.1026923828e+003;4.1103847656e+003;4.1055126953e+003;4.1220512695e+003;
9.2968750000e-001;4.0465385742e+003;4.0623076172e+003;4.0667949219e+003;4.0762819824e+003;4.0682050781e+003;4.0891025391e+003;4.0828205566e+003;4.0917949219e+003;4.0787180176e+003;4.0442307129e+003;4.0605129395e+003;4.0671794434e+003;4.0602563477e+003;4.0792307129e+003;
9.3750000000e-001;4.1356411133e+003;4.1508974609e+003;4.1541025391e+003;4.1570512695e+003;4.1224360352e+003;4.1558974609e+003;4.1705126953e+003;4.1785898438e+003;4.1582050781e+003;4.1315385742e+003;4.1575639648e+003;4.1579487305e+003;4.1608974609e+003;4.1723076172e+003;
9.4531250000e-001;4.1669228516e+003;4.1807690430e+003;4.1853847656e+003;4.1848715820e+003;4.1544873047e+003;4.1782050781e+003;4.1953847656e+003;4.2106411133e+003;4.1916665039e+003;4.1683334961e+003;4.1911538086e+003;4.1951284180e+003;4.1957690430e+003;4.2057690430e+003;
9.5312500000e-001;4.1192309570e+003;4.1221796875e+003;4.1419228516e+003;4.1320512695e+003;4.1330771484e+003;4.1335898438e+003;4.1452563477e+003;4.1516665039e+003;4.1410258789e+003;4.1221796875e+003;4.1401284180e+003;4.1517949219e+003;4.1424360352e+003;4.1578203125e+003;
9.6093750000e-001;4.1188461914e+003;4.1261538086e+003;4.1364101563e+003;4.1447436523e+003;4.1279487305e+003;4.1421796875e+003;4.1428203125e+003;4.1512822266e+003;4.1483334961e+003;4.1314101563e+003;4.1465385742e+003;4.1412822266e+003;4.1417949219e+003;4.1544873047e+003;
9.6875000000e-001;4.0647436523e+003;4.0710256348e+003;4.0826923828e+003;4.0962822266e+003;4.0742307129e+003;4.0942307129e+003;4.0896154785e+003;4.0966665039e+003;4.0978203125e+003;4.0760256348e+003;4.0914101563e+003;4.0843588867e+003;4.0866667480e+003;4.0983334961e+003;
9.7656250000e-001;4.0294870605e+003;4.0343588867e+003;4.0475642090e+003;4.0617949219e+003;4.0411538086e+003;4.0647436523e+003;4.0565385742e+003;4.0585898438e+003;4.0646154785e+003;4.0373076172e+003;4.0535898438e+003;4.0458974609e+003;4.0511538086e+003;4.0607692871e+003;
9.8437500000e-001;4.0260256348e+003;4.0335898438e+003;4.0438461914e+003;4.0503845215e+003;4.0375642090e+003;4.0733332520e+003;4.0594870605e+003;4.0596154785e+003;4.0714101563e+003;4.0385898438e+003;4.0532050781e+003;4.0475642090e+003;4.0538461914e+003;4.0598718262e+003;
9.9218750000e-001;3.8152563477e+003;3.8297436523e+003;3.8347436523e+003;3.8564101563e+003;3.8405129395e+003;3.8869230957e+003;3.8629487305e+003;3.8703845215e+003;3.8761538086e+003;3.8328205566e+003;3.8473076172e+003;3.8501281738e+003;3.8465385742e+003;3.8588461914e+003;
1.0000000000e+000;3.7765385742e+003;3.7885898438e+003;3.7964101563e+003;3.8223076172e+003;3.8091025391e+003;3.8465385742e+003;3.8239743652e+003;3.8307692871e+003;3.8335898438e+003;3.7865385742e+003;3.8030769043e+003;3.8060256348e+003;3.8041025391e+003;3.8166667480e+003;
1.0078125000e+000;3.7805129395e+003;3.7885898438e+003;3.8023076172e+003;3.8257692871e+003;3.8125642090e+003;3.8461538086e+003;3.8273076172e+003;3.8338461914e+003;3.8324357910e+003;3.7833332520e+003;3.8015385742e+003;3.8047436523e+003;3.8035898438e+003;3.8157692871e+003;
1.0156250000e+000;3.8007692871e+003;3.8051281738e+003;3.8258974609e+003;3.8429487305e+003;3.8234614258e+003;3.8646154785e+003;3.8497436523e+003;3.8552563477e+003;3.8484614258e+003;3.7982050781e+003;3.8182050781e+003;3.8225642090e+003;3.8191025391e+003;3.8317949219e+003;
1.0234375000e+000;3.7934614258e+003;3.7910256348e+003;3.8194870605e+003;3.8394870605e+003;3.8114101563e+003;3.8555129395e+003;3.8496154785e+003;3.8487180176e+003;3.8317949219e+003;3.7834614258e+003;3.8014101563e+003;3.8128205566e+003;3.8000000000e+003;3.8133332520e+003;
1.0312500000e+000;3.7394870605e+003;3.7348718262e+003;3.7675642090e+003;3.7910256348e+003;3.7642307129e+003;3.8020512695e+003;3.7961538086e+003;3.7930769043e+003;3.7752563477e+003;3.7275642090e+003;3.7452563477e+003;3.7583332520e+003;3.7447436523e+003;3.7576923828e+003;
1.0390625000e+000;3.6906411133e+003;3.6950000000e+003;3.7226923828e+003;3.7461538086e+003;3.6937180176e+003;3.7579487305e+003;3.7557692871e+003;3.7370512695e+003;3.7137180176e+003;3.6671794434e+003;3.6980769043e+003;3.7094870605e+003;3.6955129395e+003;3.7088461914e+003;
1.0468750000e+000;3.6684614258e+003;3.6637180176e+003;3.7006411133e+003;3.7155129395e+003;3.6833332520e+003;3.7303845215e+003;3.7233332520e+003;3.7058974609e+003;3.6882050781e+003;3.6467949219e+003;3.6734614258e+003;3.6979487305e+003;3.6764101563e+003;3.6930769043e+003;
1.0546875000e+000;3.6725642090e+003;3.6610256348e+003;3.7037180176e+003;3.7171794434e+003;3.7005129395e+003;3.7279487305e+003;3.7206411133e+003;3.6988461914e+003;3.6848718262e+003;3.6464101563e+003;3.6733332520e+003;3.7001281738e+003;3.6762819824e+003;3.6943588867e+003;
1.0625000000e+000;3.7848718262e+003;3.7770512695e+003;3.8087180176e+003;3.8141025391e+003;3.7871794434e+003;3.8220512695e+003;3.8125642090e+003;3.7998718262e+003;3.7955129395e+003;3.7678205566e+003;3.7928205566e+003;3.8115385742e+003;3.7912819824e+003;3.8060256348e+003;
1.0703125000e+000;3.7353845215e+003;3.7292307129e+003;3.7614101563e+003;3.7630769043e+003;3.7237180176e+003;3.7778205566e+003;3.7651281738e+003;3.7564101563e+003;3.7528205566e+003;3.7225642090e+003;3.7464101563e+003;3.7652563477e+003;3.7470512695e+003;3.7584614258e+003;
1.0781250000e+000;3.5600000000e+003;3.5510256348e+003;3.5892307129e+003;3.6033332520e+003;3.5764101563e+003;3.6169230957e+003;3.6019230957e+003;3.5932050781e+003;3.5934614258e+003;3.5461538086e+003;3.5697436523e+003;3.5880769043e+003;3.5724357910e+003;3.5829487305e+003;
1.0859375000e+000;3.5443588867e+003;3.5384614258e+003;3.5720512695e+003;3.5952563477e+003;3.5721794434e+003;3.6074357910e+003;3.5921794434e+003;3.5826923828e+003;3.5829487305e+003;3.5311538086e+003;3.5555129395e+003;3.5735898438e+003;3.5541025391e+003;3.5685898438e+003;
1.0937500000e+000;3.6865385742e+003;3.6867949219e+003;3.7084614258e+003;3.7312819824e+003;3.7117949219e+003;3.7529487305e+003;3.7408974609e+003;3.7246154785e+003;3.7216667480e+003;3.6655129395e+003;3.6946154785e+003;3.7112819824e+003;3.6930769043e+003;3.7065385742e+003;
1.1015625000e+000;3.8485898438e+003;3.8470512695e+003;3.8651281738e+003;3.8773076172e+003;3.8656411133e+003;3.9034614258e+003;3.8956411133e+003;3.8811538086e+003;3.8774357910e+003;3.8250000000e+003;3.8514101563e+003;3.8660256348e+003;3.8550000000e+003;3.8624357910e+003;
1.1093750000e+000;3.9882050781e+003;3.9826923828e+003;3.9998718262e+003;4.0020512695e+003;3.9975642090e+003;4.0284614258e+003;4.0244870605e+003;4.0174357910e+003;4.0141025391e+003;3.9685898438e+003;3.9870512695e+003;4.0001281738e+003;3.9944870605e+003;3.9974357910e+003;
1.1171875000e+000;4.1761538086e+003;4.1747436523e+003;4.1783334961e+003;4.1726923828e+003;4.1848715820e+003;4.1971796875e+003;4.2030771484e+003;4.1903847656e+003;4.1778203125e+003;4.1526923828e+003;4.1756411133e+003;4.1825639648e+003;4.1678203125e+003;4.1826923828e+003;
1.1250000000e+000;4.2701284180e+003;4.2656411133e+003;4.2698715820e+003;4.2541025391e+003;4.2623076172e+003;4.2775639648e+003;4.2843588867e+003;4.2765385742e+003;4.2628203125e+003;4.2453847656e+003;4.2638461914e+003;4.2729487305e+003;4.2606411133e+003;4.2729487305e+003;
1.1328125000e+000;4.3021796875e+003;4.3000000000e+003;4.2961538086e+003;4.2830771484e+003;4.2819228516e+003;4.2834614258e+003;4.3020512695e+003;4.2966665039e+003;4.2798715820e+003;4.2793588867e+003;4.2855126953e+003;4.2966665039e+003;4.2955126953e+003;4.2958974609e+003;
1.1406250000e+000;4.2970512695e+003;4.2947436523e+003;4.2910258789e+003;4.2775639648e+003;4.2917949219e+003;4.2756411133e+003;4.2960258789e+003;4.2924360352e+003;4.2737177734e+003;4.2771796875e+003;4.2843588867e+003;4.2923076172e+003;4.2908974609e+003;4.2900000000e+003;
1.1484375000e+000;4.2020512695e+003;4.1891025391e+003;4.2043588867e+003;4.1834614258e+003;4.2182050781e+003;4.1911538086e+003;4.2033334961e+003;4.2005126953e+003;4.1819228516e+003;4.1833334961e+003;4.1971796875e+003;4.2064101563e+003;4.1951284180e+003;4.1967949219e+003;
1.1562500000e+000;4.0853845215e+003;4.0825642090e+003;4.0905129395e+003;4.0773076172e+003;4.0735898438e+003;4.0864101563e+003;4.0914101563e+003;4.0824357910e+003;4.0802563477e+003;4.0657692871e+003;4.0864101563e+003;4.1007690430e+003;4.0864101563e+003;4.0923076172e+003;
1.1640625000e+000;4.0447436523e+003;4.0415385742e+003;4.0523076172e+003;4.0382050781e+003;4.0324357910e+003;4.0528205566e+003;4.0526923828e+003;4.0491025391e+003;4.0475642090e+003;4.0306411133e+003;4.0501281738e+003;4.0676923828e+003;4.0479487305e+003;4.0565385742e+003;
1.1718750000e+000;3.9337180176e+003;3.9220512695e+003;3.9476923828e+003;3.9279487305e+003;3.9288461914e+003;3.9543588867e+003;3.9497436523e+003;3.9480769043e+003;3.9493588867e+003;3.9234614258e+003;3.9434614258e+003;3.9652563477e+003;3.9376923828e+003;3.9475642090e+003;
1.1796875000e+000;3.9019230957e+003;3.8875642090e+003;3.9162819824e+003;3.8982050781e+003;3.8989743652e+003;3.9242307129e+003;3.9211538086e+003;3.9191025391e+003;3.9228205566e+003;3.8924357910e+003;3.9132050781e+003;3.9337180176e+003;3.9064101563e+003;3.9152563477e+003;
1.1875000000e+000;3.9637180176e+003;3.9532050781e+003;3.9729487305e+003;3.9728205566e+003;3.9648718262e+003;3.9884614258e+003;3.9903845215e+003;3.9812819824e+003;3.9851281738e+003;3.9493588867e+003;3.9756411133e+003;3.9847436523e+003;3.9708974609e+003;3.9757692871e+003;
1.1953125000e+000;4.0785898438e+003;4.0693588867e+003;4.0841025391e+003;4.0787180176e+003;4.0819230957e+003;4.0965385742e+003;4.1021796875e+003;4.0926923828e+003;4.0953845215e+003;4.0637180176e+003;4.0870512695e+003;4.0929487305e+003;4.0855129395e+003;4.0869230957e+003;
1.2031250000e+000;4.2044873047e+003;4.1962822266e+003;4.2062822266e+003;4.1906411133e+003;4.2076923828e+003;4.2129487305e+003;4.2226923828e+003;4.2182050781e+003;4.2194873047e+003;4.1941025391e+003;4.2094873047e+003;4.2148715820e+003;4.2106411133e+003;4.2087177734e+003;
1.2109375000e+000;4.2884614258e+003;4.2823076172e+003;4.2878203125e+003;4.2638461914e+003;4.2894873047e+003;4.2910258789e+003;4.3032050781e+003;4.3056411133e+003;4.3048715820e+003;4.2850000000e+003;4.2905126953e+003;4.2984614258e+003;4.2928203125e+003;4.2894873047e+003;
1.2187500000e+000;4.4612822266e+003;4.4657690430e+003;4.4535898438e+003;4.4308974609e+003;4.4646152344e+003;4.4517949219e+003;4.4667949219e+003;4.4735898438e+003;4.4629487305e+003;4.4608974609e+003;4.4570512695e+003;4.4624360352e+003;4.4583334961e+003;4.4519228516e+003;
1.2265625000e+000;4.4791025391e+003;4.4820512695e+003;4.4726923828e+003;4.4408974609e+003;4.4802563477e+003;4.4625639648e+003;4.4776923828e+003;4.4925639648e+003;4.4787177734e+003;4.4848715820e+003;4.4789741211e+003;4.4826923828e+003;4.4800000000e+003;4.4738461914e+003;
1.2343750000e+000;4.2237177734e+003;4.2217949219e+003;4.2285898438e+003;4.1943588867e+003;4.1941025391e+003;4.2162822266e+003;4.2262822266e+003;4.2365385742e+003;4.2144873047e+003;4.2147436523e+003;4.2185898438e+003;4.2323076172e+003;4.2189741211e+003;4.2239741211e+003;
1.2421875000e+000;4.2196152344e+003;4.2225639648e+003;4.2242309570e+003;4.2008974609e+003;4.2143588867e+003;4.2144873047e+003;4.2193588867e+003;4.2233334961e+003;4.2061538086e+003;4.2050000000e+003;4.2138461914e+003;4.2248715820e+003;4.2111538086e+003;4.2210258789e+003;
1.2500000000e+000;4.2330771484e+003;4.2352563477e+003;4.2375639648e+003;4.2114101563e+003;4.2416665039e+003;4.2266665039e+003;4.2326923828e+003;4.2329487305e+003;4.2173076172e+003;4.2192309570e+003;4.2267949219e+003;4.2373076172e+003;4.2256411133e+003;4.2364101563e+003;
1.2578125000e+000;4.4501284180e+003;4.4520512695e+003;4.4482050781e+003;4.4123076172e+003;4.4423076172e+003;4.4226923828e+003;4.4344873047e+003;4.4310258789e+003;4.4239741211e+003;4.4370512695e+003;4.4408974609e+003;4.4435898438e+003;4.4421796875e+003;4.4466665039e+003;
1.2656250000e+000;4.4306411133e+003;4.4255126953e+003;4.4337177734e+003;4.3874360352e+003;4.4114101563e+003;4.4038461914e+003;4.4088461914e+003;4.4073076172e+003;4.4135898438e+003;4.4244873047e+003;4.4265385742e+003;4.4391025391e+003;4.4271796875e+003;4.4314101563e+003;
1.2734375000e+000;4.4271796875e+003;4.4184614258e+003;4.4310258789e+003;4.3805126953e+003;4.4126923828e+003;4.3973076172e+003;4.4038461914e+003;4.4005126953e+003;4.4070512695e+003;4.4165385742e+003;4.4208974609e+003;4.4362822266e+003;4.4239741211e+003;4.4289741211e+003;
1.2812500000e+000;4.4330771484e+003;4.4220512695e+003;4.4388461914e+003;4.3834614258e+003;4.4203847656e+003;4.3993588867e+003;4.4084614258e+003;4.4074360352e+003;4.4112822266e+003;4.4208974609e+003;4.4253847656e+003;4.4424360352e+003;4.4293588867e+003;4.4361538086e+003;
1.2890625000e+000;4.3646152344e+003;4.3546152344e+003;4.3776923828e+003;4.3193588867e+003;4.3464101563e+003;4.3378203125e+003;4.3503847656e+003;4.3573076172e+003;4.3539741211e+003;4.3603847656e+003;4.3610258789e+003;4.3773076172e+003;4.3614101563e+003;4.3721796875e+003;
1.2968750000e+000;4.2989741211e+003;4.2969228516e+003;4.3047436523e+003;4.2683334961e+003;4.2788461914e+003;4.2957690430e+003;4.3044873047e+003;4.3179487305e+003;4.3135898438e+003;4.3084614258e+003;4.3023076172e+003;4.3053847656e+003;4.3033334961e+003;4.3075639648e+003;
1.3046875000e+000;4.2982050781e+003;4.2980771484e+003;4.3008974609e+003;4.2721796875e+003;4.2811538086e+003;4.2996152344e+003;4.3058974609e+003;4.3215385742e+003;4.3161538086e+003;4.3094873047e+003;4.3016665039e+003;4.3017949219e+003;4.3030771484e+003;4.3053847656e+003;
1.3125000000e+000;4.2789741211e+003;4.2823076172e+003;4.2812822266e+003;4.2579487305e+003;4.2696152344e+003;4.2838461914e+003;4.2893588867e+003;4.3051284180e+003;4.2976923828e+003;4.2902563477e+003;4.2832050781e+003;4.2812822266e+003;4.2832050781e+003;4.2856411133e+003;
1.3203125000e+000;4.2214101563e+003;4.2291025391e+003;4.2255126953e+003;4.2043588867e+003;4.2288461914e+003;4.2255126953e+003;4.2333334961e+003;4.2478203125e+003;4.2374360352e+003;4.2296152344e+003;4.2275639648e+003;4.2264101563e+003;4.2261538086e+003;4.2310258789e+003;
1.3281250000e+000;4.1964101563e+003;4.2010258789e+003;4.2011538086e+003;4.1789741211e+003;4.1998715820e+003;4.1980771484e+003;4.2057690430e+003;4.2198715820e+003;4.2101284180e+003;4.2016665039e+003;4.2016665039e+003;4.2048715820e+003;4.2024360352e+003;4.2079487305e+003;
1.3359375000e+000;4.1788461914e+003;4.1788461914e+003;4.1839741211e+003;4.1612822266e+003;4.1680771484e+003;4.1796152344e+003;4.1855126953e+003;4.1967949219e+003;4.1878203125e+003;4.1789741211e+003;4.1820512695e+003;4.1898715820e+003;4.1851284180e+003;4.1906411133e+003;
1.3437500000e+000;4.2867949219e+003;4.2930771484e+003;4.2820512695e+003;4.2626923828e+003;4.2837177734e+003;4.2643588867e+003;4.2724360352e+003;4.2820512695e+003;4.2667949219e+003;4.2778203125e+003;4.2903847656e+003;4.2861538086e+003;4.2871796875e+003;4.2873076172e+003;
1.3515625000e+000;4.2412822266e+003;4.2474360352e+003;4.2401284180e+003;4.2234614258e+003;4.2488461914e+003;4.2264101563e+003;4.2302563477e+003;4.2356411133e+003;4.2229487305e+003;4.2296152344e+003;4.2423076172e+003;4.2414101563e+003;4.2430771484e+003;4.2419228516e+003;
1.3593750000e+000;4.3770512695e+003;4.3867949219e+003;4.3769228516e+003;4.3538461914e+003;4.3670512695e+003;4.3642309570e+003;4.3685898438e+003;4.3658974609e+003;4.3603847656e+003;4.3715385742e+003;4.3776923828e+003;4.3712822266e+003;4.3839741211e+003;4.3735898438e+003;
1.3671875000e+000;4.4655126953e+003;4.4671796875e+003;4.4573076172e+003;4.4200000000e+003;4.4500000000e+003;4.4401284180e+003;4.4473076172e+003;4.4406411133e+003;4.4398715820e+003;4.4594873047e+003;4.4625639648e+003;4.4569228516e+003;4.4625639648e+003;4.4592309570e+003;
1.3750000000e+000;4.5385898438e+003;4.5406411133e+003;4.5261538086e+003;4.4871796875e+003;4.5241025391e+003;4.5057690430e+003;4.5141025391e+003;4.5038461914e+003;4.5070512695e+003;4.5276923828e+003;4.5323076172e+003;4.5276923828e+003;4.5334614258e+003;4.5294873047e+003;
1.3828125000e+000;4.6047436523e+003;4.6166665039e+003;4.5950000000e+003;4.5550000000e+003;4.5951284180e+003;4.5614101563e+003;4.5733334961e+003;4.5870512695e+003;4.5888461914e+003;4.6108974609e+003;4.6130771484e+003;4.6043588867e+003;4.6058974609e+003;4.6047436523e+003;
1.3906250000e+000;4.5352563477e+003;4.5451284180e+003;4.5265385742e+003;4.4884614258e+003;4.5256411133e+003;4.4980771484e+003;4.5098715820e+003;4.5262822266e+003;4.5239741211e+003;4.5403847656e+003;4.5447436523e+003;4.5352563477e+003;4.5361538086e+003;4.5376923828e+003;
1.3984375000e+000;4.5075639648e+003;4.5121796875e+003;4.4933334961e+003;4.4567949219e+003;4.4917949219e+003;4.4782050781e+003;4.4873076172e+003;4.5024360352e+003;4.4975639648e+003;4.5058974609e+003;4.5125639648e+003;4.5003847656e+003;4.5091025391e+003;4.5073076172e+003;
1.4062500000e+000;4.5223076172e+003;4.5285898438e+003;4.5085898438e+003;4.4717949219e+003;4.5089741211e+003;4.4970512695e+003;4.5034614258e+003;4.5215385742e+003;4.5170512695e+003;4.5253847656e+003;4.5289741211e+003;4.5153847656e+003;4.5274360352e+003;4.5220512695e+003;
1.4140625000e+000;4.3576923828e+003;4.3720512695e+003;4.3608974609e+003;4.3315385742e+003;4.3517949219e+003;4.3551284180e+003;4.3575639648e+003;4.3817949219e+003;4.3730771484e+003;4.3760258789e+003;4.3738461914e+003;4.3587177734e+003;4.3655126953e+003;4.3648715820e+003;
1.4218750000e+000;4.2901284180e+003;4.3055126953e+003;4.2957690430e+003;4.2701284180e+003;4.2744873047e+003;4.2928203125e+003;4.2962822266e+003;4.3194873047e+003;4.3080771484e+003;4.3066665039e+003;4.3082050781e+003;4.2943588867e+003;4.2974360352e+003;4.3005126953e+003;
1.4296875000e+000;4.2494873047e+003;4.2694873047e+003;4.2569228516e+003;4.2356411133e+003;4.2300000000e+003;4.2580771484e+003;4.2638461914e+003;4.2793588867e+003;4.2646152344e+003;4.2584614258e+003;4.2682050781e+003;4.2600000000e+003;4.2602563477e+003;4.2625639648e+003;
1.4375000000e+000;4.2887177734e+003;4.3108974609e+003;4.2966665039e+003;4.2750000000e+003;4.2835898438e+003;4.2934614258e+003;4.3019228516e+003;4.3120512695e+003;4.2982050781e+003;4.2941025391e+003;4.3050000000e+003;4.2966665039e+003;4.3005126953e+003;4.2983334961e+003;
1.4453125000e+000;4.3097436523e+003;4.3285898438e+003;4.3179487305e+003;4.2950000000e+003;4.3320512695e+003;4.3023076172e+003;4.3048715820e+003;4.3230771484e+003;4.3157690430e+003;4.3197436523e+003;4.3267949219e+003;4.3106411133e+003;4.3217949219e+003;4.3191025391e+003;
1.4531250000e+000;4.2001284180e+003;4.2171796875e+003;4.2093588867e+003;4.1908974609e+003;4.2138461914e+003;4.2037177734e+003;4.1976923828e+003;4.2148715820e+003;4.2082050781e+003;4.2085898438e+003;4.2191025391e+003;4.2056411133e+003;4.2126923828e+003;4.2144873047e+003;
1.4609375000e+000;4.1128203125e+003;4.1296152344e+003;4.1220512695e+003;4.1092309570e+003;4.1178203125e+003;4.1274360352e+003;4.1167949219e+003;4.1238461914e+003;4.1180771484e+003;4.1150000000e+003;4.1305126953e+003;4.1198715820e+003;4.1246152344e+003;4.1287177734e+003;
1.4687500000e+000;4.1155126953e+003;4.1332050781e+003;4.1225639648e+003;4.1130771484e+003;4.1161538086e+003;4.1317949219e+003;4.1233334961e+003;4.1173076172e+003;4.1132050781e+003;4.1112822266e+003;4.1289741211e+003;4.1185898438e+003;4.1247436523e+003;4.1280771484e+003;
1.4765625000e+000;4.2019228516e+003;4.2155126953e+003;4.2076923828e+003;4.1910258789e+003;4.1939741211e+003;4.2037177734e+003;4.1996152344e+003;4.1997436523e+003;4.1965385742e+003;4.2070512695e+003;4.2110258789e+003;4.2044873047e+003;4.2007690430e+003;4.2105126953e+003;
1.4843750000e+000;4.0482050781e+003;4.0570512695e+003;4.0605129395e+003;4.0525642090e+003;4.0516667480e+003;4.0720512695e+003;4.0646154785e+003;4.0664101563e+003;4.0671794434e+003;4.0565385742e+003;4.0623076172e+003;4.0653845215e+003;4.0606411133e+003;4.0662819824e+003;
1.4921875000e+000;4.0171794434e+003;4.0291025391e+003;4.0337180176e+003;4.0284614258e+003;4.0219230957e+003;4.0497436523e+003;4.0429487305e+003;4.0444870605e+003;4.0450000000e+003;4.0315385742e+003;4.0360256348e+003;4.0371794434e+003;4.0315385742e+003;4.0385898438e+003;
1.5000000000e+000;3.9405129395e+003;3.9548718262e+003;3.9621794434e+003;3.9517949219e+003;3.9452563477e+003;3.9862819824e+003;3.9783332520e+003;3.9824357910e+003;3.9800000000e+003;3.9578205566e+003;3.9650000000e+003;3.9617949219e+003;3.9560256348e+003;3.9662819824e+003;
1.5078125000e+000;3.9048718262e+003;3.9178205566e+003;3.9287180176e+003;3.9352563477e+003;3.9185898438e+003;3.9551281738e+003;3.9433332520e+003;3.9441025391e+003;3.9376923828e+003;3.9120512695e+003;3.9129487305e+003;3.9239743652e+003;3.9138461914e+003;3.9264101563e+003;
1.5156250000e+000;3.9129487305e+003;3.9289743652e+003;3.9321794434e+003;3.9466667480e+003;3.9150000000e+003;3.9611538086e+003;3.9507692871e+003;3.9503845215e+003;3.9433332520e+003;3.9179487305e+003;3.9202563477e+003;3.9311538086e+003;3.9203845215e+003;3.9338461914e+003;
1.5234375000e+000;3.8919230957e+003;3.9105129395e+003;3.9074357910e+003;3.9173076172e+003;3.8803845215e+003;3.9419230957e+003;3.9332050781e+003;3.9329487305e+003;3.9193588867e+003;3.8920512695e+003;3.9023076172e+003;3.9084614258e+003;3.8988461914e+003;3.9125642090e+003;
1.5312500000e+000;3.9228205566e+003;3.9414101563e+003;3.9389743652e+003;3.9412819824e+003;3.9206411133e+003;3.9726923828e+003;3.9657692871e+003;3.9623076172e+003;3.9456411133e+003;3.9182050781e+003;3.9320512695e+003;3.9344870605e+003;3.9298718262e+003;3.9403845215e+003;
1.5390625000e+000;4.2060258789e+003;4.2244873047e+003;4.2137177734e+003;4.2092309570e+003;4.2326923828e+003;4.2244873047e+003;4.2210258789e+003;4.2258974609e+003;4.2165385742e+003;4.2073076172e+003;4.2073076172e+003;4.2039741211e+003;4.2097436523e+003;4.2138461914e+003;
1.5468750000e+000;4.1662822266e+003;4.1784614258e+003;4.1764101563e+003;4.1685898438e+003;4.1678203125e+003;4.1767949219e+003;4.1808974609e+003;4.1702563477e+003;4.1596152344e+003;4.1576923828e+003;4.1623076172e+003;4.1669228516e+003;4.1634614258e+003;4.1698715820e+003;
1.5546875000e+000;4.2410258789e+003;4.2521796875e+003;4.2512822266e+003;4.2369228516e+003;4.2432050781e+003;4.2469228516e+003;4.2538461914e+003;4.2405126953e+003;4.2284614258e+003;4.2293588867e+003;4.2370512695e+003;4.2392309570e+003;4.2376923828e+003;4.2416665039e+003;
1.5625000000e+000;4.3278203125e+003;4.3392309570e+003;4.3367949219e+003;4.3180771484e+003;4.3338461914e+003;4.3288461914e+003;4.3346152344e+003;4.3265385742e+003;4.3143588867e+003;4.3194873047e+003;4.3252563477e+003;4.3255126953e+003;4.3241025391e+003;4.3280771484e+003;
1.5703125000e+000;4.3630771484e+003;4.3782050781e+003;4.3669228516e+003;4.3535898438e+003;4.3724360352e+003;4.3614101563e+003;4.3626923828e+003;4.3624360352e+003;4.3526923828e+003;4.3632050781e+003;4.3610258789e+003;4.3612822266e+003;4.3570512695e+003;4.3666665039e+003;
1.5781250000e+000;4.3584614258e+003;4.3773076172e+003;4.3588461914e+003;4.3500000000e+003;4.3674360352e+003;4.3542309570e+003;4.3587177734e+003;4.3550000000e+003;4.3476923828e+003;4.3584614258e+003;4.3553847656e+003;4.3539741211e+003;4.3533334961e+003;4.3615385742e+003;
1.5859375000e+000;4.3826923828e+003;4.4048715820e+003;4.3805126953e+003;4.3716665039e+003;4.3925639648e+003;4.3728203125e+003;4.3821796875e+003;4.3779487305e+003;4.3735898438e+003;4.3838461914e+003;4.3810258789e+003;4.3753847656e+003;4.3823076172e+003;4.3843588867e+003;
1.5937500000e+000;4.4093588867e+003;4.4325639648e+003;4.4073076172e+003;4.3935898438e+003;4.4203847656e+003;4.3950000000e+003;4.4060258789e+003;4.4083334961e+003;4.4060258789e+003;4.4152563477e+003;4.4120512695e+003;4.4028203125e+003;4.4161538086e+003;4.4112822266e+003;
1.6015625000e+000;4.2033334961e+003;4.2146152344e+003;4.2110258789e+003;4.1941025391e+003;4.2051284180e+003;4.2160258789e+003;4.2075639648e+003;4.2235898438e+003;4.2158974609e+003;4.2119228516e+003;4.2155126953e+003;4.2119228516e+003;4.2152563477e+003;4.2183334961e+003;
1.6093750000e+000;4.1337177734e+003;4.1529487305e+003;4.1433334961e+003;4.1393588867e+003;4.1461538086e+003;4.1565385742e+003;4.1534614258e+003;4.1667949219e+003;4.1651284180e+003;4.1544873047e+003;4.1502563477e+003;4.1457690430e+003;4.1500000000e+003;4.1503847656e+003;
1.6171875000e+000;4.0852563477e+003;4.1021796875e+003;4.0950000000e+003;4.0893588867e+003;4.0974360352e+003;4.1143588867e+003;4.1092309570e+003;4.1246152344e+003;4.1194873047e+003;4.1066665039e+003;4.1000000000e+003;4.0956411133e+003;4.0994873047e+003;4.1008974609e+003;
1.6250000000e+000;3.9958974609e+003;4.0053845215e+003;4.0067949219e+003;3.9975642090e+003;4.0100000000e+003;4.0400000000e+003;4.0270512695e+003;4.0479487305e+003;4.0388461914e+003;4.0176923828e+003;4.0110256348e+003;4.0096154785e+003;4.0085898438e+003;4.0137180176e+003;
1.6328125000e+000;3.9438461914e+003;3.9497436523e+003;3.9578205566e+003;3.9484614258e+003;3.9576923828e+003;3.9935898438e+003;3.9780769043e+003;3.9991025391e+003;3.9919230957e+003;3.9655129395e+003;3.9616667480e+003;3.9624357910e+003;3.9583332520e+003;3.9650000000e+003;
1.6406250000e+000;3.8103845215e+003;3.8146154785e+003;3.8308974609e+003;3.8283332520e+003;3.8012819824e+003;3.8592307129e+003;3.8447436523e+003;3.8582050781e+003;3.8588461914e+003;3.8280769043e+003;3.8323076172e+003;3.8330769043e+003;3.8292307129e+003;3.8400000000e+003;
1.6484375000e+000;3.8307692871e+003;3.8434614258e+003;3.8444870605e+003;3.8620512695e+003;3.8470512695e+003;3.8811538086e+003;3.8688461914e+003;3.8629487305e+003;3.8603845215e+003;3.8338461914e+003;3.8480769043e+003;3.8489743652e+003;3.8437180176e+003;3.8596154785e+003;
1.6562500000e+000;3.9241025391e+003;3.9383332520e+003;3.9314101563e+003;3.9508974609e+003;3.9533332520e+003;3.9652563477e+003;3.9571794434e+003;3.9503845215e+003;3.9473076172e+003;3.9253845215e+003;3.9396154785e+003;3.9394870605e+003;3.9385898438e+003;3.9496154785e+003;
1.6640625000e+000;4.0870512695e+003;4.0971796875e+003;4.0891025391e+003;4.0976923828e+003;4.1023076172e+003;4.1064101563e+003;4.1028203125e+003;4.1032050781e+003;4.0973076172e+003;4.0903845215e+003;4.0958974609e+003;4.0962822266e+003;4.1044873047e+003;4.1096152344e+003;
1.6718750000e+000;4.1348715820e+003;4.1474360352e+003;4.1371796875e+003;4.1448715820e+003;4.1447436523e+003;4.1519228516e+003;4.1491025391e+003;4.1439741211e+003;4.1379487305e+003;4.1332050781e+003;4.1410258789e+003;4.1389741211e+003;4.1496152344e+003;4.1558974609e+003;
1.6796875000e+000;4.3474360352e+003;4.3685898438e+003;4.3475639648e+003;4.3452563477e+003;4.3606411133e+003;4.3464101563e+003;4.3530771484e+003;4.3485898438e+003;4.3443588867e+003;4.3474360352e+003;4.3557690430e+003;4.3474360352e+003;4.3602563477e+003;4.3651284180e+003;
1.6875000000e+000;4.4024360352e+003;4.4224360352e+003;4.4047436523e+003;4.3916665039e+003;4.4152563477e+003;4.3951284180e+003;4.4055126953e+003;4.4079487305e+003;4.4038461914e+003;4.4103847656e+003;4.4144873047e+003;4.4074360352e+003;4.4164101563e+003;4.4200000000e+003;
1.6953125000e+000;4.3233334961e+003;4.3269228516e+003;4.3301284180e+003;4.3087177734e+003;4.3212822266e+003;4.3226923828e+003;4.3323076172e+003;4.3306411133e+003;4.3266665039e+003;4.3284614258e+003;4.3252563477e+003;4.3247436523e+003;4.3308974609e+003;4.3305126953e+003;
1.7031250000e+000;4.3653847656e+003;4.3697436523e+003;4.3680771484e+003;4.3519228516e+003;4.3628203125e+003;4.3603847656e+003;4.3696152344e+003;4.3689741211e+003;4.3662822266e+003;4.3688461914e+003;4.3619228516e+003;4.3611538086e+003;4.3688461914e+003;4.3682050781e+003;
1.7109375000e+000;4.4096152344e+003;4.4185898438e+003;4.4096152344e+003;4.3969228516e+003;4.4094873047e+003;4.4005126953e+003;4.4087177734e+003;4.4143588867e+003;4.4128203125e+003;4.4171796875e+003;4.4053847656e+003;4.4057690430e+003;4.4114101563e+003;4.4116665039e+003;
1.7187500000e+000;4.4115385742e+003;4.4260258789e+003;4.4124360352e+003;4.4000000000e+003;4.4150000000e+003;4.4039741211e+003;4.4107690430e+003;4.4220512695e+003;4.4211538086e+003;4.4252563477e+003;4.4108974609e+003;4.4133334961e+003;4.4147436523e+003;4.4167949219e+003;
1.7265625000e+000;4.3466665039e+003;4.3570512695e+003;4.3510258789e+003;4.3273076172e+003;4.3502563477e+003;4.3557690430e+003;4.3598715820e+003;4.3688461914e+003;4.3667949219e+003;4.3620512695e+003;4.3560258789e+003;4.3514101563e+003;4.3612822266e+003;4.3644873047e+003;
1.7343750000e+000;4.3101284180e+003;4.3171796875e+003;4.3162822266e+003;4.2934614258e+003;4.3141025391e+003;4.3239741211e+003;4.3237177734e+003;4.3375639648e+003;4.3360258789e+003;4.3284614258e+003;4.3225639648e+003;4.3184614258e+003;4.3266665039e+003;4.3306411133e+003;
1.7421875000e+000;4.0914101563e+003;4.0984614258e+003;4.1032050781e+003;4.0975639648e+003;4.1102563477e+003;4.1243588867e+003;4.1115385742e+003;4.1276923828e+003;4.1296152344e+003;4.1106411133e+003;4.1075639648e+003;4.1066665039e+003;4.1067949219e+003;4.1135898438e+003;
1.7500000000e+000;4.0350000000e+003;4.0474357910e+003;4.0493588867e+003;4.0494870605e+003;4.0410256348e+003;4.0780769043e+003;4.0698718262e+003;4.0685898438e+003;4.0630769043e+003;4.0485898438e+003;4.0435898438e+003;4.0447436523e+003;4.0479487305e+003;4.0546154785e+003;
1.7578125000e+000;4.0151281738e+003;4.0237180176e+003;4.0234614258e+003;4.0262819824e+003;4.0287180176e+003;4.0493588867e+003;4.0423076172e+003;4.0480769043e+003;4.0426923828e+003;4.0221794434e+003;4.0306411133e+003;4.0306411133e+003;4.0264101563e+003;4.0384614258e+003;
1.7656250000e+000;4.0392307129e+003;4.0416667480e+003;4.0458974609e+003;4.0525642090e+003;4.0402563477e+003;4.0688461914e+003;4.0661538086e+003;4.0624357910e+003;4.0564101563e+003;4.0373076172e+003;4.0474357910e+003;4.0483332520e+003;4.0455129395e+003;4.0570512695e+003;
1.7734375000e+000;4.2780771484e+003;4.2725639648e+003;4.2774360352e+003;4.2721796875e+003;4.2584614258e+003;4.2812822266e+003;4.2902563477e+003;4.2798715820e+003;4.2725639648e+003;4.2688461914e+003;4.2744873047e+003;4.2738461914e+003;4.2796152344e+003;4.2837177734e+003;
1.7812500000e+000;4.3755126953e+003;4.3707690430e+003;4.3737177734e+003;4.3594873047e+003;4.3638461914e+003;4.3698715820e+003;4.3776923828e+003;4.3775639648e+003;4.3701284180e+003;4.3735898438e+003;4.3769228516e+003;4.3743588867e+003;4.3802563477e+003;4.3828203125e+003;
1.7890625000e+000;4.4247436523e+003;4.4333334961e+003;4.4238461914e+003;4.4107690430e+003;4.4610258789e+003;4.4192309570e+003;4.4202563477e+003;4.4262822266e+003;4.4253847656e+003;4.4238461914e+003;4.4365385742e+003;4.4292309570e+003;4.4329487305e+003;4.4338461914e+003;
1.7968750000e+000;4.5271796875e+003;4.5379487305e+003;4.5211538086e+003;4.5058974609e+003;4.5597436523e+003;4.5089741211e+003;4.5165385742e+003;4.5200000000e+003;4.5223076172e+003;4.5223076172e+003;4.5332050781e+003;4.5238461914e+003;4.5328203125e+003;4.5279487305e+003;
1.8046875000e+000;4.6061538086e+003;4.6125639648e+003;4.5969228516e+003;4.5678203125e+003;4.6137177734e+003;4.5739741211e+003;4.5844873047e+003;4.6016665039e+003;4.6035898438e+003;4.6143588867e+003;4.6115385742e+003;4.6026923828e+003;4.6117949219e+003;4.6006411133e+003;
1.8125000000e+000;4.4793588867e+003;4.4833334961e+003;4.4757690430e+003;4.4444873047e+003;4.4824360352e+003;4.4600000000e+003;4.4626923828e+003;4.4844873047e+003;4.4841025391e+003;4.4943588867e+003;4.4906411133e+003;4.4826923828e+003;4.4866665039e+003;4.4778203125e+003;
1.8203125000e+000;4.1652563477e+003;4.1705126953e+003;4.1726923828e+003;4.1607690430e+003;4.1817949219e+003;4.1792309570e+003;4.1705126953e+003;4.1773076172e+003;4.1794873047e+003;4.1683334961e+003;4.1812822266e+003;4.1708974609e+003;4.1756411133e+003;4.1714101563e+003;
1.8281250000e+000;4.1632050781e+003;4.1674360352e+003;4.1693588867e+003;4.1642309570e+003;4.1778203125e+003;4.1771796875e+003;4.1712822266e+003;4.1757690430e+003;4.1782050781e+003;4.1630771484e+003;4.1758974609e+003;4.1687177734e+003;4.1747436523e+003;4.1684614258e+003;
1.8359375000e+000;4.1523076172e+003;4.1551284180e+003;4.1562822266e+003;4.1578203125e+003;4.1635898438e+003;4.1684614258e+003;4.1643588867e+003;4.1679487305e+003;4.1680771484e+003;4.1512822266e+003;4.1615385742e+003;4.1589741211e+003;4.1641025391e+003;4.1562822266e+003;
1.8437500000e+000;4.1176923828e+003;4.1208974609e+003;4.1193588867e+003;4.1274360352e+003;4.1287177734e+003;4.1393588867e+003;4.1348715820e+003;4.1382050781e+003;4.1343588867e+003;4.1175639648e+003;4.1248715820e+003;4.1251284180e+003;4.1285898438e+003;4.1207690430e+003;
1.8515625000e+000;4.0182050781e+003;4.0356411133e+003;4.0276923828e+003;4.0382050781e+003;4.0501281738e+003;4.0594870605e+003;4.0526923828e+003;4.0452563477e+003;4.0379487305e+003;4.0139743652e+003;4.0226923828e+003;4.0175642090e+003;4.0206411133e+003;4.0165385742e+003;
1.8593750000e+000;4.1008974609e+003;4.1182050781e+003;4.1088461914e+003;4.1171796875e+003;4.1319228516e+003;4.1358974609e+003;4.1348715820e+003;4.1234614258e+003;4.1160258789e+003;4.0908974609e+003;4.1015385742e+003;4.0952563477e+003;4.0998715820e+003;4.0946154785e+003;
1.8671875000e+000;4.3048715820e+003;4.3205126953e+003;4.3058974609e+003;4.3037177734e+003;4.3306411133e+003;4.3179487305e+003;4.3202563477e+003;4.3241025391e+003;4.3091025391e+003;4.3030771484e+003;4.3041025391e+003;4.2957690430e+003;4.3002563477e+003;4.2944873047e+003;
1.8750000000e+000;4.4788461914e+003;4.4993588867e+003;4.4757690430e+003;4.4661538086e+003;4.4847436523e+003;4.4755126953e+003;4.4871796875e+003;4.4767949219e+003;4.4693588867e+003;4.4683334961e+003;4.4744873047e+003;4.4617949219e+003;4.4755126953e+003;4.4593588867e+003;
1.8828125000e+000;4.5697436523e+003;4.5884614258e+003;4.5630771484e+003;4.5537177734e+003;4.5696152344e+003;4.5562822266e+003;4.5728203125e+003;4.5675639648e+003;4.5615385742e+003;4.5625639648e+003;4.5665385742e+003;4.5533334961e+003;4.5669228516e+003;4.5498715820e+003;
1.8906250000e+000;4.5150000000e+003;4.5319228516e+003;4.5075639648e+003;4.5026923828e+003;4.5396152344e+003;4.5033334961e+003;4.5119228516e+003;4.5179487305e+003;4.5065385742e+003;4.5107690430e+003;4.5130771484e+003;4.5055126953e+003;4.5079487305e+003;4.5007690430e+003;
1.8984375000e+000;4.6320512695e+003;4.6439741211e+003;4.6244873047e+003;4.5887177734e+003;4.6452563477e+003;4.6015385742e+003;4.6165385742e+003;4.6293588867e+003;4.6235898438e+003;4.6315385742e+003;4.6261538086e+003;4.6216665039e+003;4.6262822266e+003;4.6133334961e+003;
1.9062500000e+000;4.5770512695e+003;4.5825639648e+003;4.5737177734e+003;4.5352563477e+003;4.5805126953e+003;4.5475639648e+003;4.5623076172e+003;4.5806411133e+003;4.5762822266e+003;4.5814101563e+003;4.5726923828e+003;4.5694873047e+003;4.5716665039e+003;4.5602563477e+003;
1.9140625000e+000;4.2706411133e+003;4.2773076172e+003;4.2702563477e+003;4.2591025391e+003;4.2800000000e+003;4.2657690430e+003;4.2675639648e+003;4.2806411133e+003;4.2801284180e+003;4.2701284180e+003;4.2708974609e+003;4.2629487305e+003;4.2693588867e+003;4.2624360352e+003;
1.9218750000e+000;4.2285898438e+003;4.2371796875e+003;4.2270512695e+003;4.2207690430e+003;4.2376923828e+003;4.2297436523e+003;4.2292309570e+003;4.2369228516e+003;4.2382050781e+003;4.2243588867e+003;4.2287177734e+003;4.2230771484e+003;4.2284614258e+003;4.2230771484e+003;
1.9296875000e+000;4.2455126953e+003;4.2487177734e+003;4.2464101563e+003;4.2375639648e+003;4.2473076172e+003;4.2488461914e+003;4.2544873047e+003;4.2500000000e+003;4.2498715820e+003;4.2326923828e+003;4.2434614258e+003;4.2428203125e+003;4.2443588867e+003;4.2406411133e+003;
1.9375000000e+000;4.2865385742e+003;4.2869228516e+003;4.2892309570e+003;4.2775639648e+003;4.2888461914e+003;4.2870512695e+003;4.2969228516e+003;4.2917949219e+003;4.2884614258e+003;4.2728203125e+003;4.2862822266e+003;4.2833334961e+003;4.2860258789e+003;4.2810258789e+003;
1.9453125000e+000;4.3133334961e+003;4.3141025391e+003;4.3174360352e+003;4.3041025391e+003;4.3192309570e+003;4.3125639648e+003;4.3230771484e+003;4.3226923828e+003;4.3157690430e+003;4.3023076172e+003;4.3175639648e+003;4.3114101563e+003;4.3146152344e+003;4.3093588867e+003;
1.9531250000e+000;4.2643588867e+003;4.2700000000e+003;4.2705126953e+003;4.2579487305e+003;4.2735898438e+003;4.2723076172e+003;4.2756411133e+003;4.2833334961e+003;4.2706411133e+003;4.2576923828e+003;4.2730771484e+003;4.2710258789e+003;4.2652563477e+003;4.2684614258e+003;
1.9609375000e+000;4.2425639648e+003;4.2482050781e+003;4.2476923828e+003;4.2358974609e+003;4.2484614258e+003;4.2537177734e+003;4.2558974609e+003;4.2614101563e+003;4.2470512695e+003;4.2328203125e+003;4.2473076172e+003;4.2498715820e+003;4.2401284180e+003;4.2471796875e+003;
1.9687500000e+000;4.2638461914e+003;4.2675639648e+003;4.2665385742e+003;4.2544873047e+003;4.2651284180e+003;4.2733334961e+003;4.2776923828e+003;4.2802563477e+003;4.2658974609e+003;4.2507690430e+003;4.2634614258e+003;4.2674360352e+003;4.2588461914e+003;4.2651284180e+003;
1.9765625000e+000;4.2000000000e+003;4.2114101563e+003;4.2151284180e+003;4.2035898438e+003;4.2128203125e+003;4.2151284180e+003;4.2216665039e+003;4.2232050781e+003;4.2150000000e+003;4.1905126953e+003;4.2071796875e+003;4.1993588867e+003;4.2043588867e+003;4.1989741211e+003;
1.9843750000e+000;4.1860258789e+003;4.1947436523e+003;4.1969228516e+003;4.1896152344e+003;4.1828203125e+003;4.1978203125e+003;4.2017949219e+003;4.2043588867e+003;4.1964101563e+003;4.1732050781e+003;4.1901284180e+003;4.1847436523e+003;4.1866665039e+003;4.1842309570e+003;
1.9921875000e+000;4.0366667480e+003;4.0367949219e+003;4.0496154785e+003;4.0467949219e+003;4.0246154785e+003;4.0593588867e+003;4.0556411133e+003;4.0601281738e+003;4.0508974609e+003;4.0220512695e+003;4.0388461914e+003;4.0423076172e+003;4.0303845215e+003;4.0384614258e+003;
2.0000000000e+000;4.0056411133e+003;4.0069230957e+003;4.0202563477e+003;4.0183332520e+003;4.0301281738e+003;4.0302563477e+003;4.0275642090e+003;4.0280769043e+003;4.0229487305e+003;3.9920512695e+003;4.0087180176e+003;4.0071794434e+003;4.0005129395e+003;4.0096154785e+003;
2.0078125000e+000;4.0107692871e+003;4.0126923828e+003;4.0221794434e+003;4.0278205566e+003;4.0253845215e+003;4.0353845215e+003;4.0315385742e+003;4.0357692871e+003;4.0287180176e+003;4.0000000000e+003;4.0148718262e+003;4.0133332520e+003;4.0084614258e+003;4.0169230957e+003;
2.0156250000e+000;3.9517949219e+003;3.9503845215e+003;3.9601281738e+003;3.9757692871e+003;3.9466667480e+003;3.9811538086e+003;3.9730769043e+003;3.9771794434e+003;3.9675642090e+003;3.9329487305e+003;3.9507692871e+003;3.9550000000e+003;3.9471794434e+003;3.9592307129e+003;
2.0234375000e+000;3.8052563477e+003;3.8007692871e+003;3.8233332520e+003;3.8366667480e+003;3.8115385742e+003;3.8569230957e+003;3.8394870605e+003;3.8391025391e+003;3.8271794434e+003;3.7865385742e+003;3.8075642090e+003;3.8146154785e+003;3.7991025391e+003;3.8119230957e+003;
2.0312500000e+000;3.7748718262e+003;3.7733332520e+003;3.7926923828e+003;3.8108974609e+003;3.7841025391e+003;3.8329487305e+003;3.8143588867e+003;3.8108974609e+003;3.7985898438e+003;3.7562819824e+003;3.7798718262e+003;3.7843588867e+003;3.7723076172e+003;3.7832050781e+003;
2.0390625000e+000;3.7832050781e+003;3.7842307129e+003;3.8002563477e+003;3.8208974609e+003;3.7958974609e+003;3.8414101563e+003;3.8226923828e+003;3.8193588867e+003;3.8080769043e+003;3.7651281738e+003;3.7901281738e+003;3.7919230957e+003;3.7838461914e+003;3.7944870605e+003;
2.0468750000e+000;3.7992307129e+003;3.7989743652e+003;3.8173076172e+003;3.8365385742e+003;3.8111538086e+003;3.8541025391e+003;3.8317949219e+003;3.8351281738e+003;3.8262819824e+003;3.7844870605e+003;3.8060256348e+003;3.8094870605e+003;3.7989743652e+003;3.8156411133e+003;
2.0546875000e+000;3.6711538086e+003;3.6592307129e+003;3.6893588867e+003;3.7146154785e+003;3.6729487305e+003;3.7374357910e+003;3.7115385742e+003;3.7098718262e+003;3.7021794434e+003;3.6544870605e+003;3.6765385742e+003;3.6871794434e+003;3.6674357910e+003;3.6871794434e+003;
2.0625000000e+000;3.6301281738e+003;3.6156411133e+003;3.6507692871e+003;3.6788461914e+003;3.6401281738e+003;3.7007692871e+003;3.6747436523e+003;3.6714101563e+003;3.6635898438e+003;3.6143588867e+003;3.6376923828e+003;3.6503845215e+003;3.6288461914e+003;3.6498718262e+003;
2.0703125000e+000;3.6001281738e+003;3.5852563477e+003;3.6242307129e+003;3.6558974609e+003;3.6178205566e+003;3.6746154785e+003;3.6480769043e+003;3.6423076172e+003;3.6338461914e+003;3.5841025391e+003;3.6085898438e+003;3.6238461914e+003;3.6007692871e+003;3.6244870605e+003;
2.0781250000e+000;3.6614101563e+003;3.6535898438e+003;3.6833332520e+003;3.7216667480e+003;3.6664101563e+003;3.7301281738e+003;3.7060256348e+003;3.6943588867e+003;3.6846154785e+003;3.6394870605e+003;3.6650000000e+003;3.6807692871e+003;3.6614101563e+003;3.6864101563e+003;
2.0859375000e+000;3.7469230957e+003;3.7425642090e+003;3.7632050781e+003;3.7998718262e+003;3.7364101563e+003;3.8056411133e+003;3.7837180176e+003;3.7743588867e+003;3.7650000000e+003;3.7251281738e+003;3.7482050781e+003;3.7617949219e+003;3.7461538086e+003;3.7684614258e+003;
2.0937500000e+000;3.8123076172e+003;3.8082050781e+003;3.8247436523e+003;3.8553845215e+003;3.7926923828e+003;3.8634614258e+003;3.8423076172e+003;3.8378205566e+003;3.8289743652e+003;3.7935898438e+003;3.8128205566e+003;3.8255129395e+003;3.8114101563e+003;3.8308974609e+003;
2.1015625000e+000;3.9071794434e+003;3.9076923828e+003;3.9225642090e+003;3.9491025391e+003;3.9434614258e+003;3.9567949219e+003;3.9433332520e+003;3.9406411133e+003;3.9316667480e+003;3.9015385742e+003;3.9133332520e+003;3.9153845215e+003;3.9117949219e+003;3.9176923828e+003;
2.1093750000e+000;3.9156411133e+003;3.9194870605e+003;3.9283332520e+003;3.9596154785e+003;3.9429487305e+003;3.9652563477e+003;3.9502563477e+003;3.9515385742e+003;3.9423076172e+003;3.9160256348e+003;3.9228205566e+003;3.9251281738e+003;3.9215385742e+003;3.9266667480e+003;
2.1171875000e+000;4.0565385742e+003;4.0576923828e+003;4.0635898438e+003;4.0841025391e+003;4.0692307129e+003;4.0961538086e+003;4.0865385742e+003;4.0757692871e+003;4.0715385742e+003;4.0521794434e+003;4.0538461914e+003;4.0571794434e+003;4.0582050781e+003;4.0607692871e+003;
2.1250000000e+000;4.1178203125e+003;4.1211538086e+003;4.1203847656e+003;4.1408974609e+003;4.1325639648e+003;4.1484614258e+003;4.1378203125e+003;4.1412822266e+003;4.1411538086e+003;4.1242309570e+003;4.1196152344e+003;4.1158974609e+003;4.1246152344e+003;4.1251284180e+003;
2.1328125000e+000;4.0415385742e+003;4.0466667480e+003;4.0437180176e+003;4.0705129395e+003;4.0524357910e+003;4.0784614258e+003;4.0624357910e+003;4.0682050781e+003;4.0655129395e+003;4.0474357910e+003;4.0437180176e+003;4.0392307129e+003;4.0476923828e+003;4.0485898438e+003;
2.1406250000e+000;3.9241025391e+003;3.9342307129e+003;3.9241025391e+003;3.9728205566e+003;3.9348718262e+003;3.9701281738e+003;3.9543588867e+003;3.9541025391e+003;3.9528205566e+003;3.9316667480e+003;3.9274357910e+003;3.9260256348e+003;3.9308974609e+003;3.9316667480e+003;
2.1484375000e+000;3.9042307129e+003;3.9134614258e+003;3.9039743652e+003;3.9602563477e+003;3.9152563477e+003;3.9541025391e+003;3.9393588867e+003;3.9332050781e+003;3.9341025391e+003;3.9107692871e+003;3.9080769043e+003;3.9080769043e+003;3.9126923828e+003;3.9139743652e+003;
2.1562500000e+000;3.9419230957e+003;3.9473076172e+003;3.9391025391e+003;4.0001281738e+003;3.9564101563e+003;3.9930769043e+003;3.9741025391e+003;3.9655129395e+003;3.9637180176e+003;3.9412819824e+003;3.9458974609e+003;3.9405129395e+003;3.9474357910e+003;3.9496154785e+003;
2.1640625000e+000;3.9711538086e+003;3.9751281738e+003;3.9689743652e+003;4.0265385742e+003;3.9855129395e+003;4.0185898438e+003;3.9974357910e+003;3.9962819824e+003;3.9912819824e+003;3.9716667480e+003;3.9757692871e+003;3.9684614258e+003;3.9734614258e+003;3.9767949219e+003;
2.1718750000e+000;3.7978205566e+003;3.8019230957e+003;3.8088461914e+003;3.8620512695e+003;3.7939743652e+003;3.8512819824e+003;3.8341025391e+003;3.8347436523e+003;3.8302563477e+003;3.8047436523e+003;3.8008974609e+003;3.8024357910e+003;3.8015385742e+003;3.8043588867e+003;
2.1796875000e+000;3.7585898438e+003;3.7642307129e+003;3.7706411133e+003;3.8251281738e+003;3.7570512695e+003;3.8162819824e+003;3.7992307129e+003;3.7935898438e+003;3.7914101563e+003;3.7619230957e+003;3.7611538086e+003;3.7623076172e+003;3.7653845215e+003;3.7661538086e+003;
2.1875000000e+000;3.7685898438e+003;3.7760256348e+003;3.7800000000e+003;3.8393588867e+003;3.7912819824e+003;3.8312819824e+003;3.8062819824e+003;3.8025642090e+003;3.8010256348e+003;3.7698718262e+003;3.7766667480e+003;3.7758974609e+003;3.7750000000e+003;3.7821794434e+003;
2.1953125000e+000;3.7473076172e+003;3.7541025391e+003;3.7594870605e+003;3.8243588867e+003;3.7816667480e+003;3.8130769043e+003;3.7844870605e+003;3.7824357910e+003;3.7801281738e+003;3.7493588867e+003;3.7575642090e+003;3.7597436523e+003;3.7510256348e+003;3.7635898438e+003;
2.2031250000e+000;3.6651281738e+003;3.6701281738e+003;3.6757692871e+003;3.7507692871e+003;3.6878205566e+003;3.7301281738e+003;3.7051281738e+003;3.6960256348e+003;3.6974357910e+003;3.6698718262e+003;3.6712819824e+003;3.6801281738e+003;3.6765385742e+003;3.6806411133e+003;
2.2109375000e+000;3.6479487305e+003;3.6526923828e+003;3.6587180176e+003;3.7328205566e+003;3.6616667480e+003;3.7146154785e+003;3.6874357910e+003;3.6800000000e+003;3.6820512695e+003;3.6557692871e+003;3.6557692871e+003;3.6625642090e+003;3.6630769043e+003;3.6653845215e+003;
2.2187500000e+000;3.6266667480e+003;3.6314101563e+003;3.6391025391e+003;3.7133332520e+003;3.6379487305e+003;3.6980769043e+003;3.6679487305e+003;3.6601281738e+003;3.6617949219e+003;3.6352563477e+003;3.6370512695e+003;3.6410256348e+003;3.6419230957e+003;3.6466667480e+003;
2.2265625000e+000;3.7165385742e+003;3.7196154785e+003;3.7301281738e+003;3.7908974609e+003;3.7256411133e+003;3.7728205566e+003;3.7550000000e+003;3.7534614258e+003;3.7530769043e+003;3.7260256348e+003;3.7302563477e+003;3.7392307129e+003;3.7324357910e+003;3.7394870605e+003;
2.2343750000e+000;3.6884614258e+003;3.6956411133e+003;3.7028205566e+003;3.7641025391e+003;3.6992307129e+003;3.7483332520e+003;3.7292307129e+003;3.7261538086e+003;3.7241025391e+003;3.6960256348e+003;3.7019230957e+003;3.7119230957e+003;3.7065385742e+003;3.7142307129e+003;
2.2421875000e+000;3.8307692871e+003;3.8383332520e+003;3.8360256348e+003;3.9007692871e+003;3.8388461914e+003;3.8691025391e+003;3.8588461914e+003;3.8526923828e+003;3.8528205566e+003;3.8337180176e+003;3.8350000000e+003;3.8387180176e+003;3.8419230957e+003;3.8473076172e+003;
2.2500000000e+000;3.8587180176e+003;3.8643588867e+003;3.8624357910e+003;3.9267949219e+003;3.8623076172e+003;3.8928205566e+003;3.8833332520e+003;3.8780769043e+003;3.8784614258e+003;3.8625642090e+003;3.8612819824e+003;3.8662819824e+003;3.8673076172e+003;3.8716667480e+003;
2.2578125000e+000;3.9223076172e+003;3.9325642090e+003;3.9238461914e+003;3.9870512695e+003;3.9316667480e+003;3.9560256348e+003;3.9464101563e+003;3.9341025391e+003;3.9335898438e+003;3.9220512695e+003;3.9230769043e+003;3.9303845215e+003;3.9291025391e+003;3.9316667480e+003;
2.2656250000e+000;4.0989741211e+003;4.1092309570e+003;4.1006411133e+003;4.1455126953e+003;4.0970512695e+003;4.1228203125e+003;4.1173076172e+003;4.1094873047e+003;4.1083334961e+003;4.1094873047e+003;4.1041025391e+003;4.1037177734e+003;4.1067949219e+003;4.1096152344e+003;
2.2734375000e+000;4.1185898438e+003;4.1300000000e+003;4.1192309570e+003;4.1632050781e+003;4.1019228516e+003;4.1397436523e+003;4.1371796875e+003;4.1287177734e+003;4.1288461914e+003;4.1312822266e+003;4.1257690430e+003;4.1226923828e+003;4.1282050781e+003;4.1294873047e+003;
2.2812500000e+000;4.1507690430e+003;4.1689741211e+003;4.1473076172e+003;4.1912822266e+003;4.1369228516e+003;4.1639741211e+003;4.1619228516e+003;4.1607690430e+003;4.1632050781e+003;4.1725639648e+003;4.1619228516e+003;4.1570512695e+003;4.1646152344e+003;4.1635898438e+003;
2.2890625000e+000;4.1032050781e+003;4.1223076172e+003;4.1005126953e+003;4.1444873047e+003;4.1078203125e+003;4.1183334961e+003;4.1116665039e+003;4.1152563477e+003;4.1170512695e+003;4.1283334961e+003;4.1137177734e+003;4.1115385742e+003;4.1170512695e+003;4.1164101563e+003;
2.2968750000e+000;3.9242307129e+003;3.9371794434e+003;3.9258974609e+003;3.9742307129e+003;3.9520512695e+003;3.9519230957e+003;3.9352563477e+003;3.9402563477e+003;3.9391025391e+003;3.9464101563e+003;3.9321794434e+003;3.9347436523e+003;3.9374357910e+003;3.9379487305e+003;
2.3046875000e+000;3.9015385742e+003;3.9129487305e+003;3.9048718262e+003;3.9551281738e+003;3.9164101563e+003;3.9307692871e+003;3.9142307129e+003;3.9189743652e+003;3.9174357910e+003;3.9247436523e+003;3.9114101563e+003;3.9155129395e+003;3.9167949219e+003;3.9178205566e+003;
2.3125000000e+000;3.8467949219e+003;3.8558974609e+003;3.8521794434e+003;3.9060256348e+003;3.8467949219e+003;3.8796154785e+003;3.8656411133e+003;3.8626923828e+003;3.8596154785e+003;3.8642307129e+003;3.8547436523e+003;3.8617949219e+003;3.8582050781e+003;3.8630769043e+003;
2.3203125000e+000;3.8362819824e+003;3.8443588867e+003;3.8388461914e+003;3.8939743652e+003;3.8393588867e+003;3.8675642090e+003;3.8550000000e+003;3.8487180176e+003;3.8452563477e+003;3.8462819824e+003;3.8406411133e+003;3.8464101563e+003;3.8425642090e+003;3.8488461914e+003;
2.3281250000e+000;3.7956411133e+003;3.7979487305e+003;3.7991025391e+003;3.8502563477e+003;3.7938461914e+003;3.8229487305e+003;3.8052563477e+003;3.8041025391e+003;3.8005129395e+003;3.7948718262e+003;3.7919230957e+003;3.8034614258e+003;3.8006411133e+003;3.8053845215e+003;
2.3359375000e+000;3.7906411133e+003;3.7929487305e+003;3.7969230957e+003;3.8480769043e+003;3.7842307129e+003;3.8194870605e+003;3.8011538086e+003;3.7942307129e+003;3.7905129395e+003;3.7856411133e+003;3.7842307129e+003;3.7993588867e+003;3.7958974609e+003;3.8001281738e+003;
2.3437500000e+000;3.8412819824e+003;3.8457692871e+003;3.8453845215e+003;3.8979487305e+003;3.8357692871e+003;3.8670512695e+003;3.8512819824e+003;3.8373076172e+003;3.8337180176e+003;3.8320512695e+003;3.8329487305e+003;3.8476923828e+003;3.8452563477e+003;3.8484614258e+003;
2.3515625000e+000;4.0335898438e+003;4.0370512695e+003;4.0319230957e+003;4.0669230957e+003;4.0206411133e+003;4.0356411133e+003;4.0300000000e+003;4.0216667480e+003;4.0183332520e+003;4.0288461914e+003;4.0234614258e+003;4.0303845215e+003;4.0301281738e+003;4.0344870605e+003;
2.3593750000e+000;4.0656411133e+003;4.0712819824e+003;4.0625642090e+003;4.0964101563e+003;4.0532050781e+003;4.0632050781e+003;4.0592307129e+003;4.0497436523e+003;4.0474357910e+003;4.0582050781e+003;4.0539743652e+003;4.0597436523e+003;4.0614101563e+003;4.0655129395e+003;
2.3671875000e+000;4.0844870605e+003;4.0896154785e+003;4.0742307129e+003;4.1116665039e+003;4.0741025391e+003;4.0748718262e+003;4.0720512695e+003;4.0697436523e+003;4.0682050781e+003;4.0808974609e+003;4.0721794434e+003;4.0815385742e+003;4.0815385742e+003;4.0817949219e+003;
2.3750000000e+000;4.1410258789e+003;4.1407690430e+003;4.1405126953e+003;4.1582050781e+003;4.1057690430e+003;4.1339741211e+003;4.1342309570e+003;4.1335898438e+003;4.1347436523e+003;4.1456411133e+003;4.1315385742e+003;4.1371796875e+003;4.1379487305e+003;4.1388461914e+003;
2.3828125000e+000;4.1433334961e+003;4.1423076172e+003;4.1433334961e+003;4.1603847656e+003;4.1176923828e+003;4.1424360352e+003;4.1400000000e+003;4.1433334961e+003;4.1448715820e+003;4.1553847656e+003;4.1378203125e+003;4.1435898438e+003;4.1405126953e+003;4.1447436523e+003;
2.3906250000e+000;4.0606411133e+003;4.0569230957e+003;4.0587180176e+003;4.0873076172e+003;4.0785898438e+003;4.0674357910e+003;4.0621794434e+003;4.0667949219e+003;4.0684614258e+003;4.0747436523e+003;4.0580769043e+003;4.0642307129e+003;4.0620512695e+003;4.0625642090e+003;
2.3984375000e+000;4.0676923828e+003;4.0634614258e+003;4.0661538086e+003;4.0914101563e+003;4.0796154785e+003;4.0670512695e+003;4.0625642090e+003;4.0692307129e+003;4.0715385742e+003;4.0802563477e+003;4.0637180176e+003;4.0684614258e+003;4.0693588867e+003;4.0674357910e+003;
2.4062500000e+000;4.0582050781e+003;4.0571794434e+003;4.0589743652e+003;4.0767949219e+003;4.0465385742e+003;4.0530769043e+003;4.0470512695e+003;4.0491025391e+003;4.0511538086e+003;4.0641025391e+003;4.0503845215e+003;4.0551281738e+003;4.0552563477e+003;4.0560256348e+003;
2.4140625000e+000;4.0657692871e+003;4.0669230957e+003;4.0667949219e+003;4.0832050781e+003;4.0494870605e+003;4.0610256348e+003;4.0548718262e+003;4.0502563477e+003;4.0511538086e+003;4.0651281738e+003;4.0541025391e+003;4.0593588867e+003;4.0591025391e+003;4.0614101563e+003;
2.4218750000e+000;4.1351284180e+003;4.1371796875e+003;4.1432050781e+003;4.1501284180e+003;4.1192309570e+003;4.1198715820e+003;4.1139741211e+003;4.1179487305e+003;4.1153847656e+003;4.1315385742e+003;4.1251284180e+003;4.1282050781e+003;4.1250000000e+003;4.1294873047e+003;
2.4296875000e+000;4.0906411133e+003;4.0925642090e+003;4.1016665039e+003;4.1071796875e+003;4.0728205566e+003;4.0774357910e+003;4.0702563477e+003;4.0766667480e+003;4.0737180176e+003;4.0870512695e+003;4.0839743652e+003;4.0874357910e+003;4.0806411133e+003;4.0876923828e+003;
2.4375000000e+000;3.9961538086e+003;3.9962819824e+003;4.0043588867e+003;4.0165385742e+003;3.9771794434e+003;3.9874357910e+003;3.9806411133e+003;3.9794870605e+003;3.9778205566e+003;3.9874357910e+003;3.9870512695e+003;3.9929487305e+003;3.9848718262e+003;3.9944870605e+003;
2.4453125000e+000;3.9656411133e+003;3.9637180176e+003;3.9719230957e+003;3.9901281738e+003;3.9461538086e+003;3.9589743652e+003;3.9514101563e+003;3.9484614258e+003;3.9478205566e+003;3.9566667480e+003;3.9537180176e+003;3.9619230957e+003;3.9542307129e+003;3.9644870605e+003;
2.4531250000e+000;3.8929487305e+003;3.8875642090e+003;3.9038461914e+003;3.9232050781e+003;3.8693588867e+003;3.8992307129e+003;3.8871794434e+003;3.8801281738e+003;3.8788461914e+003;3.8741025391e+003;3.8784614258e+003;3.8888461914e+003;3.8812819824e+003;3.8920512695e+003;
2.4609375000e+000;3.9597436523e+003;3.9544870605e+003;3.9667949219e+003;3.9814101563e+003;3.9346154785e+003;3.9576923828e+003;3.9501281738e+003;3.9423076172e+003;3.9388461914e+003;3.9347436523e+003;3.9435898438e+003;3.9501281738e+003;3.9464101563e+003;3.9548718262e+003;
2.4687500000e+000;4.0542307129e+003;4.0487180176e+003;4.0555129395e+003;4.0666667480e+003;4.0279487305e+003;4.0392307129e+003;4.0373076172e+003;4.0320512695e+003;4.0264101563e+003;4.0284614258e+003;4.0374357910e+003;4.0410256348e+003;4.0396154785e+003;4.0470512695e+003;
2.4765625000e+000;4.1219228516e+003;4.1148715820e+003;4.1194873047e+003;4.1292309570e+003;4.0962822266e+003;4.0975639648e+003;4.0987177734e+003;4.0974360352e+003;4.0905129395e+003;4.0996152344e+003;4.1056411133e+003;4.1097436523e+003;4.1064101563e+003;4.1160258789e+003;
2.4843750000e+000;4.2276923828e+003;4.2162822266e+003;4.2292309570e+003;4.2285898438e+003;4.1933334961e+003;4.2056411133e+003;4.1993588867e+003;4.1976923828e+003;4.1984614258e+003;4.2102563477e+003;4.2123076172e+003;4.2217949219e+003;4.2169228516e+003;4.2293588867e+003;
2.4921875000e+000;4.2196152344e+003;4.2265385742e+003;4.2229487305e+003;4.2291025391e+003;4.2064101563e+003;4.2001284180e+003;4.1982050781e+003;4.1957690430e+003;4.1975639648e+003;4.2135898438e+003;4.2039741211e+003;4.2205126953e+003;4.2087177734e+003;4.2221796875e+003;
2.5000000000e+000;4.2433334961e+003;4.2474360352e+003;4.2453847656e+003;4.2466665039e+003;4.2439741211e+003;4.2228203125e+003;4.2197436523e+003;4.2182050781e+003;4.2241025391e+003;4.2380771484e+003;4.2283334961e+003;4.2424360352e+003;4.2316665039e+003;4.2461538086e+003;
2.5078125000e+000;4.2393588867e+003;4.2314101563e+003;4.2428203125e+003;4.2298715820e+003;4.2341025391e+003;4.2214101563e+003;4.2160258789e+003;4.2157690430e+003;4.2232050781e+003;4.2329487305e+003;4.2271796875e+003;4.2360258789e+003;4.2266665039e+003;4.2394873047e+003;
2.5156250000e+000;4.2192309570e+003;4.2082050781e+003;4.2225639648e+003;4.2094873047e+003;4.2025639648e+003;4.2017949219e+003;4.1982050781e+003;4.1941025391e+003;4.2001284180e+003;4.2088461914e+003;4.2058974609e+003;4.2137177734e+003;4.2050000000e+003;4.2158974609e+003;
2.5234375000e+000;4.2488461914e+003;4.2471796875e+003;4.2508974609e+003;4.2478203125e+003;4.2344873047e+003;4.2223076172e+003;4.2235898438e+003;4.2237177734e+003;4.2308974609e+003;4.2447436523e+003;4.2333334961e+003;4.2420512695e+003;4.2364101563e+003;4.2484614258e+003;
2.5312500000e+000;4.2491025391e+003;4.2465385742e+003;4.2520512695e+003;4.2519228516e+003;4.2347436523e+003;4.2305126953e+003;4.2302563477e+003;4.2279487305e+003;4.2347436523e+003;4.2466665039e+003;4.2373076172e+003;4.2438461914e+003;4.2397436523e+003;4.2496152344e+003;
2.5390625000e+000;4.2852563477e+003;4.2807690430e+003;4.2848715820e+003;4.2832050781e+003;4.2662822266e+003;4.2630771484e+003;4.2632050781e+003;4.2619228516e+003;4.2697436523e+003;4.2811538086e+003;4.2742309570e+003;4.2802563477e+003;4.2744873047e+003;4.2828203125e+003;
2.5468750000e+000;4.2415385742e+003;4.2369228516e+003;4.2392309570e+003;4.2375639648e+003;4.2278203125e+003;4.2188461914e+003;4.2164101563e+003;4.2197436523e+003;4.2273076172e+003;4.2365385742e+003;4.2292309570e+003;4.2383334961e+003;4.2271796875e+003;4.2371796875e+003;
2.5546875000e+000;4.2342309570e+003;4.2342309570e+003;4.2308974609e+003;4.2348715820e+003;4.2229487305e+003;4.2126923828e+003;4.2119228516e+003;4.2111538086e+003;4.2164101563e+003;4.2264101563e+003;4.2191025391e+003;4.2278203125e+003;4.2193588867e+003;4.2280771484e+003;
2.5625000000e+000;4.2661538086e+003;4.2734614258e+003;4.2625639648e+003;4.2698715820e+003;4.2542309570e+003;4.2423076172e+003;4.2457690430e+003;4.2448715820e+003;4.2469228516e+003;4.2601284180e+003;4.2524360352e+003;4.2615385742e+003;4.2511538086e+003;4.2582050781e+003;
2.5703125000e+000;4.2432050781e+003;4.2483334961e+003;4.2439741211e+003;4.2457690430e+003;4.2311538086e+003;4.2223076172e+003;4.2253847656e+003;4.2257690430e+003;4.2265385742e+003;4.2384614258e+003;4.2337177734e+003;4.2435898438e+003;4.2280771484e+003;4.2370512695e+003;
2.5781250000e+000;4.2015385742e+003;4.1885898438e+003;4.2061538086e+003;4.1974360352e+003;4.1798715820e+003;4.1850000000e+003;4.1871796875e+003;4.1844873047e+003;4.1824360352e+003;4.1902563477e+003;4.1915385742e+003;4.1997436523e+003;4.1842309570e+003;4.1932050781e+003;
2.5859375000e+000;4.2070512695e+003;4.1917949219e+003;4.2088461914e+003;4.2055126953e+003;4.1783334961e+003;4.1882050781e+003;4.1898715820e+003;4.1900000000e+003;4.1897436523e+003;4.1994873047e+003;4.1948715820e+003;4.2055126953e+003;4.1898715820e+003;4.1974360352e+003;
2.5937500000e+000;4.1812822266e+003;4.1675639648e+003;4.1820512695e+003;4.1858974609e+003;4.1501284180e+003;4.1632050781e+003;4.1628203125e+003;4.1650000000e+003;4.1671796875e+003;4.1775639648e+003;4.1685898438e+003;4.1830771484e+003;4.1638461914e+003;4.1720512695e+003;
2.6015625000e+000;4.1448715820e+003;4.1351284180e+003;4.1462822266e+003;4.1541025391e+003;4.1196152344e+003;4.1293588867e+003;4.1267949219e+003;4.1270512695e+003;4.1317949219e+003;4.1406411133e+003;4.1329487305e+003;4.1493588867e+003;4.1264101563e+003;4.1361538086e+003;
2.6093750000e+000;4.2726923828e+003;4.2701284180e+003;4.2746152344e+003;4.2673076172e+003;4.2821796875e+003;4.2511538086e+003;4.2485898438e+003;4.2512822266e+003;4.2552563477e+003;4.2706411133e+003;4.2693588867e+003;4.2729487305e+003;4.2650000000e+003;4.2642309570e+003;
2.6171875000e+000;4.2471796875e+003;4.2438461914e+003;4.2506411133e+003;4.2460258789e+003;4.2498715820e+003;4.2261538086e+003;4.2239741211e+003;4.2284614258e+003;4.2320512695e+003;4.2475639648e+003;4.2437177734e+003;4.2476923828e+003;4.2419228516e+003;4.2391025391e+003;
2.6250000000e+000;4.1478203125e+003;4.1412822266e+003;4.1491025391e+003;4.1546152344e+003;4.1370512695e+003;4.1307690430e+003;4.1270512695e+003;4.1305126953e+003;4.1382050781e+003;4.1480771484e+003;4.1458974609e+003;4.1465385742e+003;4.1384614258e+003;4.1353847656e+003;
2.6328125000e+000;4.0343588867e+003;4.0347436523e+003;4.0444870605e+003;4.0469230957e+003;4.0348718262e+003;4.0433332520e+003;4.0347436523e+003;4.0388461914e+003;4.0378205566e+003;4.0415385742e+003;4.0452563477e+003;4.0469230957e+003;4.0342307129e+003;4.0314101563e+003;
2.6406250000e+000;4.0151281738e+003;4.0193588867e+003;4.0251281738e+003;4.0297436523e+003;4.0183332520e+003;4.0241025391e+003;4.0188461914e+003;4.0221794434e+003;4.0196154785e+003;4.0214101563e+003;4.0241025391e+003;4.0275642090e+003;4.0173076172e+003;4.0141025391e+003;
2.6484375000e+000;3.9564101563e+003;3.9642307129e+003;3.9612819824e+003;3.9882050781e+003;3.9578205566e+003;3.9657692871e+003;3.9621794434e+003;3.9611538086e+003;3.9646154785e+003;3.9611538086e+003;3.9594870605e+003;3.9643588867e+003;3.9514101563e+003;3.9558974609e+003;
2.6562500000e+000;3.9317949219e+003;3.9439743652e+003;3.9356411133e+003;3.9647436523e+003;3.9480769043e+003;3.9524357910e+003;3.9470512695e+003;3.9475642090e+003;3.9476923828e+003;3.9458974609e+003;3.9462819824e+003;3.9379487305e+003;3.9365385742e+003;3.9338461914e+003;
2.6640625000e+000;3.8860256348e+003;3.8953845215e+003;3.8929487305e+003;3.9193588867e+003;3.9020512695e+003;3.9116667480e+003;3.9043588867e+003;3.9066667480e+003;3.9034614258e+003;3.9000000000e+003;3.9006411133e+003;3.8938461914e+003;3.8934614258e+003;3.8910256348e+003;
2.6718750000e+000;4.0624357910e+003;4.0653845215e+003;4.0632050781e+003;4.0906411133e+003;4.0442307129e+003;4.0742307129e+003;4.0732050781e+003;4.0588461914e+003;4.0591025391e+003;4.0597436523e+003;4.0594870605e+003;4.0576923828e+003;4.0584614258e+003;4.0537180176e+003;
2.6796875000e+000;4.2148715820e+003;4.2202563477e+003;4.2092309570e+003;4.2319228516e+003;4.1987177734e+003;4.2119228516e+003;4.2156411133e+003;4.2060258789e+003;4.2093588867e+003;4.2189741211e+003;4.2126923828e+003;4.2080771484e+003;4.2103847656e+003;4.2019228516e+003;
2.6875000000e+000;4.3035898438e+003;4.3094873047e+003;4.2947436523e+003;4.3043588867e+003;4.3155126953e+003;4.2896152344e+003;4.2938461914e+003;4.2998715820e+003;4.3042309570e+003;4.3214101563e+003;4.3082050781e+003;4.3015385742e+003;4.3023076172e+003;4.2925639648e+003;
2.6953125000e+000;4.2750000000e+003;4.2779487305e+003;4.2675639648e+003;4.2744873047e+003;4.2956411133e+003;4.2620512695e+003;4.2650000000e+003;4.2716665039e+003;4.2753847656e+003;4.2898715820e+003;4.2797436523e+003;4.2728203125e+003;4.2737177734e+003;4.2657690430e+003;
2.7031250000e+000;4.2796152344e+003;4.2775639648e+003;4.2706411133e+003;4.2779487305e+003;4.2798715820e+003;4.2596152344e+003;4.2630771484e+003;4.2716665039e+003;4.2739741211e+003;4.2887177734e+003;4.2819228516e+003;4.2755126953e+003;4.2769228516e+003;4.2717949219e+003;
2.7109375000e+000;4.2483334961e+003;4.2464101563e+003;4.2385898438e+003;4.2466665039e+003;4.2458974609e+003;4.2316665039e+003;4.2332050781e+003;4.2421796875e+003;4.2426923828e+003;4.2587177734e+003;4.2498715820e+003;4.2474360352e+003;4.2457690430e+003;4.2411538086e+003;
2.7187500000e+000;4.2123076172e+003;4.2098715820e+003;4.2026923828e+003;4.2112822266e+003;4.2137177734e+003;4.2008974609e+003;4.2010258789e+003;4.2074360352e+003;4.2061538086e+003;4.2212822266e+003;4.2125639648e+003;4.2134614258e+003;4.2093588867e+003;4.2057690430e+003;
2.7265625000e+000;4.2021796875e+003;4.1980771484e+003;4.1942309570e+003;4.2019228516e+003;4.2088461914e+003;4.1935898438e+003;4.1937177734e+003;4.1978203125e+003;4.1958974609e+003;4.2089741211e+003;4.2021796875e+003;4.2034614258e+003;4.1979487305e+003;4.1970512695e+003;
2.7343750000e+000;4.1987177734e+003;4.1937177734e+003;4.2017949219e+003;4.2066665039e+003;4.1925639648e+003;4.1967949219e+003;4.1985898438e+003;4.1996152344e+003;4.2025639648e+003;4.2053847656e+003;4.2051284180e+003;4.2016665039e+003;4.1923076172e+003;4.1978203125e+003;
2.7421875000e+000;4.2196152344e+003;4.2192309570e+003;4.2200000000e+003;4.2264101563e+003;4.2194873047e+003;4.2160258789e+003;4.2203847656e+003;4.2193588867e+003;4.2229487305e+003;4.2256411133e+003;4.2219228516e+003;4.2217949219e+003;4.2166665039e+003;4.2162822266e+003;
2.7500000000e+000;4.1858974609e+003;4.1807690430e+003;4.1864101563e+003;4.1900000000e+003;4.1867949219e+003;4.1828203125e+003;4.1850000000e+003;4.1960258789e+003;4.1939741211e+003;4.2005126953e+003;4.1838461914e+003;4.1910258789e+003;4.1860258789e+003;4.1821796875e+003;
2.7578125000e+000;4.0411538086e+003;4.0325642090e+003;4.0421794434e+003;4.0558974609e+003;4.0196154785e+003;4.0565385742e+003;4.0489743652e+003;4.0496154785e+003;4.0493588867e+003;4.0442307129e+003;4.0410256348e+003;4.0411538086e+003;4.0328205566e+003;4.0350000000e+003;
2.7656250000e+000;4.0566667480e+003;4.0517949219e+003;4.0556411133e+003;4.0762819824e+003;4.0498718262e+003;4.0697436523e+003;4.0614101563e+003;4.0620512695e+003;4.0643588867e+003;4.0593588867e+003;4.0580769043e+003;4.0580769043e+003;4.0498718262e+003;4.0520512695e+003;
2.7734375000e+000;4.0234614258e+003;4.0224357910e+003;4.0207692871e+003;4.0507692871e+003;4.0541025391e+003;4.0302563477e+003;4.0260256348e+003;4.0314101563e+003;4.0325642090e+003;4.0326923828e+003;4.0343588867e+003;4.0347436523e+003;4.0279487305e+003;4.0301281738e+003;
2.7812500000e+000;4.0243588867e+003;4.0289743652e+003;4.0244870605e+003;4.0466667480e+003;4.0215385742e+003;4.0366667480e+003;4.0333332520e+003;4.0310256348e+003;4.0337180176e+003;4.0319230957e+003;4.0289743652e+003;4.0344870605e+003;4.0241025391e+003;4.0335898438e+003;
2.7890625000e+000;4.0551281738e+003;4.0620512695e+003;4.0561538086e+003;4.0787180176e+003;4.0547436523e+003;4.0658974609e+003;4.0644870605e+003;4.0552563477e+003;4.0607692871e+003;4.0582050781e+003;4.0552563477e+003;4.0632050781e+003;4.0523076172e+003;4.0625642090e+003;
2.7968750000e+000;4.1106411133e+003;4.1182050781e+003;4.1112822266e+003;4.1307690430e+003;4.1184614258e+003;4.1144873047e+003;4.1162822266e+003;4.1047436523e+003;4.1121796875e+003;4.1107690430e+003;4.1089741211e+003;4.1158974609e+003;4.1073076172e+003;4.1157690430e+003;
2.8046875000e+000;4.1726923828e+003;4.1747436523e+003;4.1734614258e+003;4.1792309570e+003;4.1855126953e+003;4.1667949219e+003;4.1694873047e+003;4.1716665039e+003;4.1758974609e+003;4.1808974609e+003;4.1764101563e+003;4.1787177734e+003;4.1730771484e+003;4.1769228516e+003;
2.8125000000e+000;4.1207690430e+003;4.1196152344e+003;4.1228203125e+003;4.1285898438e+003;4.1273076172e+003;4.1220512695e+003;4.1216665039e+003;4.1284614258e+003;4.1289741211e+003;4.1346152344e+003;4.1273076172e+003;4.1305126953e+003;4.1223076172e+003;4.1260258789e+003;
2.8203125000e+000;4.0407692871e+003;4.0387180176e+003;4.0429487305e+003;4.0562819824e+003;4.0410256348e+003;4.0537180176e+003;4.0508974609e+003;4.0551281738e+003;4.0528205566e+003;4.0557692871e+003;4.0476923828e+003;4.0529487305e+003;4.0423076172e+003;4.0464101563e+003;
2.8281250000e+000;3.9647436523e+003;3.9635898438e+003;3.9608974609e+003;3.9939743652e+003;3.9796154785e+003;3.9914101563e+003;3.9928205566e+003;3.9902563477e+003;3.9900000000e+003;3.9776923828e+003;3.9728205566e+003;3.9756411133e+003;3.9723076172e+003;3.9721794434e+003;
2.8359375000e+000;3.9819230957e+003;3.9771794434e+003;3.9775642090e+003;4.0092307129e+003;3.9851281738e+003;4.0062819824e+003;4.0080769043e+003;4.0038461914e+003;4.0046154785e+003;3.9941025391e+003;3.9897436523e+003;3.9893588867e+003;3.9875642090e+003;3.9858974609e+003;
2.8437500000e+000;3.9434614258e+003;3.9393588867e+003;3.9419230957e+003;3.9676923828e+003;3.9341025391e+003;3.9715385742e+003;3.9684614258e+003;3.9684614258e+003;3.9676923828e+003;3.9600000000e+003;3.9560256348e+003;3.9530769043e+003;3.9501281738e+003;3.9524357910e+003;
2.8515625000e+000;3.9493588867e+003;3.9443588867e+003;3.9434614258e+003;3.9755129395e+003;3.9823076172e+003;3.9771794434e+003;3.9758974609e+003;3.9658974609e+003;3.9638461914e+003;3.9567949219e+003;3.9576923828e+003;3.9594870605e+003;3.9517949219e+003;3.9569230957e+003;
2.8593750000e+000;3.9889743652e+003;3.9820512695e+003;3.9824357910e+003;4.0132050781e+003;4.0135898438e+003;4.0079487305e+003;4.0078205566e+003;4.0029487305e+003;4.0023076172e+003;3.9984614258e+003;3.9975642090e+003;4.0002563477e+003;3.9902563477e+003;3.9934614258e+003;
2.8671875000e+000;3.9898718262e+003;3.9935898438e+003;3.9908974609e+003;4.0075642090e+003;3.9848718262e+003;3.9998718262e+003;4.0023076172e+003;4.0037180176e+003;4.0001281738e+003;3.9978205566e+003;3.9967949219e+003;3.9991025391e+003;3.9966667480e+003;3.9939743652e+003;
2.8750000000e+000;4.0637180176e+003;4.0680769043e+003;4.0593588867e+003;4.0738461914e+003;4.0603845215e+003;4.0666667480e+003;4.0723076172e+003;4.0724357910e+003;4.0684614258e+003;4.0685898438e+003;4.0675642090e+003;4.0687180176e+003;4.0687180176e+003;4.0662819824e+003;
2.8828125000e+000;4.1803847656e+003;4.1743588867e+003;4.1666665039e+003;4.1829487305e+003;4.1788461914e+003;4.1723076172e+003;4.1801284180e+003;4.1846152344e+003;4.1794873047e+003;4.1862822266e+003;4.1844873047e+003;4.1884614258e+003;4.1767949219e+003;4.1801284180e+003;
2.8906250000e+000;4.1560258789e+003;4.1458974609e+003;4.1446152344e+003;4.1634614258e+003;4.1548715820e+003;4.1493588867e+003;4.1566665039e+003;4.1616665039e+003;4.1544873047e+003;4.1623076172e+003;4.1610258789e+003;4.1671796875e+003;4.1503847656e+003;4.1543588867e+003;
2.8984375000e+000;4.0391025391e+003;4.0351281738e+003;4.0389743652e+003;4.0611538086e+003;4.0473076172e+003;4.0425642090e+003;4.0498718262e+003;4.0556411133e+003;4.0446154785e+003;4.0507692871e+003;4.0392307129e+003;4.0451281738e+003;4.0420512695e+003;4.0365385742e+003;
2.9062500000e+000;4.0010256348e+003;4.0002563477e+003;4.0030769043e+003;4.0260256348e+003;4.0070512695e+003;4.0129487305e+003;4.0180769043e+003;4.0229487305e+003;4.0133332520e+003;4.0158974609e+003;4.0019230957e+003;4.0094870605e+003;4.0057692871e+003;4.0011538086e+003;
2.9140625000e+000;3.9819230957e+003;3.9848718262e+003;3.9871794434e+003;4.0078205566e+003;3.9873076172e+003;4.0083332520e+003;4.0094870605e+003;4.0041025391e+003;3.9970512695e+003;3.9930769043e+003;3.9855129395e+003;3.9967949219e+003;3.9843588867e+003;3.9820512695e+003;
2.9218750000e+000;4.0302563477e+003;4.0329487305e+003;4.0355129395e+003;4.0501281738e+003;4.0417949219e+003;4.0543588867e+003;4.0556411133e+003;4.0485898438e+003;4.0417949219e+003;4.0403845215e+003;4.0342307129e+003;4.0446154785e+003;4.0328205566e+003;4.0275642090e+003;
2.9296875000e+000;4.0158974609e+003;4.0102563477e+003;4.0197436523e+003;4.0282050781e+003;4.0125642090e+003;4.0320512695e+003;4.0335898438e+003;4.0346154785e+003;4.0282050781e+003;4.0352563477e+003;4.0200000000e+003;4.0285898438e+003;4.0246154785e+003;4.0143588867e+003;
2.9375000000e+000;3.9648718262e+003;3.9585898438e+003;3.9670512695e+003;3.9810256348e+003;3.9455129395e+003;3.9816667480e+003;3.9839743652e+003;3.9824357910e+003;3.9775642090e+003;3.9814101563e+003;3.9684614258e+003;3.9765385742e+003;3.9720512695e+003;3.9629487305e+003;
2.9453125000e+000;3.9497436523e+003;3.9451281738e+003;3.9501281738e+003;3.9675642090e+003;3.9221794434e+003;3.9656411133e+003;3.9679487305e+003;3.9648718262e+003;3.9615385742e+003;3.9625642090e+003;3.9538461914e+003;3.9601281738e+003;3.9544870605e+003;3.9461538086e+003;
2.9531250000e+000;3.9630769043e+003;3.9607692871e+003;3.9630769043e+003;3.9805129395e+003;3.9406411133e+003;3.9780769043e+003;3.9789743652e+003;3.9769230957e+003;3.9741025391e+003;3.9747436523e+003;3.9688461914e+003;3.9732050781e+003;3.9662819824e+003;3.9580769043e+003;
2.9609375000e+000;3.9250000000e+003;3.9257692871e+003;3.9233332520e+003;3.9530769043e+003;3.9500000000e+003;3.9455129395e+003;3.9444870605e+003;3.9414101563e+003;3.9337180176e+003;3.9374357910e+003;3.9289743652e+003;3.9303845215e+003;3.9362819824e+003;3.9220512695e+003;
2.9687500000e+000;4.0870512695e+003;4.0934614258e+003;4.0838461914e+003;4.0966665039e+003;4.0912819824e+003;4.0983334961e+003;4.1029487305e+003;4.0878205566e+003;4.0821794434e+003;4.0861538086e+003;4.0844870605e+003;4.0874357910e+003;4.0864101563e+003;4.0771794434e+003;
2.9765625000e+000;4.2555126953e+003;4.2608974609e+003;4.2496152344e+003;4.2520512695e+003;4.2633334961e+003;4.2511538086e+003;4.2644873047e+003;4.2502563477e+003;4.2458974609e+003;4.2561538086e+003;4.2508974609e+003;4.2497436523e+003;4.2529487305e+003;4.2420512695e+003;
2.9843750000e+000;4.3919228516e+003;4.3897436523e+003;4.3776923828e+003;4.3816665039e+003;4.3930771484e+003;4.3694873047e+003;4.3823076172e+003;4.3946152344e+003;4.3908974609e+003;4.4130771484e+003;4.3912822266e+003;4.3841025391e+003;4.3947436523e+003;4.3784614258e+003;
2.9921875000e+000;4.0458974609e+003;4.0414101563e+003;4.0415385742e+003;4.0532050781e+003;4.0444870605e+003;4.0570512695e+003;4.0642307129e+003;4.0606411133e+003;4.0546154785e+003;4.0614101563e+003;4.0500000000e+003;4.0525642090e+003;4.0570512695e+003;4.0382050781e+003;
3.0000000000e+000;4.0793588867e+003;4.0793588867e+003;4.0742307129e+003;4.0848718262e+003;4.0780769043e+003;4.0892307129e+003;4.0979487305e+003;4.0905129395e+003;4.0848718262e+003;4.0926923828e+003;4.0837180176e+003;4.0866667480e+003;4.0898718262e+003;4.0746154785e+003;
3.0078125000e+000;4.1553847656e+003;4.1561538086e+003;4.1416665039e+003;4.1566665039e+003;4.1511538086e+003;4.1611538086e+003;4.1629487305e+003;4.1535898438e+003;4.1485898438e+003;4.1610258789e+003;4.1535898438e+003;4.1558974609e+003;4.1610258789e+003;4.1526923828e+003;
3.0156250000e+000;4.2138461914e+003;4.2106411133e+003;4.1951284180e+003;4.2087177734e+003;4.2079487305e+003;4.2134614258e+003;4.2151284180e+003;4.2047436523e+003;4.2005126953e+003;4.2161538086e+003;4.2084614258e+003;4.2087177734e+003;4.2176923828e+003;4.2088461914e+003;
3.0234375000e+000;4.2842309570e+003;4.2750000000e+003;4.2706411133e+003;4.2720512695e+003;4.2850000000e+003;4.2707690430e+003;4.2816665039e+003;4.2835898438e+003;4.2801284180e+003;4.3029487305e+003;4.2846152344e+003;4.2828203125e+003;4.2902563477e+003;4.2774360352e+003;
3.0312500000e+000;4.2144873047e+003;4.2071796875e+003;4.2028203125e+003;4.2096152344e+003;4.2171796875e+003;4.2065385742e+003;4.2143588867e+003;4.2169228516e+003;4.2134614258e+003;4.2334614258e+003;4.2146152344e+003;4.2135898438e+003;4.2185898438e+003;4.2067949219e+003;
3.0390625000e+000;4.1230771484e+003;4.1201284180e+003;4.1085898438e+003;4.1257690430e+003;4.1111538086e+003;4.1264101563e+003;4.1248715820e+003;4.1242309570e+003;4.1219228516e+003;4.1343588867e+003;4.1196152344e+003;4.1175639648e+003;4.1234614258e+003;4.1143588867e+003;
3.0468750000e+000;4.1023076172e+003;4.0996152344e+003;4.0892307129e+003;4.1042309570e+003;4.0808974609e+003;4.1107690430e+003;4.1066665039e+003;4.1085898438e+003;4.1062822266e+003;4.1160258789e+003;4.1019228516e+003;4.1002563477e+003;4.1058974609e+003;4.0978203125e+003;
3.0546875000e+000;3.8251281738e+003;3.8180769043e+003;3.8246154785e+003;3.8426923828e+003;3.8265385742e+003;3.8578205566e+003;3.8458974609e+003;3.8541025391e+003;3.8551281738e+003;3.8450000000e+003;3.8361538086e+003;3.8417949219e+003;3.8364101563e+003;3.8356411133e+003;
3.0625000000e+000;3.7184614258e+003;3.7126923828e+003;3.7192307129e+003;3.7471794434e+003;3.7333332520e+003;3.7578205566e+003;3.7426923828e+003;3.7478205566e+003;3.7510256348e+003;3.7323076172e+003;3.7271794434e+003;3.7350000000e+003;3.7279487305e+003;3.7301281738e+003;
3.0703125000e+000;3.6453845215e+003;3.6421794434e+003;3.6480769043e+003;3.6847436523e+003;3.6657692871e+003;3.6901281738e+003;3.6734614258e+003;3.6752563477e+003;3.6787180176e+003;3.6543588867e+003;3.6516667480e+003;3.6616667480e+003;3.6548718262e+003;3.6579487305e+003;
3.0781250000e+000;3.6083332520e+003;3.6071794434e+003;3.6148718262e+003;3.6561538086e+003;3.6257692871e+003;3.6571794434e+003;3.6415385742e+003;3.6405129395e+003;3.6417949219e+003;3.6152563477e+003;3.6142307129e+003;3.6256411133e+003;3.6202563477e+003;3.6221794434e+003;
3.0859375000e+000;3.5943588867e+003;3.5865385742e+003;3.6073076172e+003;3.6410256348e+003;3.5920512695e+003;3.6355129395e+003;3.6212819824e+003;3.6256411133e+003;3.6266667480e+003;3.6046154785e+003;3.6067949219e+003;3.6170512695e+003;3.6076923828e+003;3.6100000000e+003;
3.0937500000e+000;3.4102563477e+003;3.4108974609e+003;3.4252563477e+003;3.4794870605e+003;3.4212819824e+003;3.4729487305e+003;3.4548718262e+003;3.4362819824e+003;3.4360256348e+003;3.4152563477e+003;3.4298718262e+003;3.4419230957e+003;3.4314101563e+003;3.4356411133e+003;
3.1015625000e+000;3.4248718262e+003;3.4244870605e+003;3.4387180176e+003;3.4897436523e+003;3.4270512695e+003;3.4841025391e+003;3.4657692871e+003;3.4516667480e+003;3.4497436523e+003;3.4303845215e+003;3.4458974609e+003;3.4550000000e+003;3.4476923828e+003;3.4515385742e+003;
3.1093750000e+000;3.3569230957e+003;3.3460256348e+003;3.3738461914e+003;3.4193588867e+003;3.3261538086e+003;3.4179487305e+003;3.3938461914e+003;3.3816667480e+003;3.3812819824e+003;3.3594870605e+003;3.3746154785e+003;3.3874357910e+003;3.3758974609e+003;3.3851281738e+003;
3.1171875000e+000;3.3278205566e+003;3.3183332520e+003;3.3466667480e+003;3.4023076172e+003;3.3474357910e+003;3.3891025391e+003;3.3675642090e+003;3.3507692871e+003;3.3558974609e+003;3.3351281738e+003;3.3466667480e+003;3.3656411133e+003;3.3500000000e+003;3.3567949219e+003;
3.1250000000e+000;3.2876923828e+003;3.2796154785e+003;3.3074357910e+003;3.3641025391e+003;3.3125642090e+003;3.3539743652e+003;3.3316667480e+003;3.3162819824e+003;3.3196154785e+003;3.2960256348e+003;3.3076923828e+003;3.3288461914e+003;3.3107692871e+003;3.3182050781e+003;
3.1328125000e+000;3.2637180176e+003;3.2538461914e+003;3.2851281738e+003;3.3416667480e+003;3.2664101563e+003;3.3357692871e+003;3.3125642090e+003;3.2983332520e+003;3.3019230957e+003;3.2693588867e+003;3.2810256348e+003;3.3032050781e+003;3.2850000000e+003;3.2943588867e+003;
3.1406250000e+000;3.2726923828e+003;3.2602563477e+003;3.2950000000e+003;3.3524357910e+003;3.2667949219e+003;3.3441025391e+003;3.3210256348e+003;3.3105129395e+003;3.3150000000e+003;3.2800000000e+003;3.2894870605e+003;3.3115385742e+003;3.2917949219e+003;3.3030769043e+003;
3.1484375000e+000;3.2055129395e+003;3.1912819824e+003;3.2283332520e+003;3.2884614258e+003;3.2155129395e+003;3.2820512695e+003;3.2632050781e+003;3.2514101563e+003;3.2505129395e+003;3.2134614258e+003;3.2228205566e+003;3.2492307129e+003;3.2189743652e+003;3.2346154785e+003;
3.1562500000e+000;3.2203845215e+003;3.2076923828e+003;3.2411538086e+003;3.2980769043e+003;3.2307692871e+003;3.2966667480e+003;3.2800000000e+003;3.2678205566e+003;3.2671794434e+003;3.2314101563e+003;3.2388461914e+003;3.2646154785e+003;3.2382050781e+003;3.2505129395e+003;
3.1640625000e+000;3.2415385742e+003;3.2296154785e+003;3.2614101563e+003;3.3158974609e+003;3.2457692871e+003;3.3179487305e+003;3.3008974609e+003;3.2925642090e+003;3.2946154785e+003;3.2600000000e+003;3.2628205566e+003;3.2873076172e+003;3.2652563477e+003;3.2739743652e+003;
3.1718750000e+000;3.2370512695e+003;3.2246154785e+003;3.2576923828e+003;3.3139743652e+003;3.2352563477e+003;3.3162819824e+003;3.2962819824e+003;3.2921794434e+003;3.2978205566e+003;3.2629487305e+003;3.2607692871e+003;3.2848718262e+003;3.2639743652e+003;3.2708974609e+003;
3.1796875000e+000;3.2332050781e+003;3.2212819824e+003;3.2469230957e+003;3.3166667480e+003;3.2228205566e+003;3.3030769043e+003;3.2817949219e+003;3.2733332520e+003;3.2775642090e+003;3.2485898438e+003;3.2492307129e+003;3.2751281738e+003;3.2479487305e+003;3.2578205566e+003;
3.1875000000e+000;3.1820512695e+003;3.1739743652e+003;3.2057692871e+003;3.2653845215e+003;3.1566667480e+003;3.2464101563e+003;3.2246154785e+003;3.2042307129e+003;3.2115385742e+003;3.1885898438e+003;3.1998718262e+003;3.2319230957e+003;3.1989743652e+003;3.2171794434e+003;
3.1953125000e+000;3.2057692871e+003;3.1956411133e+003;3.2282050781e+003;3.2875642090e+003;3.1917949219e+003;3.2630769043e+003;3.2421794434e+003;3.2183332520e+003;3.2261538086e+003;3.2073076172e+003;3.2211538086e+003;3.2500000000e+003;3.2214101563e+003;3.2392307129e+003;
3.2031250000e+000;3.2230769043e+003;3.2060256348e+003;3.2405129395e+003;3.2964101563e+003;3.2294870605e+003;3.2714101563e+003;3.2458974609e+003;3.2261538086e+003;3.2335898438e+003;3.2212819824e+003;3.2325642090e+003;3.2607692871e+003;3.2332050781e+003;3.2501281738e+003;
3.2109375000e+000;3.2082050781e+003;3.1969230957e+003;3.2266667480e+003;3.2833332520e+003;3.2098718262e+003;3.2606411133e+003;3.2344870605e+003;3.2117949219e+003;3.2202563477e+003;3.2051281738e+003;3.2167949219e+003;3.2452563477e+003;3.2178205566e+003;3.2323076172e+003;
3.2187500000e+000;3.2503845215e+003;3.2500000000e+003;3.2660256348e+003;3.3317949219e+003;3.2407692871e+003;3.3051281738e+003;3.2793588867e+003;3.2655129395e+003;3.2679487305e+003;3.2535898438e+003;3.2602563477e+003;3.2879487305e+003;3.2593588867e+003;3.2724357910e+003;
3.2265625000e+000;3.2371794434e+003;3.2308974609e+003;3.2508974609e+003;3.3193588867e+003;3.2297436523e+003;3.2926923828e+003;3.2671794434e+003;3.2537180176e+003;3.2552563477e+003;3.2393588867e+003;3.2441025391e+003;3.2747436523e+003;3.2441025391e+003;3.2597436523e+003;
3.2343750000e+000;3.2578205566e+003;3.2438461914e+003;3.2669230957e+003;3.3329487305e+003;3.2566667480e+003;3.3097436523e+003;3.2879487305e+003;3.2710256348e+003;3.2801281738e+003;3.2591025391e+003;3.2598718262e+003;3.2911538086e+003;3.2605129395e+003;3.2774357910e+003;
3.2421875000e+000;3.2588461914e+003;3.2475642090e+003;3.2684614258e+003;3.3316667480e+003;3.2596154785e+003;3.3110256348e+003;3.2888461914e+003;3.2767949219e+003;3.2878205566e+003;3.2665385742e+003;3.2642307129e+003;3.2938461914e+003;3.2607692871e+003;3.2788461914e+003;
3.2500000000e+000;3.2315385742e+003;3.2328205566e+003;3.2448718262e+003;3.3139743652e+003;3.2328205566e+003;3.2982050781e+003;3.2797436523e+003;3.2548718262e+003;3.2547436523e+003;3.2348718262e+003;3.2323076172e+003;3.2637180176e+003;3.2285898438e+003;3.2501281738e+003;
3.2578125000e+000;3.4230769043e+003;3.4253845215e+003;3.4298718262e+003;3.4958974609e+003;3.4230769043e+003;3.4764101563e+003;3.4669230957e+003;3.4328205566e+003;3.4324357910e+003;3.4201281738e+003;3.4138461914e+003;3.4443588867e+003;3.4188461914e+003;3.4347436523e+003;
3.2656250000e+000;3.9023076172e+003;3.9044870605e+003;3.8976923828e+003;3.9394870605e+003;3.9070512695e+003;3.9124357910e+003;3.9170512695e+003;3.8935898438e+003;3.8983332520e+003;3.9138461914e+003;3.8893588867e+003;3.9144870605e+003;3.8991025391e+003;3.9041025391e+003;
3.2734375000e+000;4.0035898438e+003;4.0055129395e+003;3.9988461914e+003;4.0289743652e+003;4.0097436523e+003;4.0017949219e+003;4.0085898438e+003;3.9951281738e+003;4.0001281738e+003;4.0261538086e+003;3.9975642090e+003;4.0194870605e+003;4.0001281738e+003;4.0046154785e+003;
3.2812500000e+000;4.0180769043e+003;4.0192307129e+003;4.0138461914e+003;4.0375642090e+003;4.0178205566e+003;4.0117949219e+003;4.0200000000e+003;4.0106411133e+003;4.0143588867e+003;4.0453845215e+003;4.0182050781e+003;4.0369230957e+003;4.0133332520e+003;4.0184614258e+003;
3.2890625000e+000;4.4361538086e+003;4.4370512695e+003;4.4123076172e+003;4.4185898438e+003;4.4325639648e+003;4.3906411133e+003;4.4088461914e+003;4.3828203125e+003;4.3926923828e+003;4.4471796875e+003;4.4139741211e+003;4.4239741211e+003;4.4270512695e+003;4.4107690430e+003;
3.2968750000e+000;4.6314101563e+003;4.6362822266e+003;4.6006411133e+003;4.5965385742e+003;4.6403847656e+003;4.5647436523e+003;4.5861538086e+003;4.5666665039e+003;4.5766665039e+003;4.6426923828e+003;4.6061538086e+003;4.6111538086e+003;4.6161538086e+003;4.5984614258e+003;
3.3046875000e+000;4.7724360352e+003;4.7858974609e+003;4.7423076172e+003;4.7233334961e+003;4.7703847656e+003;4.6896152344e+003;4.7066665039e+003;4.7105126953e+003;4.7270512695e+003;4.8056411133e+003;4.7553847656e+003;4.7629487305e+003;4.7605126953e+003;4.7462822266e+003;
3.3125000000e+000;4.9698715820e+003;4.9839741211e+003;4.9358974609e+003;4.8912822266e+003;4.9637177734e+003;4.8750000000e+003;4.9043588867e+003;4.9011538086e+003;4.9082050781e+003;4.9884614258e+003;4.9420512695e+003;4.9456411133e+003;4.9494873047e+003;4.9291025391e+003;
3.3203125000e+000;5.0370512695e+003;5.0496152344e+003;5.0008974609e+003;4.9514101563e+003;5.0296152344e+003;4.9326923828e+003;4.9653847656e+003;4.9753847656e+003;4.9765385742e+003;5.0602563477e+003;5.0093588867e+003;5.0097436523e+003;5.0135898438e+003;4.9923076172e+003;
3.3281250000e+000;4.8396152344e+003;4.8483334961e+003;4.8108974609e+003;4.7746152344e+003;4.8265385742e+003;4.7610258789e+003;4.7882050781e+003;4.8000000000e+003;4.7950000000e+003;4.8667949219e+003;4.8116665039e+003;4.8182050781e+003;4.8207690430e+003;4.7993588867e+003;
3.3359375000e+000;4.8326923828e+003;4.8438461914e+003;4.8033334961e+003;4.7669228516e+003;4.8243588867e+003;4.7596152344e+003;4.7856411133e+003;4.7914101563e+003;4.7882050781e+003;4.8560258789e+003;4.8038461914e+003;4.8123076172e+003;4.8147436523e+003;4.7926923828e+003;
3.3437500000e+000;4.9601284180e+003;4.9757690430e+003;4.9250000000e+003;4.8784614258e+003;4.9576923828e+003;4.8785898438e+003;4.9071796875e+003;4.9128203125e+003;4.9102563477e+003;4.9756411133e+003;4.9311538086e+003;4.9356411133e+003;4.9364101563e+003;4.9124360352e+003;
3.3515625000e+000;5.0100000000e+003;5.0250000000e+003;4.9744873047e+003;4.9251284180e+003;5.0091025391e+003;4.9243588867e+003;4.9558974609e+003;4.9611538086e+003;4.9597436523e+003;5.0253847656e+003;4.9815385742e+003;4.9806411133e+003;4.9867949219e+003;4.9592309570e+003;
3.3593750000e+000;5.0600000000e+003;5.0714101563e+003;5.0260258789e+003;4.9706411133e+003;5.0585898438e+003;4.9700000000e+003;5.0030771484e+003;5.0125639648e+003;5.0162822266e+003;5.0832050781e+003;5.0369228516e+003;5.0307690430e+003;5.0423076172e+003;5.0087177734e+003;
3.3671875000e+000;5.0244873047e+003;5.0337177734e+003;4.9925639648e+003;4.9355126953e+003;5.0137177734e+003;4.9366665039e+003;4.9678203125e+003;4.9784614258e+003;4.9837177734e+003;5.0485898438e+003;5.0029487305e+003;4.9998715820e+003;5.0076923828e+003;4.9735898438e+003;
3.3750000000e+000;4.9741025391e+003;4.9816665039e+003;4.9437177734e+003;4.8866665039e+003;4.9500000000e+003;4.8887177734e+003;4.9179487305e+003;4.9270512695e+003;4.9330771484e+003;4.9938461914e+003;4.9506411133e+003;4.9521796875e+003;4.9562822266e+003;4.9223076172e+003;
3.3828125000e+000;4.9441025391e+003;4.9488461914e+003;4.9150000000e+003;4.8566665039e+003;4.9107690430e+003;4.8562822266e+003;4.8825639648e+003;4.8912822266e+003;4.8985898438e+003;4.9558974609e+003;4.9144873047e+003;4.9183334961e+003;4.9248715820e+003;4.8919228516e+003;
3.3906250000e+000;4.7619228516e+003;4.7600000000e+003;4.7387177734e+003;4.6847436523e+003;4.7683334961e+003;4.6864101563e+003;4.7010258789e+003;4.7147436523e+003;4.7246152344e+003;4.7805126953e+003;4.7371796875e+003;4.7451284180e+003;4.7434614258e+003;4.7221796875e+003;
3.3984375000e+000;4.6606411133e+003;4.6600000000e+003;4.6376923828e+003;4.5938461914e+003;4.6714101563e+003;4.5951284180e+003;4.6069228516e+003;4.6156411133e+003;4.6261538086e+003;4.6766665039e+003;4.6396152344e+003;4.6485898438e+003;4.6441025391e+003;4.6223076172e+003;
3.4062500000e+000;4.6026923828e+003;4.6034614258e+003;4.5774360352e+003;4.5447436523e+003;4.6078203125e+003;4.5446152344e+003;4.5555126953e+003;4.5587177734e+003;4.5697436523e+003;4.6153847656e+003;4.5850000000e+003;4.5923076172e+003;4.5891025391e+003;4.5635898438e+003;
3.4140625000e+000;4.6002563477e+003;4.5998715820e+003;4.5724360352e+003;4.5460258789e+003;4.5947436523e+003;4.5456411133e+003;4.5574360352e+003;4.5561538086e+003;4.5666665039e+003;4.6100000000e+003;4.5838461914e+003;4.5878203125e+003;4.5883334961e+003;4.5589741211e+003;
3.4218750000e+000;4.8724360352e+003;4.8734614258e+003;4.8453847656e+003;4.7993588867e+003;4.8753847656e+003;4.7965385742e+003;4.8187177734e+003;4.8264101563e+003;4.8302563477e+003;4.8841025391e+003;4.8535898438e+003;4.8523076172e+003;4.8544873047e+003;4.8278203125e+003;
3.4296875000e+000;4.6917949219e+003;4.6997436523e+003;4.6694873047e+003;4.6215385742e+003;4.6828203125e+003;4.6462822266e+003;4.6602563477e+003;4.6628203125e+003;4.6601284180e+003;4.7028203125e+003;4.6733334961e+003;4.6737177734e+003;4.6780771484e+003;4.6448715820e+003;
