Time (s);AF3;F7;F3;FC5;T7;P7;O1;O2;P8;T8;FC6;F4;F8;AF4;Sampling Rate
0.0000000000e+000;4.1337177734e+003;4.1397436523e+003;4.1391025391e+003;4.1567949219e+003;4.1326923828e+003;4.1255126953e+003;4.1319228516e+003;4.1267949219e+003;4.1338461914e+003;4.1388461914e+003;4.1419228516e+003;4.1534614258e+003;4.1520512695e+003;4.1492309570e+003;128
7.8125000000e-003;4.1015385742e+003;4.1048715820e+003;4.1074360352e+003;4.1305126953e+003;4.0955129395e+003;4.0897436523e+003;4.0965385742e+003;4.1007690430e+003;4.1083334961e+003;4.1132050781e+003;4.1129487305e+003;4.1234614258e+003;4.1202563477e+003;4.1174360352e+003;
1.5625000000e-002;3.9079487305e+003;3.9097436523e+003;3.9052563477e+003;3.9391025391e+003;3.8962819824e+003;3.8939743652e+003;3.8961538086e+003;3.9034614258e+003;3.9170512695e+003;3.9114101563e+003;3.9173076172e+003;3.9311538086e+003;3.9179487305e+003;3.9273076172e+003;
2.3437500000e-002;3.9533332520e+003;3.9558974609e+003;3.9464101563e+003;3.9757692871e+003;3.9428205566e+003;3.9335898438e+003;3.9380769043e+003;3.9430769043e+003;3.9600000000e+003;3.9500000000e+003;3.9584614258e+003;3.9715385742e+003;3.9615385742e+003;3.9696154785e+003;
3.1250000000e-002;4.1258974609e+003;4.1270512695e+003;4.1189741211e+003;4.1351284180e+003;4.1166665039e+003;4.0982050781e+003;4.1056411133e+003;4.1184614258e+003;4.1351284180e+003;4.1275639648e+003;4.1294873047e+003;4.1405126953e+003;4.1333334961e+003;4.1375639648e+003;
3.9062500000e-002;4.1394873047e+003;4.1378203125e+003;4.1360258789e+003;4.1483334961e+003;4.1302563477e+003;4.1147436523e+003;4.1196152344e+003;4.1380771484e+003;4.1511538086e+003;4.1482050781e+003;4.1429487305e+003;4.1547436523e+003;4.1458974609e+003;4.1510258789e+003;
4.6875000000e-002;4.0801281738e+003;4.0750000000e+003;4.0792307129e+003;4.0920512695e+003;4.0708974609e+003;4.0621794434e+003;4.0628205566e+003;4.0821794434e+003;4.0915385742e+003;4.0917949219e+003;4.0802563477e+003;4.0935898438e+003;4.0842307129e+003;4.0908974609e+003;
5.4687500000e-002;4.0075642090e+003;4.0007692871e+003;3.9944870605e+003;4.0229487305e+003;3.9973076172e+003;4.0076923828e+003;4.0056411133e+003;3.9780769043e+003;3.9765385742e+003;3.9697436523e+003;3.9748718262e+003;3.9915385742e+003;3.9853845215e+003;3.9941025391e+003;
6.2500000000e-002;4.0929487305e+003;4.0884614258e+003;4.0800000000e+003;4.0987177734e+003;4.0867949219e+003;4.0897436523e+003;4.0880769043e+003;4.0616667480e+003;4.0555129395e+003;4.0542307129e+003;4.0584614258e+003;4.0766667480e+003;4.0691025391e+003;4.0791025391e+003;
7.0312500000e-002;4.1205126953e+003;4.1098715820e+003;4.1128203125e+003;4.1116665039e+003;4.1096152344e+003;4.1178203125e+003;4.1151284180e+003;4.0943588867e+003;4.0797436523e+003;4.0867949219e+003;4.0830769043e+003;4.1110258789e+003;4.0957692871e+003;4.1107690430e+003;
7.8125000000e-002;4.1064101563e+003;4.0892307129e+003;4.0998715820e+003;4.0953845215e+003;4.0935898438e+003;4.1048715820e+003;4.1033334961e+003;4.0784614258e+003;4.0651281738e+003;4.0687180176e+003;4.0669230957e+003;4.0962822266e+003;4.0792307129e+003;4.0930769043e+003;
8.5937500000e-002;4.1725639648e+003;4.1507690430e+003;4.1673076172e+003;4.1538461914e+003;4.1697436523e+003;4.1701284180e+003;4.1717949219e+003;4.1432050781e+003;4.1342309570e+003;4.1378203125e+003;4.1348715820e+003;4.1630771484e+003;4.1456411133e+003;4.1530771484e+003;
9.3750000000e-002;4.2250000000e+003;4.2060258789e+003;4.2207690430e+003;4.2056411133e+003;4.2276923828e+003;4.2205126953e+003;4.2226923828e+003;4.1980771484e+003;4.1901284180e+003;4.1993588867e+003;4.1923076172e+003;4.2203847656e+003;4.2011538086e+003;4.2080771484e+003;
1.0156250000e-001;4.2046152344e+003;4.1969228516e+003;4.2069228516e+003;4.1961538086e+003;4.1978203125e+003;4.1866665039e+003;4.1852563477e+003;4.1791025391e+003;4.1789741211e+003;4.1993588867e+003;4.1893588867e+003;4.2185898438e+003;4.1952563477e+003;4.2089741211e+003;
1.0937500000e-001;4.1607690430e+003;4.1557690430e+003;4.1657690430e+003;4.1503847656e+003;4.1491025391e+003;4.1392309570e+003;4.1370512695e+003;4.1329487305e+003;4.1379487305e+003;4.1565385742e+003;4.1491025391e+003;4.1788461914e+003;4.1566665039e+003;4.1700000000e+003;
1.1718750000e-001;4.1705126953e+003;4.1665385742e+003;4.1748715820e+003;4.1500000000e+003;4.1569228516e+003;4.1347436523e+003;4.1414101563e+003;4.1503847656e+003;4.1624360352e+003;4.1725639648e+003;4.1706411133e+003;4.1948715820e+003;4.1735898438e+003;4.1851284180e+003;
1.2500000000e-001;4.1380771484e+003;4.1293588867e+003;4.1412822266e+003;4.1269228516e+003;4.1219228516e+003;4.1028203125e+003;4.1084614258e+003;4.1308974609e+003;4.1433334961e+003;4.1473076172e+003;4.1373076172e+003;4.1585898438e+003;4.1430771484e+003;4.1482050781e+003;
1.3281250000e-001;4.1365385742e+003;4.1285898438e+003;4.1400000000e+003;4.1252563477e+003;4.1219228516e+003;4.1078203125e+003;4.1123076172e+003;4.1292309570e+003;4.1402563477e+003;4.1442309570e+003;4.1301284180e+003;4.1538461914e+003;4.1417949219e+003;4.1451284180e+003;
1.4062500000e-001;4.1643588867e+003;4.1588461914e+003;4.1669228516e+003;4.1510258789e+003;4.1532050781e+003;4.1426923828e+003;4.1466665039e+003;4.1587177734e+003;4.1678203125e+003;4.1734614258e+003;4.1551284180e+003;4.1787177734e+003;4.1703847656e+003;4.1725639648e+003;
1.4843750000e-001;4.2150000000e+003;4.2164101563e+003;4.2157690430e+003;4.2011538086e+003;4.2158974609e+003;4.2085898438e+003;4.2102563477e+003;4.2246152344e+003;4.2306411133e+003;4.2373076172e+003;4.2135898438e+003;4.2279487305e+003;4.2251284180e+003;4.2246152344e+003;
1.5625000000e-001;4.1471796875e+003;4.1571796875e+003;4.1530771484e+003;4.1450000000e+003;4.1769228516e+003;4.1679487305e+003;4.1630771484e+003;4.1630771484e+003;4.1717949219e+003;4.1669228516e+003;4.1480771484e+003;4.1629487305e+003;4.1578203125e+003;4.1584614258e+003;
1.6406250000e-001;4.1714101563e+003;4.1880771484e+003;4.1771796875e+003;4.1720512695e+003;4.2079487305e+003;4.1980771484e+003;4.1915385742e+003;4.1824360352e+003;4.1907690430e+003;4.1892309570e+003;4.1706411133e+003;4.1866665039e+003;4.1820512695e+003;4.1837177734e+003;
1.7187500000e-001;4.2232050781e+003;4.2475639648e+003;4.2275639648e+003;4.2255126953e+003;4.2637177734e+003;4.2530771484e+003;4.2460258789e+003;4.2321796875e+003;4.2375639648e+003;4.2441025391e+003;4.2238461914e+003;4.2379487305e+003;4.2356411133e+003;4.2370512695e+003;
1.7968750000e-001;4.2748715820e+003;4.3055126953e+003;4.2787177734e+003;4.2775639648e+003;4.3180771484e+003;4.3065385742e+003;4.2998715820e+003;4.2856411133e+003;4.2861538086e+003;4.3017949219e+003;4.2794873047e+003;4.2903847656e+003;4.2903847656e+003;4.2907690430e+003;
1.8750000000e-001;4.3352563477e+003;4.3652563477e+003;4.3469228516e+003;4.3305126953e+003;4.3847436523e+003;4.3673076172e+003;4.3655126953e+003;4.3460258789e+003;4.3356411133e+003;4.3633334961e+003;4.3487177734e+003;4.3570512695e+003;4.3525639648e+003;4.3520512695e+003;
1.9531250000e-001;4.3455126953e+003;4.3735898438e+003;4.3584614258e+003;4.3432050781e+003;4.3908974609e+003;4.3755126953e+003;4.3737177734e+003;4.3544873047e+003;4.3417949219e+003;4.3733334961e+003;4.3612822266e+003;4.3705126953e+003;4.3628203125e+003;4.3637177734e+003;
2.0312500000e-001;4.3698715820e+003;4.4035898438e+003;4.3896152344e+003;4.3717949219e+003;4.4024360352e+003;4.3869228516e+003;4.3874360352e+003;4.3751284180e+003;4.3612822266e+003;4.4056411133e+003;4.3892309570e+003;4.4007690430e+003;4.3987177734e+003;4.3928203125e+003;
2.1093750000e-001;4.3534614258e+003;4.3885898438e+003;4.3803847656e+003;4.3448715820e+003;4.3858974609e+003;4.3548715820e+003;4.3632050781e+003;4.3598715820e+003;4.3591025391e+003;4.3973076172e+003;4.3788461914e+003;4.3925639648e+003;4.3882050781e+003;4.3779487305e+003;
2.1875000000e-001;4.3323076172e+003;4.3620512695e+003;4.3606411133e+003;4.3200000000e+003;4.3588461914e+003;4.3291025391e+003;4.3374360352e+003;4.3401284180e+003;4.3421796875e+003;4.3755126953e+003;4.3588461914e+003;4.3742309570e+003;4.3637177734e+003;4.3571796875e+003;
2.2656250000e-001;4.3512822266e+003;4.3841025391e+003;4.3792309570e+003;4.3371796875e+003;4.3689741211e+003;4.3447436523e+003;4.3546152344e+003;4.3758974609e+003;4.3830771484e+003;4.4039741211e+003;4.3815385742e+003;4.3889741211e+003;4.3825639648e+003;4.3794873047e+003;
2.3437500000e-001;4.3689741211e+003;4.4088461914e+003;4.3979487305e+003;4.3566665039e+003;4.3917949219e+003;4.3662822266e+003;4.3778203125e+003;4.4019228516e+003;4.4097436523e+003;4.4283334961e+003;4.4016665039e+003;4.4071796875e+003;4.4042309570e+003;4.4001284180e+003;
2.4218750000e-001;4.3578203125e+003;4.4008974609e+003;4.3908974609e+003;4.3507690430e+003;4.4032050781e+003;4.3696152344e+003;4.3805126953e+003;4.4024360352e+003;4.4121796875e+003;4.4244873047e+003;4.3950000000e+003;4.3983334961e+003;4.3965385742e+003;4.3915385742e+003;
2.5000000000e-001;4.2626923828e+003;4.3105126953e+003;4.3042309570e+003;4.2656411133e+003;4.3207690430e+003;4.3103847656e+003;4.3083334961e+003;4.3184614258e+003;4.3264101563e+003;4.3335898438e+003;4.2980771484e+003;4.3066665039e+003;4.3035898438e+003;4.2997436523e+003;
2.5781250000e-001;4.2373076172e+003;4.2903847656e+003;4.2782050781e+003;4.2428203125e+003;4.2971796875e+003;4.2939741211e+003;4.2879487305e+003;4.2938461914e+003;4.3000000000e+003;4.3071796875e+003;4.2692309570e+003;4.2819228516e+003;4.2779487305e+003;4.2748715820e+003;
2.6562500000e-001;4.2215385742e+003;4.2784614258e+003;4.2593588867e+003;4.2284614258e+003;4.2835898438e+003;4.2824360352e+003;4.2739741211e+003;4.2750000000e+003;4.2806411133e+003;4.2876923828e+003;4.2508974609e+003;4.2642309570e+003;4.2603847656e+003;4.2574360352e+003;
2.7343750000e-001;4.2071796875e+003;4.2639741211e+003;4.2388461914e+003;4.2151284180e+003;4.2743588867e+003;4.2693588867e+003;4.2610258789e+003;4.2467949219e+003;4.2573076172e+003;4.2601284180e+003;4.2371796875e+003;4.2426923828e+003;4.2412822266e+003;4.2376923828e+003;
2.8125000000e-001;4.2070512695e+003;4.2608974609e+003;4.2457690430e+003;4.2183334961e+003;4.2814101563e+003;4.2793588867e+003;4.2705126953e+003;4.2516665039e+003;4.2574360352e+003;4.2611538086e+003;4.2405126953e+003;4.2441025391e+003;4.2491025391e+003;4.2394873047e+003;
2.8906250000e-001;4.2002563477e+003;4.2521796875e+003;4.2401284180e+003;4.2120512695e+003;4.2741025391e+003;4.2761538086e+003;4.2642309570e+003;4.2506411133e+003;4.2505126953e+003;4.2584614258e+003;4.2307690430e+003;4.2393588867e+003;4.2428203125e+003;4.2316665039e+003;
2.9687500000e-001;4.1850000000e+003;4.2330771484e+003;4.2221796875e+003;4.1969228516e+003;4.2535898438e+003;4.2614101563e+003;4.2471796875e+003;4.2356411133e+003;4.2308974609e+003;4.2417949219e+003;4.2108974609e+003;4.2242309570e+003;4.2226923828e+003;4.2128203125e+003;
3.0468750000e-001;4.1674360352e+003;4.2115385742e+003;4.1992309570e+003;4.1794873047e+003;4.2275639648e+003;4.2407690430e+003;4.2264101563e+003;4.2121796875e+003;4.2057690430e+003;4.2166665039e+003;4.1897436523e+003;4.2044873047e+003;4.1970512695e+003;4.1903847656e+003;
3.1250000000e-001;4.1592309570e+003;4.2017949219e+003;4.1811538086e+003;4.1588461914e+003;4.2114101563e+003;4.2044873047e+003;4.2010258789e+003;4.1874360352e+003;4.1902563477e+003;4.1952563477e+003;4.1876923828e+003;4.1944873047e+003;4.1929487305e+003;4.1793588867e+003;
3.2031250000e-001;4.1664101563e+003;4.2070512695e+003;4.1878203125e+003;4.1630771484e+003;4.2167949219e+003;4.2023076172e+003;4.2005126953e+003;4.1912822266e+003;4.1953847656e+003;4.2026923828e+003;4.1912822266e+003;4.2023076172e+003;4.2041025391e+003;4.1879487305e+003;
3.2812500000e-001;4.2464101563e+003;4.2805126953e+003;4.2579487305e+003;4.2424360352e+003;4.2673076172e+003;4.2502563477e+003;4.2525639648e+003;4.2519228516e+003;4.2558974609e+003;4.2693588867e+003;4.2608974609e+003;4.2734614258e+003;4.2776923828e+003;4.2633334961e+003;
3.3593750000e-001;4.3005126953e+003;4.3282050781e+003;4.3196152344e+003;4.2950000000e+003;4.3219228516e+003;4.2932050781e+003;4.3006411133e+003;4.3205126953e+003;4.3293588867e+003;4.3300000000e+003;4.3223076172e+003;4.3320512695e+003;4.3301284180e+003;4.3164101563e+003;
3.4375000000e-001;4.2925639648e+003;4.3201284180e+003;4.3150000000e+003;4.2851284180e+003;4.3176923828e+003;4.2880771484e+003;4.2970512695e+003;4.3211538086e+003;4.3319228516e+003;4.3253847656e+003;4.3164101563e+003;4.3265385742e+003;4.3232050781e+003;4.3084614258e+003;
3.5156250000e-001;4.2071796875e+003;4.2406411133e+003;4.2310258789e+003;4.2019228516e+003;4.2328203125e+003;4.2243588867e+003;4.2319228516e+003;4.2507690430e+003;4.2558974609e+003;4.2406411133e+003;4.2326923828e+003;4.2485898438e+003;4.2391025391e+003;4.2284614258e+003;
3.5937500000e-001;4.1911538086e+003;4.2247436523e+003;4.2138461914e+003;4.1862822266e+003;4.2196152344e+003;4.2129487305e+003;4.2185898438e+003;4.2321796875e+003;4.2357690430e+003;4.2228203125e+003;4.2141025391e+003;4.2305126953e+003;4.2228203125e+003;4.2107690430e+003;
3.6718750000e-001;4.1801284180e+003;4.2071796875e+003;4.1967949219e+003;4.1766665039e+003;4.2150000000e+003;4.2128203125e+003;4.2100000000e+003;4.2110258789e+003;4.2194873047e+003;4.2069228516e+003;4.1956411133e+003;4.2060258789e+003;4.2043588867e+003;4.1866665039e+003;
3.7500000000e-001;4.1670512695e+003;4.1910258789e+003;4.1821796875e+003;4.1664101563e+003;4.2005126953e+003;4.2064101563e+003;4.2001284180e+003;4.1961538086e+003;4.2048715820e+003;4.1882050781e+003;4.1801284180e+003;4.1906411133e+003;4.1838461914e+003;4.1721796875e+003;
3.8281250000e-001;4.1744873047e+003;4.1958974609e+003;4.1864101563e+003;4.1791025391e+003;4.2133334961e+003;4.2212822266e+003;4.2116665039e+003;4.1965385742e+003;4.2042309570e+003;4.1842309570e+003;4.1792309570e+003;4.1911538086e+003;4.1796152344e+003;4.1787177734e+003;
3.9062500000e-001;4.1950000000e+003;4.2180771484e+003;4.2062822266e+003;4.2006411133e+003;4.2397436523e+003;4.2407690430e+003;4.2320512695e+003;4.2125639648e+003;4.2191025391e+003;4.2029487305e+003;4.1957690430e+003;4.2076923828e+003;4.2002563477e+003;4.1976923828e+003;
3.9843750000e-001;4.2094873047e+003;4.2346152344e+003;4.2223076172e+003;4.2148715820e+003;4.2582050781e+003;4.2529487305e+003;4.2458974609e+003;4.2228203125e+003;4.2273076172e+003;4.2173076172e+003;4.2076923828e+003;4.2202563477e+003;4.2183334961e+003;4.2108974609e+003;
4.0625000000e-001;4.2092309570e+003;4.2352563477e+003;4.2252563477e+003;4.2130771484e+003;4.2573076172e+003;4.2502563477e+003;4.2448715820e+003;4.2196152344e+003;4.2208974609e+003;4.2166665039e+003;4.2066665039e+003;4.2206411133e+003;4.2224360352e+003;4.2108974609e+003;
4.1406250000e-001;4.1471796875e+003;4.1667949219e+003;4.1617949219e+003;4.1398715820e+003;4.1741025391e+003;4.1775639648e+003;4.1669228516e+003;4.1511538086e+003;4.1575639648e+003;4.1508974609e+003;4.1487177734e+003;4.1656411133e+003;4.1579487305e+003;4.1579487305e+003;
4.2187500000e-001;4.0962822266e+003;4.0991025391e+003;4.1091025391e+003;4.0820512695e+003;4.1037177734e+003;4.0988461914e+003;4.0979487305e+003;4.0944870605e+003;4.1087177734e+003;4.1051284180e+003;4.1078203125e+003;4.1257690430e+003;4.1117949219e+003;4.1105126953e+003;
4.2968750000e-001;4.0875642090e+003;4.0843588867e+003;4.0983334961e+003;4.0723076172e+003;4.0897436523e+003;4.0834614258e+003;4.0847436523e+003;4.0880769043e+003;4.1043588867e+003;4.0961538086e+003;4.1020512695e+003;4.1179487305e+003;4.1026923828e+003;4.1012822266e+003;
4.3750000000e-001;4.1076923828e+003;4.0976923828e+003;4.1108974609e+003;4.0883332520e+003;4.0976923828e+003;4.0883332520e+003;4.0910256348e+003;4.1078203125e+003;4.1310258789e+003;4.1130771484e+003;4.1162822266e+003;4.1342309570e+003;4.1165385742e+003;4.1158974609e+003;
4.4531250000e-001;4.1808974609e+003;4.1846152344e+003;4.1855126953e+003;4.1624360352e+003;4.1779487305e+003;4.1476923828e+003;4.1546152344e+003;4.1873076172e+003;4.2079487305e+003;4.1958974609e+003;4.1873076172e+003;4.2107690430e+003;4.1894873047e+003;4.1891025391e+003;
4.5312500000e-001;4.1725639648e+003;4.1765385742e+003;4.1794873047e+003;4.1557690430e+003;4.1761538086e+003;4.1461538086e+003;4.1534614258e+003;4.1794873047e+003;4.1988461914e+003;4.1850000000e+003;4.1800000000e+003;4.2017949219e+003;4.1784614258e+003;4.1803847656e+003;
4.6093750000e-001;4.1546152344e+003;4.1556411133e+003;4.1603847656e+003;4.1338461914e+003;4.1644873047e+003;4.1487177734e+003;4.1469228516e+003;4.1589741211e+003;4.1782050781e+003;4.1588461914e+003;4.1541025391e+003;4.1725639648e+003;4.1565385742e+003;4.1570512695e+003;
4.6875000000e-001;4.1520512695e+003;4.1521796875e+003;4.1564101563e+003;4.1283334961e+003;4.1630771484e+003;4.1566665039e+003;4.1475639648e+003;4.1550000000e+003;4.1726923828e+003;4.1533334961e+003;4.1457690430e+003;4.1650000000e+003;4.1529487305e+003;4.1520512695e+003;
4.7656250000e-001;4.1788461914e+003;4.1843588867e+003;4.1834614258e+003;4.1646152344e+003;4.1998715820e+003;4.1993588867e+003;4.1850000000e+003;4.1774360352e+003;4.1851284180e+003;4.1738461914e+003;4.1680771484e+003;4.1916665039e+003;4.1703847656e+003;4.1769228516e+003;
4.8437500000e-001;4.1835898438e+003;4.1926923828e+003;4.1900000000e+003;4.1742309570e+003;4.2091025391e+003;4.2076923828e+003;4.1952563477e+003;4.1832050781e+003;4.1887177734e+003;4.1802563477e+003;4.1747436523e+003;4.1971796875e+003;4.1753847656e+003;4.1821796875e+003;
4.9218750000e-001;4.1788461914e+003;4.1846152344e+003;4.1961538086e+003;4.1675639648e+003;4.2075639648e+003;4.2161538086e+003;4.2051284180e+003;4.1835898438e+003;4.1874360352e+003;4.1807690430e+003;4.1679487305e+003;4.1947436523e+003;4.1801284180e+003;4.1794873047e+003;
5.0000000000e-001;4.1928203125e+003;4.1951284180e+003;4.2108974609e+003;4.1784614258e+003;4.2203847656e+003;4.2274360352e+003;4.2176923828e+003;4.1923076172e+003;4.1970512695e+003;4.1910258789e+003;4.1794873047e+003;4.2073076172e+003;4.1908974609e+003;4.1901284180e+003;
5.0781250000e-001;4.2216665039e+003;4.2274360352e+003;4.2356411133e+003;4.2073076172e+003;4.2465385742e+003;4.2424360352e+003;4.2382050781e+003;4.2051284180e+003;4.2107690430e+003;4.2111538086e+003;4.2062822266e+003;4.2341025391e+003;4.2110258789e+003;4.2141025391e+003;
5.1562500000e-001;4.2182050781e+003;4.2297436523e+003;4.2306411133e+003;4.2053847656e+003;4.2402563477e+003;4.2339741211e+003;4.2310258789e+003;4.1966665039e+003;4.2014101563e+003;4.2065385742e+003;4.2038461914e+003;4.2323076172e+003;4.2071796875e+003;4.2133334961e+003;
5.2343750000e-001;4.2056411133e+003;4.2212822266e+003;4.2175639648e+003;4.1926923828e+003;4.2235898438e+003;4.2192309570e+003;4.2152563477e+003;4.1821796875e+003;4.1858974609e+003;4.1957690430e+003;4.1934614258e+003;4.2216665039e+003;4.1969228516e+003;4.2052563477e+003;
5.3125000000e-001;4.1974360352e+003;4.2125639648e+003;4.2088461914e+003;4.1817949219e+003;4.2112822266e+003;4.2103847656e+003;4.2034614258e+003;4.1735898438e+003;4.1770512695e+003;4.1912822266e+003;4.1884614258e+003;4.2137177734e+003;4.1919228516e+003;4.2002563477e+003;
5.3906250000e-001;4.2260258789e+003;4.2256411133e+003;4.2342309570e+003;4.2082050781e+003;4.2364101563e+003;4.2146152344e+003;4.2098715820e+003;4.2111538086e+003;4.2257690430e+003;4.2358974609e+003;4.2266665039e+003;4.2523076172e+003;4.2282050781e+003;4.2271796875e+003;
5.4687500000e-001;4.1944873047e+003;4.1985898438e+003;4.2039741211e+003;4.1785898438e+003;4.2028203125e+003;4.1767949219e+003;4.1748715820e+003;4.1892309570e+003;4.2046152344e+003;4.2084614258e+003;4.1979487305e+003;4.2256411133e+003;4.2008974609e+003;4.1988461914e+003;
5.5468750000e-001;4.0903845215e+003;4.0957692871e+003;4.0971796875e+003;4.0680769043e+003;4.0816667480e+003;4.0698718262e+003;4.0675642090e+003;4.1021796875e+003;4.1169228516e+003;4.1080771484e+003;4.0984614258e+003;4.1166665039e+003;4.1017949219e+003;4.0969228516e+003;
5.6250000000e-001;4.1448715820e+003;4.1447436523e+003;4.1450000000e+003;4.1225639648e+003;4.1400000000e+003;4.1187177734e+003;4.1192309570e+003;4.1478203125e+003;4.1610258789e+003;4.1580771484e+003;4.1401284180e+003;4.1647436523e+003;4.1496152344e+003;4.1434614258e+003;
5.7031250000e-001;4.1432050781e+003;4.1488461914e+003;4.1462822266e+003;4.1257690430e+003;4.1470512695e+003;4.1262822266e+003;4.1270512695e+003;4.1515385742e+003;4.1619228516e+003;4.1601284180e+003;4.1393588867e+003;4.1662822266e+003;4.1511538086e+003;4.1434614258e+003;
5.7812500000e-001;4.0797436523e+003;4.0864101563e+003;4.0865385742e+003;4.0747436523e+003;4.0965385742e+003;4.1017949219e+003;4.0951281738e+003;4.0884614258e+003;4.0987177734e+003;4.0925642090e+003;4.0791025391e+003;4.0978203125e+003;4.0866667480e+003;4.0826923828e+003;
5.8593750000e-001;4.1230771484e+003;4.1293588867e+003;4.1187177734e+003;4.1171796875e+003;4.1457690430e+003;4.1526923828e+003;4.1366665039e+003;4.1202563477e+003;4.1338461914e+003;4.1329487305e+003;4.1126923828e+003;4.1310258789e+003;4.1201284180e+003;4.1153847656e+003;
5.9375000000e-001;4.0987177734e+003;4.1102563477e+003;4.0970512695e+003;4.0951281738e+003;4.1243588867e+003;4.1348715820e+003;4.1165385742e+003;4.1000000000e+003;4.1087177734e+003;4.1088461914e+003;4.0855129395e+003;4.1111538086e+003;4.0938461914e+003;4.0911538086e+003;
6.0156250000e-001;4.0662819824e+003;4.0784614258e+003;4.0683332520e+003;4.0673076172e+003;4.0919230957e+003;4.1061538086e+003;4.0915385742e+003;4.0594870605e+003;4.0635898438e+003;4.0664101563e+003;4.0505129395e+003;4.0778205566e+003;4.0546154785e+003;4.0606411133e+003;
6.0937500000e-001;4.1010258789e+003;4.1085898438e+003;4.1019228516e+003;4.0998715820e+003;4.1242309570e+003;4.1334614258e+003;4.1224360352e+003;4.0866667480e+003;4.0928205566e+003;4.0997436523e+003;4.0861538086e+003;4.1079487305e+003;4.0891025391e+003;4.0948718262e+003;
6.1718750000e-001;4.1211538086e+003;4.1248715820e+003;4.1219228516e+003;4.1169228516e+003;4.1419228516e+003;4.1465385742e+003;4.1379487305e+003;4.1015385742e+003;4.1088461914e+003;4.1201284180e+003;4.1067949219e+003;4.1246152344e+003;4.1106411133e+003;4.1144873047e+003;
6.2500000000e-001;4.0423076172e+003;4.0420512695e+003;4.0429487305e+003;4.0350000000e+003;4.0587180176e+003;4.0624357910e+003;4.0511538086e+003;4.0220512695e+003;4.0280769043e+003;4.0435898438e+003;4.0265385742e+003;4.0435898438e+003;4.0361538086e+003;4.0358974609e+003;
6.3281250000e-001;3.8129487305e+003;3.8055129395e+003;3.8065385742e+003;3.8138461914e+003;3.8043588867e+003;3.8302563477e+003;3.8137180176e+003;3.7939743652e+003;3.7998718262e+003;3.8110256348e+003;3.7969230957e+003;3.8211538086e+003;3.8071794434e+003;3.8117949219e+003;
6.4062500000e-001;3.7825642090e+003;3.7721794434e+003;3.7737180176e+003;3.7853845215e+003;3.7642307129e+003;3.7947436523e+003;3.7807692871e+003;3.7629487305e+003;3.7723076172e+003;3.7787180176e+003;3.7680769043e+003;3.7919230957e+003;3.7756411133e+003;3.7828205566e+003;
6.4843750000e-001;3.7774357910e+003;3.7648718262e+003;3.7661538086e+003;3.7807692871e+003;3.7539743652e+003;3.7829487305e+003;3.7729487305e+003;3.7591025391e+003;3.7726923828e+003;3.7737180176e+003;3.7646154785e+003;3.7858974609e+003;3.7696154785e+003;3.7779487305e+003;
6.5625000000e-001;3.7844870605e+003;3.7692307129e+003;3.7698718262e+003;3.7867949219e+003;3.7600000000e+003;3.7819230957e+003;3.7758974609e+003;3.7685898438e+003;3.7857692871e+003;3.7817949219e+003;3.7723076172e+003;3.7902563477e+003;3.7750000000e+003;3.7837180176e+003;
6.6406250000e-001;3.7924357910e+003;3.7573076172e+003;3.7597436523e+003;3.7710256348e+003;3.7524357910e+003;3.7565385742e+003;3.7550000000e+003;3.7688461914e+003;3.7879487305e+003;3.7762819824e+003;3.7692307129e+003;3.7848718262e+003;3.7673076172e+003;3.7783332520e+003;
6.7187500000e-001;3.7875642090e+003;3.7511538086e+003;3.7550000000e+003;3.7628205566e+003;3.7428205566e+003;3.7532050781e+003;3.7497436523e+003;3.7629487305e+003;3.7792307129e+003;3.7683332520e+003;3.7603845215e+003;3.7774357910e+003;3.7603845215e+003;3.7719230957e+003;
6.7968750000e-001;3.7998718262e+003;3.7617949219e+003;3.7633332520e+003;3.7788461914e+003;3.7578205566e+003;3.7757692871e+003;3.7693588867e+003;3.7666667480e+003;3.7819230957e+003;3.7703845215e+003;3.7567949219e+003;3.7765385742e+003;3.7651281738e+003;3.7773076172e+003;
6.8750000000e-001;3.8329487305e+003;3.7873076172e+003;3.7864101563e+003;3.8106411133e+003;3.7955129395e+003;3.8187180176e+003;3.8019230957e+003;3.7926923828e+003;3.8137180176e+003;3.8011538086e+003;3.7846154785e+003;3.8042307129e+003;3.7897436523e+003;3.8033332520e+003;
6.9531250000e-001;3.7832050781e+003;3.7351281738e+003;3.7387180176e+003;3.7619230957e+003;3.7460256348e+003;3.7803845215e+003;3.7576923828e+003;3.7473076172e+003;3.7670512695e+003;3.7541025391e+003;3.7357692871e+003;3.7576923828e+003;3.7400000000e+003;3.7551281738e+003;
7.0312500000e-001;3.7028205566e+003;3.6492307129e+003;3.6497436523e+003;3.6784614258e+003;3.6764101563e+003;3.7184614258e+003;3.6958974609e+003;3.6637180176e+003;3.6842307129e+003;3.6641025391e+003;3.6496154785e+003;3.6664101563e+003;3.6556411133e+003;3.6666667480e+003;
7.1093750000e-001;3.6297436523e+003;3.5544870605e+003;3.5719230957e+003;3.5991025391e+003;3.5865385742e+003;3.6296154785e+003;3.6083332520e+003;3.5789743652e+003;3.5912819824e+003;3.5741025391e+003;3.5682050781e+003;3.5902563477e+003;3.5694870605e+003;3.5865385742e+003;
7.1875000000e-001;3.5369230957e+003;3.4539743652e+003;3.4798718262e+003;3.5070512695e+003;3.4789743652e+003;3.5296154785e+003;3.5074357910e+003;3.4791025391e+003;3.4870512695e+003;3.4726923828e+003;3.4716667480e+003;3.4976923828e+003;3.4724357910e+003;3.4941025391e+003;
7.2656250000e-001;3.4584614258e+003;3.3724357910e+003;3.3998718262e+003;3.4301281738e+003;3.3883332520e+003;3.4433332520e+003;3.4219230957e+003;3.3902563477e+003;3.3965385742e+003;3.3843588867e+003;3.3894870605e+003;3.4174357910e+003;3.3903845215e+003;3.4152563477e+003;
7.3437500000e-001;3.4585898438e+003;3.3720512695e+003;3.3879487305e+003;3.4285898438e+003;3.3761538086e+003;3.4234614258e+003;3.4093588867e+003;3.3646154785e+003;3.3728205566e+003;3.3639743652e+003;3.3797436523e+003;3.4074357910e+003;3.3842307129e+003;3.4093588867e+003;
7.4218750000e-001;3.5314101563e+003;3.4412819824e+003;3.4529487305e+003;3.4960256348e+003;3.4437180176e+003;3.4839743652e+003;3.4742307129e+003;3.4269230957e+003;3.4344870605e+003;3.4284614258e+003;3.4457692871e+003;3.4732050781e+003;3.4542307129e+003;3.4765385742e+003;
7.5000000000e-001;3.7214101563e+003;3.6200000000e+003;3.6366667480e+003;3.6707692871e+003;3.6165385742e+003;3.6411538086e+003;3.6374357910e+003;3.6155129395e+003;3.6189743652e+003;3.6229487305e+003;3.6291025391e+003;3.6543588867e+003;3.6424357910e+003;3.6561538086e+003;
7.5781250000e-001;3.7125642090e+003;3.6147436523e+003;3.6312819824e+003;3.6632050781e+003;3.6073076172e+003;3.6273076172e+003;3.6230769043e+003;3.6139743652e+003;3.6207692871e+003;3.6221794434e+003;3.6253845215e+003;3.6516667480e+003;3.6346154785e+003;3.6519230957e+003;
7.6562500000e-001;3.6214101563e+003;3.5319230957e+003;3.5405129395e+003;3.5753845215e+003;3.5180769043e+003;3.5329487305e+003;3.5256411133e+003;3.5320512695e+003;3.5502563477e+003;3.5393588867e+003;3.5405129395e+003;3.5700000000e+003;3.5441025391e+003;3.5689743652e+003;
7.7343750000e-001;3.5738461914e+003;3.4826923828e+003;3.4882050781e+003;3.5270512695e+003;3.4689743652e+003;3.4862819824e+003;3.4773076172e+003;3.4848718262e+003;3.5076923828e+003;3.4901281738e+003;3.4907692871e+003;3.5184614258e+003;3.4958974609e+003;3.5184614258e+003;
7.8125000000e-001;3.5408974609e+003;3.4444870605e+003;3.4501281738e+003;3.4929487305e+003;3.4337180176e+003;3.4561538086e+003;3.4464101563e+003;3.4512819824e+003;3.4770512695e+003;3.4534614258e+003;3.4537180176e+003;3.4770512695e+003;3.4619230957e+003;3.4788461914e+003;
7.8906250000e-001;3.5001281738e+003;3.4024357910e+003;3.4033332520e+003;3.4542307129e+003;3.3989743652e+003;3.4397436523e+003;3.4278205566e+003;3.4123076172e+003;3.4389743652e+003;3.4097436523e+003;3.4000000000e+003;3.4234614258e+003;3.4100000000e+003;3.4261538086e+003;
7.9687500000e-001;3.4784614258e+003;3.3782050781e+003;3.3780769043e+003;3.4289743652e+003;3.3755129395e+003;3.4220512695e+003;3.4066667480e+003;3.3835898438e+003;3.4079487305e+003;3.3812819824e+003;3.3741025391e+003;3.3997436523e+003;3.3820512695e+003;3.4028205566e+003;
8.0468750000e-001;3.5765385742e+003;3.4648718262e+003;3.4696154785e+003;3.5162819824e+003;3.4764101563e+003;3.5194870605e+003;3.4989743652e+003;3.4667949219e+003;3.4894870605e+003;3.4670512695e+003;3.4633332520e+003;3.4820512695e+003;3.4712819824e+003;3.4878205566e+003;
8.1250000000e-001;3.5460256348e+003;3.4333332520e+003;3.4415385742e+003;3.4929487305e+003;3.4497436523e+003;3.4911538086e+003;3.4719230957e+003;3.4388461914e+003;3.4602563477e+003;3.4402563477e+003;3.4312819824e+003;3.4570512695e+003;3.4451281738e+003;3.4576923828e+003;
8.2031250000e-001;3.5005129395e+003;3.3903845215e+003;3.3964101563e+003;3.4512819824e+003;3.4047436523e+003;3.4474357910e+003;3.4289743652e+003;3.3900000000e+003;3.4078205566e+003;3.3887180176e+003;3.3842307129e+003;3.4139743652e+003;3.3975642090e+003;3.4142307129e+003;
8.2812500000e-001;3.5516667480e+003;3.4406411133e+003;3.4424357910e+003;3.5039743652e+003;3.4500000000e+003;3.4832050781e+003;3.4691025391e+003;3.4306411133e+003;3.4329487305e+003;3.4261538086e+003;3.4302563477e+003;3.4585898438e+003;3.4385898438e+003;3.4578205566e+003;
8.3593750000e-001;3.6456411133e+003;3.5233332520e+003;3.5291025391e+003;3.5994870605e+003;3.5301281738e+003;3.5511538086e+003;3.5423076172e+003;3.5080769043e+003;3.5183332520e+003;3.5135898438e+003;3.5155129395e+003;3.5465385742e+003;3.5230769043e+003;3.5400000000e+003;
8.4375000000e-001;3.6826923828e+003;3.5629487305e+003;3.5680769043e+003;3.6334614258e+003;3.5652563477e+003;3.5834614258e+003;3.5778205566e+003;3.5448718262e+003;3.5580769043e+003;3.5528205566e+003;3.5551281738e+003;3.5880769043e+003;3.5626923828e+003;3.5812819824e+003;
8.5156250000e-001;3.7280769043e+003;3.6114101563e+003;3.6170512695e+003;3.6737180176e+003;3.6076923828e+003;3.6246154785e+003;3.6225642090e+003;3.5935898438e+003;3.6064101563e+003;3.6028205566e+003;3.6057692871e+003;3.6398718262e+003;3.6124357910e+003;3.6332050781e+003;
8.5937500000e-001;3.8160256348e+003;3.7002563477e+003;3.7092307129e+003;3.7539743652e+003;3.6923076172e+003;3.7019230957e+003;3.7062819824e+003;3.6905129395e+003;3.7010256348e+003;3.7029487305e+003;3.7035898438e+003;3.7341025391e+003;3.7092307129e+003;3.7278205566e+003;
8.6718750000e-001;3.8452563477e+003;3.7300000000e+003;3.7383332520e+003;3.7835898438e+003;3.7264101563e+003;3.7288461914e+003;3.7339743652e+003;3.7250000000e+003;3.7389743652e+003;3.7403845215e+003;3.7364101563e+003;3.7638461914e+003;3.7441025391e+003;3.7562819824e+003;
8.7500000000e-001;3.8556411133e+003;3.7514101563e+003;3.7562819824e+003;3.7946154785e+003;3.7592307129e+003;3.7547436523e+003;3.7546154785e+003;3.7575642090e+003;3.7825642090e+003;3.7735898438e+003;3.7560256348e+003;3.7853845215e+003;3.7665385742e+003;3.7730769043e+003;
8.8281250000e-001;3.8346154785e+003;3.7329487305e+003;3.7375642090e+003;3.7717949219e+003;3.7384614258e+003;3.7398718262e+003;3.7367949219e+003;3.7397436523e+003;3.7635898438e+003;3.7534614258e+003;3.7362819824e+003;3.7653845215e+003;3.7429487305e+003;3.7544870605e+003;
8.9062500000e-001;3.7503845215e+003;3.6507692871e+003;3.6515385742e+003;3.6916667480e+003;3.6515385742e+003;3.6657692871e+003;3.6550000000e+003;3.6532050781e+003;3.6793588867e+003;3.6661538086e+003;3.6511538086e+003;3.6747436523e+003;3.6523076172e+003;3.6665385742e+003;
8.9843750000e-001;3.6930769043e+003;3.5923076172e+003;3.5928205566e+003;3.6383332520e+003;3.5948718262e+003;3.6141025391e+003;3.5992307129e+003;3.5934614258e+003;3.6238461914e+003;3.6061538086e+003;3.5911538086e+003;3.6146154785e+003;3.5937180176e+003;3.6047436523e+003;
9.0625000000e-001;3.6435898438e+003;3.5402563477e+003;3.5426923828e+003;3.5900000000e+003;3.5467949219e+003;3.5698718262e+003;3.5523076172e+003;3.5416667480e+003;3.5758974609e+003;3.5521794434e+003;3.5374357910e+003;3.5632050781e+003;3.5430769043e+003;3.5506411133e+003;
9.1406250000e-001;3.6247436523e+003;3.5305129395e+003;3.5179487305e+003;3.5691025391e+003;3.5283332520e+003;3.5632050781e+003;3.5424357910e+003;3.5098718262e+003;3.5446154785e+003;3.5212819824e+003;3.5100000000e+003;3.5439743652e+003;3.5179487305e+003;3.5252563477e+003;
9.2187500000e-001;3.6023076172e+003;3.5038461914e+003;3.4946154785e+003;3.5464101563e+003;3.5033332520e+003;3.5401281738e+003;3.5166667480e+003;3.4828205566e+003;3.5169230957e+003;3.4948718262e+003;3.4843588867e+003;3.5217949219e+003;3.4937180176e+003;3.5006411133e+003;
9.2968750000e-001;3.6210256348e+003;3.5082050781e+003;3.5074357910e+003;3.5535898438e+003;3.5162819824e+003;3.5467949219e+003;3.5260256348e+003;3.4853845215e+003;3.5142307129e+003;3.4939743652e+003;3.4953845215e+003;3.5311538086e+003;3.5047436523e+003;3.5097436523e+003;
9.3750000000e-001;3.6708974609e+003;3.5676923828e+003;3.5616667480e+003;3.6020512695e+003;3.5626923828e+003;3.5897436523e+003;3.5779487305e+003;3.5393588867e+003;3.5567949219e+003;3.5451281738e+003;3.5451281738e+003;3.5925642090e+003;3.5580769043e+003;3.5634614258e+003;
9.4531250000e-001;3.6746154785e+003;3.5701281738e+003;3.5685898438e+003;3.6041025391e+003;3.5665385742e+003;3.5912819824e+003;3.5797436523e+003;3.5478205566e+003;3.5584614258e+003;3.5517949219e+003;3.5493588867e+003;3.5994870605e+003;3.5637180176e+003;3.5671794434e+003;
9.5312500000e-001;3.7060256348e+003;3.5952563477e+003;3.6020512695e+003;3.6301281738e+003;3.5928205566e+003;3.6088461914e+003;3.6024357910e+003;3.5773076172e+003;3.5870512695e+003;3.5791025391e+003;3.5917949219e+003;3.6338461914e+003;3.5941025391e+003;3.6006411133e+003;
9.6093750000e-001;3.7279487305e+003;3.6171794434e+003;3.6232050781e+003;3.6514101563e+003;3.6123076172e+003;3.6253845215e+003;3.6233332520e+003;3.5987180176e+003;3.6141025391e+003;3.6020512695e+003;3.6170512695e+003;3.6587180176e+003;3.6182050781e+003;3.6261538086e+003;
9.6875000000e-001;3.7434614258e+003;3.6311538086e+003;3.6403845215e+003;3.6670512695e+003;3.6297436523e+003;3.6358974609e+003;3.6401281738e+003;3.6252563477e+003;3.6426923828e+003;3.6302563477e+003;3.6352563477e+003;3.6812819824e+003;3.6416667480e+003;3.6473076172e+003;
9.7656250000e-001;3.7411538086e+003;3.6308974609e+003;3.6397436523e+003;3.6653845215e+003;3.6315385742e+003;3.6350000000e+003;3.6402563477e+003;3.6289743652e+003;3.6439743652e+003;3.6347436523e+003;3.6342307129e+003;3.6797436523e+003;3.6421794434e+003;3.6452563477e+003;
9.8437500000e-001;3.8188461914e+003;3.7365385742e+003;3.7174357910e+003;3.7426923828e+003;3.7232050781e+003;3.7210256348e+003;3.7243588867e+003;3.7146154785e+003;3.7360256348e+003;3.7283332520e+003;3.7225642090e+003;3.7505129395e+003;3.7257692871e+003;3.7206411133e+003;
9.9218750000e-001;3.8320512695e+003;3.7546154785e+003;3.7328205566e+003;3.7560256348e+003;3.7403845215e+003;3.7402563477e+003;3.7401281738e+003;3.7334614258e+003;3.7584614258e+003;3.7473076172e+003;3.7385898438e+003;3.7662819824e+003;3.7423076172e+003;3.7365385742e+003;
1.0000000000e+000;3.7911538086e+003;3.7016667480e+003;3.7003845215e+003;3.7184614258e+003;3.7080769043e+003;3.7187180176e+003;3.7066667480e+003;3.6976923828e+003;3.7232050781e+003;3.7129487305e+003;3.6929487305e+003;3.7326923828e+003;3.7056411133e+003;3.6991025391e+003;
1.0078125000e+000;3.8000000000e+003;3.7106411133e+003;3.7087180176e+003;3.7292307129e+003;3.7185898438e+003;3.7310256348e+003;3.7169230957e+003;3.7032050781e+003;3.7300000000e+003;3.7243588867e+003;3.7024357910e+003;3.7388461914e+003;3.7142307129e+003;3.7055129395e+003;
1.0156250000e+000;3.8158974609e+003;3.7339743652e+003;3.7252563477e+003;3.7479487305e+003;3.7394870605e+003;3.7562819824e+003;3.7417949219e+003;3.7182050781e+003;3.7478205566e+003;3.7448718262e+003;3.7223076172e+003;3.7511538086e+003;3.7319230957e+003;3.7219230957e+003;
1.0234375000e+000;3.8174357910e+003;3.7366667480e+003;3.7289743652e+003;3.7498718262e+003;3.7460256348e+003;3.7641025391e+003;3.7497436523e+003;3.7215385742e+003;3.7503845215e+003;3.7452563477e+003;3.7230769043e+003;3.7523076172e+003;3.7356411133e+003;3.7257692871e+003;
1.0312500000e+000;3.8282050781e+003;3.7470512695e+003;3.7420512695e+003;3.7615385742e+003;3.7624357910e+003;3.7808974609e+003;3.7652563477e+003;3.7339743652e+003;3.7611538086e+003;3.7544870605e+003;3.7321794434e+003;3.7628205566e+003;3.7482050781e+003;3.7379487305e+003;
1.0390625000e+000;3.8615385742e+003;3.7908974609e+003;3.7861538086e+003;3.7970512695e+003;3.8024357910e+003;3.8167949219e+003;3.8094870605e+003;3.7826923828e+003;3.7957692871e+003;3.7984614258e+003;3.7830769043e+003;3.8121794434e+003;3.7833332520e+003;3.7806411133e+003;
1.0468750000e+000;3.8621794434e+003;3.7943588867e+003;3.7898718262e+003;3.7962819824e+003;3.8056411133e+003;3.8169230957e+003;3.8144870605e+003;3.7867949219e+003;3.7982050781e+003;3.8000000000e+003;3.7880769043e+003;3.8161538086e+003;3.7908974609e+003;3.7856411133e+003;
1.0546875000e+000;3.9883332520e+003;3.9247436523e+003;3.9180769043e+003;3.9189743652e+003;3.9256411133e+003;3.9332050781e+003;3.9293588867e+003;3.9043588867e+003;3.9176923828e+003;3.9244870605e+003;3.9114101563e+003;3.9471794434e+003;3.9201281738e+003;3.9133332520e+003;
1.0625000000e+000;4.1896152344e+003;4.1351284180e+003;4.1310258789e+003;4.1187177734e+003;4.1321796875e+003;4.1074360352e+003;4.1151284180e+003;4.1179487305e+003;4.1212822266e+003;4.1483334961e+003;4.1301284180e+003;4.1680771484e+003;4.1317949219e+003;4.1306411133e+003;
1.0703125000e+000;4.2201284180e+003;4.1706411133e+003;4.1667949219e+003;4.1523076172e+003;4.1673076172e+003;4.1373076172e+003;4.1493588867e+003;4.1560258789e+003;4.1585898438e+003;4.1873076172e+003;4.1700000000e+003;4.2071796875e+003;4.1710258789e+003;4.1684614258e+003;
1.0781250000e+000;4.2492309570e+003;4.2123076172e+003;4.2000000000e+003;4.1758974609e+003;4.1946152344e+003;4.1691025391e+003;4.1746152344e+003;4.1832050781e+003;4.2029487305e+003;4.2261538086e+003;4.1996152344e+003;4.2317949219e+003;4.2034614258e+003;4.1992309570e+003;
1.0859375000e+000;4.2430771484e+003;4.2106411133e+003;4.1961538086e+003;4.1678203125e+003;4.1898715820e+003;4.1651284180e+003;4.1666665039e+003;4.1788461914e+003;4.2016665039e+003;4.2257690430e+003;4.1944873047e+003;4.2244873047e+003;4.1971796875e+003;4.1935898438e+003;
1.0937500000e+000;4.2029487305e+003;4.1780771484e+003;4.1660258789e+003;4.1433334961e+003;4.1637177734e+003;4.1417949219e+003;4.1403847656e+003;4.1523076172e+003;4.1710258789e+003;4.1973076172e+003;4.1670512695e+003;4.1952563477e+003;4.1629487305e+003;4.1612822266e+003;
1.1015625000e+000;4.1805126953e+003;4.1583334961e+003;4.1466665039e+003;4.1343588867e+003;4.1494873047e+003;4.1306411133e+003;4.1282050781e+003;4.1352563477e+003;4.1520512695e+003;4.1758974609e+003;4.1488461914e+003;4.1766665039e+003;4.1424360352e+003;4.1408974609e+003;
1.1093750000e+000;4.0889743652e+003;4.0691025391e+003;4.0576923828e+003;4.0592307129e+003;4.0687180176e+003;4.0612819824e+003;4.0548718262e+003;4.0475642090e+003;4.0724357910e+003;4.0758974609e+003;4.0411538086e+003;4.0760256348e+003;4.0444870605e+003;4.0451281738e+003;
1.1171875000e+000;4.0457692871e+003;4.0260256348e+003;4.0182050781e+003;4.0143588867e+003;4.0282050781e+003;4.0247436523e+003;4.0175642090e+003;4.0067949219e+003;4.0351281738e+003;4.0335898438e+003;3.9942307129e+003;4.0319230957e+003;4.0015385742e+003;4.0039743652e+003;
1.1250000000e+000;3.9788461914e+003;3.9605129395e+003;3.9575642090e+003;3.9534614258e+003;3.9732050781e+003;3.9788461914e+003;3.9652563477e+003;3.9510256348e+003;3.9808974609e+003;3.9789743652e+003;3.9469230957e+003;3.9752563477e+003;3.9464101563e+003;3.9460256348e+003;
1.1328125000e+000;3.9752563477e+003;3.9576923828e+003;3.9525642090e+003;3.9521794434e+003;3.9700000000e+003;3.9785898438e+003;3.9629487305e+003;3.9479487305e+003;3.9761538086e+003;3.9756411133e+003;3.9470512695e+003;3.9746154785e+003;3.9438461914e+003;3.9415385742e+003;
1.1406250000e+000;3.9752563477e+003;3.9606411133e+003;3.9489743652e+003;3.9485898438e+003;3.9648718262e+003;3.9775642090e+003;3.9624357910e+003;3.9441025391e+003;3.9680769043e+003;3.9683332520e+003;3.9388461914e+003;3.9737180176e+003;3.9400000000e+003;3.9392307129e+003;
1.1484375000e+000;3.9780769043e+003;3.9646154785e+003;3.9508974609e+003;3.9485898438e+003;3.9661538086e+003;3.9789743652e+003;3.9647436523e+003;3.9462819824e+003;3.9685898438e+003;3.9682050781e+003;3.9374357910e+003;3.9743588867e+003;3.9407692871e+003;3.9437180176e+003;
1.1562500000e+000;3.9793588867e+003;3.9651281738e+003;3.9515385742e+003;3.9485898438e+003;3.9669230957e+003;3.9793588867e+003;3.9655129395e+003;3.9478205566e+003;3.9687180176e+003;3.9676923828e+003;3.9379487305e+003;3.9746154785e+003;3.9400000000e+003;3.9474357910e+003;
1.1640625000e+000;4.0026923828e+003;3.9801281738e+003;3.9732050781e+003;3.9646154785e+003;3.9853845215e+003;3.9815385742e+003;3.9829487305e+003;3.9573076172e+003;3.9728205566e+003;3.9775642090e+003;3.9591025391e+003;3.9973076172e+003;3.9575642090e+003;3.9585898438e+003;
1.1718750000e+000;4.0124357910e+003;3.9889743652e+003;3.9844870605e+003;3.9715385742e+003;3.9932050781e+003;3.9858974609e+003;3.9885898438e+003;3.9680769043e+003;3.9825642090e+003;3.9900000000e+003;3.9675642090e+003;4.0075642090e+003;3.9710256348e+003;3.9730769043e+003;
1.1796875000e+000;4.0070512695e+003;3.9723076172e+003;3.9879487305e+003;3.9696154785e+003;3.9655129395e+003;3.9711538086e+003;3.9693588867e+003;3.9626923828e+003;3.9758974609e+003;3.9842307129e+003;3.9665385742e+003;4.0108974609e+003;3.9651281738e+003;3.9770512695e+003;
1.1875000000e+000;4.0048718262e+003;3.9728205566e+003;3.9860256348e+003;3.9698718262e+003;3.9647436523e+003;3.9697436523e+003;3.9688461914e+003;3.9658974609e+003;3.9791025391e+003;3.9860256348e+003;3.9691025391e+003;4.0137180176e+003;3.9647436523e+003;3.9762819824e+003;
1.1953125000e+000;3.9820512695e+003;3.9600000000e+003;3.9626923828e+003;3.9508974609e+003;3.9612819824e+003;3.9512819824e+003;3.9543588867e+003;3.9583332520e+003;3.9721794434e+003;3.9765385742e+003;3.9556411133e+003;3.9975642090e+003;3.9512819824e+003;3.9602563477e+003;
1.2031250000e+000;3.9896154785e+003;3.9730769043e+003;3.9766667480e+003;3.9687180176e+003;3.9815385742e+003;3.9729487305e+003;3.9732050781e+003;3.9644870605e+003;3.9864101563e+003;3.9937180176e+003;3.9734614258e+003;3.9985898438e+003;3.9697436523e+003;3.9708974609e+003;
1.2109375000e+000;3.9908974609e+003;3.9760256348e+003;3.9779487305e+003;3.9702563477e+003;3.9798718262e+003;3.9798718262e+003;3.9757692871e+003;3.9652563477e+003;3.9878205566e+003;3.9956411133e+003;3.9738461914e+003;4.0014101563e+003;3.9724357910e+003;3.9726923828e+003;
1.2187500000e+000;3.9729487305e+003;3.9575642090e+003;3.9566667480e+003;3.9538461914e+003;3.9638461914e+003;3.9680769043e+003;3.9558974609e+003;3.9485898438e+003;3.9711538086e+003;3.9769230957e+003;3.9491025391e+003;3.9841025391e+003;3.9529487305e+003;3.9562819824e+003;
1.2265625000e+000;3.9585898438e+003;3.9424357910e+003;3.9403845215e+003;3.9425642090e+003;3.9543588867e+003;3.9560256348e+003;3.9423076172e+003;3.9352563477e+003;3.9582050781e+003;3.9632050781e+003;3.9333332520e+003;3.9683332520e+003;3.9376923828e+003;3.9416667480e+003;
1.2343750000e+000;3.8979487305e+003;3.8878205566e+003;3.8806411133e+003;3.8911538086e+003;3.9012819824e+003;3.9133332520e+003;3.8992307129e+003;3.8756411133e+003;3.9002563477e+003;3.9050000000e+003;3.8798718262e+003;3.9064101563e+003;3.8793588867e+003;3.8841025391e+003;
1.2421875000e+000;3.8966667480e+003;3.8880769043e+003;3.8789743652e+003;3.8875642090e+003;3.8976923828e+003;3.9135898438e+003;3.8979487305e+003;3.8703845215e+003;3.8939743652e+003;3.8997436523e+003;3.8760256348e+003;3.9023076172e+003;3.8770512695e+003;3.8829487305e+003;
1.2500000000e+000;3.9379487305e+003;3.9261538086e+003;3.9196154785e+003;3.9255129395e+003;3.9360256348e+003;3.9401281738e+003;3.9244870605e+003;3.9015385742e+003;3.9165385742e+003;3.9323076172e+003;3.9062819824e+003;3.9393588867e+003;3.9079487305e+003;3.9198718262e+003;
1.2578125000e+000;3.9453845215e+003;3.9311538086e+003;3.9278205566e+003;3.9344870605e+003;3.9455129395e+003;3.9425642090e+003;3.9312819824e+003;3.9089743652e+003;3.9216667480e+003;3.9393588867e+003;3.9146154785e+003;3.9480769043e+003;3.9130769043e+003;3.9257692871e+003;
1.2656250000e+000;3.9652563477e+003;3.9489743652e+003;3.9487180176e+003;3.9532050781e+003;3.9671794434e+003;3.9574357910e+003;3.9539743652e+003;3.9288461914e+003;3.9428205566e+003;3.9569230957e+003;3.9366667480e+003;3.9674357910e+003;3.9355129395e+003;3.9452563477e+003;
1.2734375000e+000;3.9748718262e+003;3.9608974609e+003;3.9600000000e+003;3.9624357910e+003;3.9762819824e+003;3.9678205566e+003;3.9648718262e+003;3.9391025391e+003;3.9544870605e+003;3.9673076172e+003;3.9474357910e+003;3.9779487305e+003;3.9493588867e+003;3.9579487305e+003;
1.2812500000e+000;3.9773076172e+003;3.9670512695e+003;3.9651281738e+003;3.9656411133e+003;3.9785898438e+003;3.9725642090e+003;3.9678205566e+003;3.9437180176e+003;3.9584614258e+003;3.9730769043e+003;3.9528205566e+003;3.9839743652e+003;3.9569230957e+003;3.9652563477e+003;
1.2890625000e+000;3.9724357910e+003;3.9656411133e+003;3.9623076172e+003;3.9614101563e+003;3.9732050781e+003;3.9688461914e+003;3.9619230957e+003;3.9421794434e+003;3.9539743652e+003;3.9730769043e+003;3.9529487305e+003;3.9838461914e+003;3.9569230957e+003;3.9650000000e+003;
1.2968750000e+000;4.0260256348e+003;4.0206411133e+003;4.0061538086e+003;4.0016667480e+003;4.0155129395e+003;3.9966667480e+003;3.9956411133e+003;3.9929487305e+003;4.0046154785e+003;4.0308974609e+003;4.0192307129e+003;4.0384614258e+003;4.0196154785e+003;4.0176923828e+003;
1.3046875000e+000;4.0555129395e+003;4.0523076172e+003;4.0455129395e+003;4.0360256348e+003;4.0421794434e+003;4.0311538086e+003;4.0237180176e+003;4.0296154785e+003;4.0457692871e+003;4.0734614258e+003;4.0533332520e+003;4.0698718262e+003;4.0515385742e+003;4.0525642090e+003;
1.3125000000e+000;4.0133332520e+003;4.0153845215e+003;4.0052563477e+003;4.0003845215e+003;4.0048718262e+003;4.0015385742e+003;3.9907692871e+003;3.9932050781e+003;4.0119230957e+003;4.0343588867e+003;4.0123076172e+003;4.0301281738e+003;4.0119230957e+003;4.0123076172e+003;
1.3203125000e+000;3.9975642090e+003;4.0069230957e+003;3.9862819824e+003;3.9962819824e+003;4.0050000000e+003;4.0003845215e+003;3.9884614258e+003;3.9807692871e+003;4.0073076172e+003;4.0193588867e+003;3.9893588867e+003;4.0132050781e+003;3.9984614258e+003;3.9961538086e+003;
1.3281250000e+000;3.9561538086e+003;3.9565385742e+003;3.9510256348e+003;3.9662819824e+003;3.9738461914e+003;3.9782050781e+003;3.9591025391e+003;3.9579487305e+003;3.9847436523e+003;3.9926923828e+003;3.9544870605e+003;3.9793588867e+003;3.9539743652e+003;3.9588461914e+003;
1.3359375000e+000;3.9101281738e+003;3.9084614258e+003;3.9057692871e+003;3.9261538086e+003;3.9232050781e+003;3.9330769043e+003;3.9164101563e+003;3.9096154785e+003;3.9366667480e+003;3.9400000000e+003;3.9043588867e+003;3.9321794434e+003;3.9047436523e+003;3.9119230957e+003;
1.3437500000e+000;3.8969230957e+003;3.8964101563e+003;3.8846154785e+003;3.9215385742e+003;3.9046154785e+003;3.9115385742e+003;3.9038461914e+003;3.8850000000e+003;3.9123076172e+003;3.9164101563e+003;3.8810256348e+003;3.9066667480e+003;3.8888461914e+003;3.8892307129e+003;
1.3515625000e+000;3.9162819824e+003;3.9174357910e+003;3.8997436523e+003;3.9397436523e+003;3.9238461914e+003;3.9273076172e+003;3.9212819824e+003;3.9010256348e+003;3.9264101563e+003;3.9355129395e+003;3.8998718262e+003;3.9214101563e+003;3.9091025391e+003;3.9050000000e+003;
1.3593750000e+000;3.9382050781e+003;3.9393588867e+003;3.9157692871e+003;3.9432050781e+003;3.9420512695e+003;3.9424357910e+003;3.9303845215e+003;3.9125642090e+003;3.9324357910e+003;3.9470512695e+003;3.9228205566e+003;3.9400000000e+003;3.9252563477e+003;3.9270512695e+003;
1.3671875000e+000;3.9216667480e+003;3.9216667480e+003;3.8985898438e+003;3.9238461914e+003;3.9210256348e+003;3.9238461914e+003;3.9093588867e+003;3.8907692871e+003;3.9088461914e+003;3.9233332520e+003;3.9021794434e+003;3.9228205566e+003;3.9042307129e+003;3.9102563477e+003;
1.3750000000e+000;3.9042307129e+003;3.9030769043e+003;3.8803845215e+003;3.9060256348e+003;3.8975642090e+003;3.9046154785e+003;3.8887180176e+003;3.8674357910e+003;3.8829487305e+003;3.8984614258e+003;3.8788461914e+003;3.9043588867e+003;3.8829487305e+003;3.8912819824e+003;
1.3828125000e+000;3.9101281738e+003;3.9088461914e+003;3.8848718262e+003;3.9119230957e+003;3.8975642090e+003;3.9075642090e+003;3.8916667480e+003;3.8660256348e+003;3.8792307129e+003;3.8978205566e+003;3.8794870605e+003;3.9082050781e+003;3.8864101563e+003;3.8946154785e+003;
1.3906250000e+000;4.2319228516e+003;4.2396152344e+003;4.2056411133e+003;4.2207690430e+003;4.2225639648e+003;4.1850000000e+003;4.1838461914e+003;4.1652563477e+003;4.1748715820e+003;4.2200000000e+003;4.2030771484e+003;4.2208974609e+003;4.2098715820e+003;4.2157690430e+003;
1.3984375000e+000;4.2751284180e+003;4.2842309570e+003;4.2519228516e+003;4.2603847656e+003;4.2669228516e+003;4.2203847656e+003;4.2217949219e+003;4.2102563477e+003;4.2193588867e+003;4.2652563477e+003;4.2491025391e+003;4.2666665039e+003;4.2530771484e+003;4.2610258789e+003;
1.4062500000e+000;4.3197436523e+003;4.3525639648e+003;4.3087177734e+003;4.3087177734e+003;4.3210258789e+003;4.2735898438e+003;4.2688461914e+003;4.2782050781e+003;4.2994873047e+003;4.3432050781e+003;4.3179487305e+003;4.3333334961e+003;4.3176923828e+003;4.3167949219e+003;
1.4140625000e+000;4.2779487305e+003;4.3134614258e+003;4.2803847656e+003;4.2793588867e+003;4.2870512695e+003;4.2407690430e+003;4.2374360352e+003;4.2592309570e+003;4.2892309570e+003;4.3275639648e+003;4.2974360352e+003;4.3101284180e+003;4.2891025391e+003;4.2869228516e+003;
1.4218750000e+000;4.2265385742e+003;4.2578203125e+003;4.2301284180e+003;4.2287177734e+003;4.2379487305e+003;4.1947436523e+003;4.1930771484e+003;4.2121796875e+003;4.2428203125e+003;4.2735898438e+003;4.2466665039e+003;4.2584614258e+003;4.2362822266e+003;4.2371796875e+003;
1.4296875000e+000;4.0884614258e+003;4.1255126953e+003;4.0957692871e+003;4.1047436523e+003;4.1135898438e+003;4.0953845215e+003;4.0928205566e+003;4.0889743652e+003;4.1198715820e+003;4.1319228516e+003;4.1110258789e+003;4.1265385742e+003;4.1057690430e+003;4.1087177734e+003;
1.4375000000e+000;4.0007692871e+003;4.0350000000e+003;4.0048718262e+003;4.0221794434e+003;4.0301281738e+003;4.0257692871e+003;4.0203845215e+003;4.0110256348e+003;4.0332050781e+003;4.0448718262e+003;4.0173076172e+003;4.0360256348e+003;4.0121794434e+003;4.0176923828e+003;
1.4453125000e+000;3.9510256348e+003;3.9780769043e+003;3.9512819824e+003;3.9706411133e+003;3.9805129395e+003;3.9774357910e+003;3.9711538086e+003;3.9598718262e+003;3.9811538086e+003;3.9892307129e+003;3.9623076172e+003;3.9815385742e+003;3.9564101563e+003;3.9632050781e+003;
1.4531250000e+000;3.9111538086e+003;3.9321794434e+003;3.9079487305e+003;3.9293588867e+003;3.9394870605e+003;3.9392307129e+003;3.9317949219e+003;3.9152563477e+003;3.9369230957e+003;3.9411538086e+003;3.9166667480e+003;3.9367949219e+003;3.9116667480e+003;3.9191025391e+003;
1.4609375000e+000;3.9170512695e+003;3.9358974609e+003;3.9110256348e+003;3.9316667480e+003;3.9403845215e+003;3.9489743652e+003;3.9360256348e+003;3.9096154785e+003;3.9321794434e+003;3.9364101563e+003;3.9156411133e+003;3.9350000000e+003;3.9152563477e+003;3.9187180176e+003;
1.4687500000e+000;3.9669230957e+003;3.9823076172e+003;3.9617949219e+003;3.9828205566e+003;3.9884614258e+003;3.9873076172e+003;3.9774357910e+003;3.9488461914e+003;3.9680769043e+003;3.9837180176e+003;3.9601281738e+003;3.9784614258e+003;3.9625642090e+003;3.9608974609e+003;
1.4765625000e+000;3.9530769043e+003;3.9665385742e+003;3.9471794434e+003;3.9721794434e+003;3.9753845215e+003;3.9666667480e+003;3.9605129395e+003;3.9301281738e+003;3.9494870605e+003;3.9661538086e+003;3.9439743652e+003;3.9633332520e+003;3.9475642090e+003;3.9471794434e+003;
1.4843750000e+000;3.9356411133e+003;3.9502563477e+003;3.9282050781e+003;3.9564101563e+003;3.9579487305e+003;3.9457692871e+003;3.9414101563e+003;3.9097436523e+003;3.9296154785e+003;3.9456411133e+003;3.9265385742e+003;3.9464101563e+003;3.9316667480e+003;3.9315385742e+003;
1.4921875000e+000;3.9338461914e+003;3.9558974609e+003;3.9242307129e+003;3.9520512695e+003;3.9537180176e+003;3.9484614258e+003;3.9426923828e+003;3.9098718262e+003;3.9279487305e+003;3.9438461914e+003;3.9306411133e+003;3.9517949219e+003;3.9357692871e+003;3.9350000000e+003;
1.5000000000e+000;3.9732050781e+003;3.9960256348e+003;3.9632050781e+003;3.9884614258e+003;3.9917949219e+003;3.9880769043e+003;3.9830769043e+003;3.9494870605e+003;3.9646154785e+003;3.9838461914e+003;3.9711538086e+003;3.9937180176e+003;3.9739743652e+003;3.9747436523e+003;
1.5078125000e+000;4.0497436523e+003;4.0703845215e+003;4.0387180176e+003;4.0614101563e+003;4.0675642090e+003;4.0583332520e+003;4.0562819824e+003;4.0233332520e+003;4.0360256348e+003;4.0606411133e+003;4.0464101563e+003;4.0691025391e+003;4.0462819824e+003;4.0483332520e+003;
1.5156250000e+000;4.3366665039e+003;4.3675639648e+003;4.3311538086e+003;4.3382050781e+003;4.3621796875e+003;4.3201284180e+003;4.3252563477e+003;4.3310258789e+003;4.3525639648e+003;4.3776923828e+003;4.3493588867e+003;4.3620512695e+003;4.3447436523e+003;4.3316665039e+003;
1.5234375000e+000;4.3412822266e+003;4.3770512695e+003;4.3379487305e+003;4.3476923828e+003;4.3691025391e+003;4.3291025391e+003;4.3323076172e+003;4.3432050781e+003;4.3634614258e+003;4.3878203125e+003;4.3566665039e+003;4.3706411133e+003;4.3508974609e+003;4.3405126953e+003;
1.5312500000e+000;4.3241025391e+003;4.3742309570e+003;4.3310258789e+003;4.3464101563e+003;4.3582050781e+003;4.3280771484e+003;4.3269228516e+003;4.3458974609e+003;4.3587177734e+003;4.3882050781e+003;4.3484614258e+003;4.3625639648e+003;4.3435898438e+003;4.3356411133e+003;
1.5390625000e+000;4.3316665039e+003;4.3850000000e+003;4.3420512695e+003;4.3435898438e+003;4.3833334961e+003;4.3541025391e+003;4.3496152344e+003;4.3487177734e+003;4.3737177734e+003;4.3897436523e+003;4.3582050781e+003;4.3697436523e+003;4.3608974609e+003;4.3376923828e+003;
1.5468750000e+000;4.3838461914e+003;4.4364101563e+003;4.3941025391e+003;4.3920512695e+003;4.4402563477e+003;4.4092309570e+003;4.4035898438e+003;4.3982050781e+003;4.4241025391e+003;4.4412822266e+003;4.4091025391e+003;4.4191025391e+003;4.4105126953e+003;4.3869228516e+003;
1.5546875000e+000;4.5342309570e+003;4.6073076172e+003;4.5591025391e+003;4.5538461914e+003;4.6105126953e+003;4.5796152344e+003;4.5739741211e+003;4.5705126953e+003;4.5834614258e+003;4.6141025391e+003;4.5752563477e+003;4.5824360352e+003;4.5680771484e+003;4.5506411133e+003;
1.5625000000e+000;4.5319228516e+003;4.6298715820e+003;4.5766665039e+003;4.5673076172e+003;4.6289741211e+003;4.6019228516e+003;4.5992309570e+003;4.5856411133e+003;4.5979487305e+003;4.6306411133e+003;4.5898715820e+003;4.6006411133e+003;4.5883334961e+003;4.5625639648e+003;
1.5703125000e+000;4.5578203125e+003;4.6552563477e+003;4.6048715820e+003;4.5896152344e+003;4.6529487305e+003;4.6260258789e+003;4.6250000000e+003;4.6046152344e+003;4.6174360352e+003;4.6514101563e+003;4.6135898438e+003;4.6238461914e+003;4.6105126953e+003;4.5871796875e+003;
1.5781250000e+000;4.6073076172e+003;4.7037177734e+003;4.6552563477e+003;4.6334614258e+003;4.7007690430e+003;4.6685898438e+003;4.6698715820e+003;4.6467949219e+003;4.6592309570e+003;4.6961538086e+003;4.6614101563e+003;4.6687177734e+003;4.6546152344e+003;4.6348715820e+003;
1.5859375000e+000;4.6753847656e+003;4.7807690430e+003;4.7301284180e+003;4.7025639648e+003;4.7794873047e+003;4.7280771484e+003;4.7310258789e+003;4.7161538086e+003;4.7262822266e+003;4.7720512695e+003;4.7389741211e+003;4.7396152344e+003;4.7257690430e+003;4.7067949219e+003;
1.5937500000e+000;4.6270512695e+003;4.7478203125e+003;4.6984614258e+003;4.6691025391e+003;4.7401284180e+003;4.6865385742e+003;4.6848715820e+003;4.6770512695e+003;4.6839741211e+003;4.7362822266e+003;4.7034614258e+003;4.7124360352e+003;4.6973076172e+003;4.6725639648e+003;
1.6015625000e+000;4.6270512695e+003;4.7455126953e+003;4.6993588867e+003;4.6652563477e+003;4.7357690430e+003;4.6823076172e+003;4.6797436523e+003;4.6747436523e+003;4.6805126953e+003;4.7329487305e+003;4.7016665039e+003;4.7142309570e+003;4.6955126953e+003;4.6741025391e+003;
1.6093750000e+000;4.6350000000e+003;4.7492309570e+003;4.7067949219e+003;4.6678203125e+003;4.7392309570e+003;4.6839741211e+003;4.6811538086e+003;4.6806411133e+003;4.6846152344e+003;4.7369228516e+003;4.7084614258e+003;4.7234614258e+003;4.6988461914e+003;4.6823076172e+003;
1.6171875000e+000;4.6462822266e+003;4.7544873047e+003;4.7193588867e+003;4.6758974609e+003;4.7439741211e+003;4.6864101563e+003;4.6857690430e+003;4.6925639648e+003;4.6938461914e+003;4.7465385742e+003;4.7251284180e+003;4.7419228516e+003;4.7071796875e+003;4.6967949219e+003;
1.6250000000e+000;4.6467949219e+003;4.7550000000e+003;4.7219228516e+003;4.6791025391e+003;4.7430771484e+003;4.6865385742e+003;4.6879487305e+003;4.6971796875e+003;4.6984614258e+003;4.7525639648e+003;4.7321796875e+003;4.7469228516e+003;4.7144873047e+003;4.7023076172e+003;
1.6328125000e+000;4.6430771484e+003;4.7533334961e+003;4.7202563477e+003;4.6784614258e+003;4.7403847656e+003;4.6852563477e+003;4.6883334961e+003;4.7002563477e+003;4.7024360352e+003;4.7583334961e+003;4.7362822266e+003;4.7469228516e+003;4.7210258789e+003;4.7051284180e+003;
1.6406250000e+000;4.6337177734e+003;4.7470512695e+003;4.7124360352e+003;4.6708974609e+003;4.7347436523e+003;4.6802563477e+003;4.6842309570e+003;4.6989741211e+003;4.7023076172e+003;4.7593588867e+003;4.7341025391e+003;4.7406411133e+003;4.7210258789e+003;4.7023076172e+003;
1.6484375000e+000;4.6193588867e+003;4.7453847656e+003;4.7076923828e+003;4.6551284180e+003;4.7348715820e+003;4.6760258789e+003;4.6820512695e+003;4.6980771484e+003;4.7087177734e+003;4.7548715820e+003;4.7248715820e+003;4.7302563477e+003;4.7129487305e+003;4.7008974609e+003;
1.6562500000e+000;4.5982050781e+003;4.7315385742e+003;4.6958974609e+003;4.6517949219e+003;4.7288461914e+003;4.6861538086e+003;4.6839741211e+003;4.6911538086e+003;4.7026923828e+003;4.7419228516e+003;4.7124360352e+003;4.7151284180e+003;4.7061538086e+003;4.6865385742e+003;
1.6640625000e+000;4.5926923828e+003;4.7301284180e+003;4.6898715820e+003;4.6482050781e+003;4.7307690430e+003;4.6903847656e+003;4.6873076172e+003;4.6889741211e+003;4.6998715820e+003;4.7397436523e+003;4.7098715820e+003;4.7096152344e+003;4.7028203125e+003;4.6826923828e+003;
1.6718750000e+000;4.5692309570e+003;4.7124360352e+003;4.6693588867e+003;4.6271796875e+003;4.7132050781e+003;4.6825639648e+003;4.6761538086e+003;4.6739741211e+003;4.6835898438e+003;4.7217949219e+003;4.6906411133e+003;4.6860258789e+003;4.6835898438e+003;4.6656411133e+003;
1.6796875000e+000;4.5487177734e+003;4.6905126953e+003;4.6482050781e+003;4.6088461914e+003;4.6907690430e+003;4.6605126953e+003;4.6508974609e+003;4.6434614258e+003;4.6466665039e+003;4.6901284180e+003;4.6570512695e+003;4.6623076172e+003;4.6567949219e+003;4.6419228516e+003;
1.6875000000e+000;4.5524360352e+003;4.6943588867e+003;4.6512822266e+003;4.6087177734e+003;4.6915385742e+003;4.6633334961e+003;4.6532050781e+003;4.6435898438e+003;4.6451284180e+003;4.6896152344e+003;4.6597436523e+003;4.6669228516e+003;4.6557690430e+003;4.6442309570e+003;
1.6953125000e+000;4.5269228516e+003;4.6656411133e+003;4.6278203125e+003;4.5782050781e+003;4.6606411133e+003;4.6341025391e+003;4.6247436523e+003;4.6138461914e+003;4.6143588867e+003;4.6533334961e+003;4.6338461914e+003;4.6443588867e+003;4.6246152344e+003;4.6197436523e+003;
1.7031250000e+000;4.5114101563e+003;4.6496152344e+003;4.6129487305e+003;4.5643588867e+003;4.6455126953e+003;4.6135898438e+003;4.6058974609e+003;4.5965385742e+003;4.5975639648e+003;4.6335898438e+003;4.6174360352e+003;4.6282050781e+003;4.6107690430e+003;4.6050000000e+003;
1.7109375000e+000;4.5187177734e+003;4.6616665039e+003;4.6226923828e+003;4.5796152344e+003;4.6479487305e+003;4.6017949219e+003;4.5998715820e+003;4.5991025391e+003;4.5955126953e+003;4.6396152344e+003;4.6211538086e+003;4.6321796875e+003;4.6267949219e+003;4.6164101563e+003;
1.7187500000e+000;4.5291025391e+003;4.6700000000e+003;4.6335898438e+003;4.5866665039e+003;4.6523076172e+003;4.6074360352e+003;4.6062822266e+003;4.6087177734e+003;4.6017949219e+003;4.6497436523e+003;4.6320512695e+003;4.6428203125e+003;4.6361538086e+003;4.6278203125e+003;
1.7265625000e+000;4.5376923828e+003;4.6666665039e+003;4.6376923828e+003;4.5866665039e+003;4.6497436523e+003;4.6058974609e+003;4.6038461914e+003;4.6119228516e+003;4.6065385742e+003;4.6523076172e+003;4.6416665039e+003;4.6505126953e+003;4.6375639648e+003;4.6321796875e+003;
1.7343750000e+000;4.5323076172e+003;4.6555126953e+003;4.6306411133e+003;4.5808974609e+003;4.6406411133e+003;4.5947436523e+003;4.5926923828e+003;4.6015385742e+003;4.6005126953e+003;4.6419228516e+003;4.6344873047e+003;4.6444873047e+003;4.6285898438e+003;4.6235898438e+003;
1.7421875000e+000;4.5207690430e+003;4.6447436523e+003;4.6264101563e+003;4.5719228516e+003;4.6285898438e+003;4.5834614258e+003;4.5833334961e+003;4.5920512695e+003;4.5941025391e+003;4.6316665039e+003;4.6188461914e+003;4.6362822266e+003;4.6200000000e+003;4.6138461914e+003;
1.7500000000e+000;4.5238461914e+003;4.6498715820e+003;4.6288461914e+003;4.5739741211e+003;4.6337177734e+003;4.5932050781e+003;4.5917949219e+003;4.6026923828e+003;4.6030771484e+003;4.6425639648e+003;4.6251284180e+003;4.6415385742e+003;4.6267949219e+003;4.6191025391e+003;
1.7578125000e+000;4.5169228516e+003;4.6441025391e+003;4.6183334961e+003;4.5671796875e+003;4.6288461914e+003;4.5925639648e+003;4.5893588867e+003;4.6023076172e+003;4.6024360352e+003;4.6429487305e+003;4.6228203125e+003;4.6369228516e+003;4.6221796875e+003;4.6135898438e+003;
1.7656250000e+000;4.4956411133e+003;4.6232050781e+003;4.5929487305e+003;4.5479487305e+003;4.6087177734e+003;4.5753847656e+003;4.5703847656e+003;4.5834614258e+003;4.5856411133e+003;4.6246152344e+003;4.6052563477e+003;4.6173076172e+003;4.6012822266e+003;4.5929487305e+003;
1.7734375000e+000;4.4798715820e+003;4.6016665039e+003;4.5775639648e+003;4.5355126953e+003;4.5944873047e+003;4.5653847656e+003;4.5603847656e+003;4.5661538086e+003;4.5797436523e+003;4.6048715820e+003;4.5824360352e+003;4.5941025391e+003;4.5852563477e+003;4.5716665039e+003;
1.7812500000e+000;4.2329487305e+003;4.3448715820e+003;4.3256411133e+003;4.2973076172e+003;4.3466665039e+003;4.3421796875e+003;4.3288461914e+003;4.3343588867e+003;4.3432050781e+003;4.3574360352e+003;4.3373076172e+003;4.3500000000e+003;4.3301284180e+003;4.3275639648e+003;
1.7890625000e+000;4.1442309570e+003;4.2348715820e+003;4.2362822266e+003;4.2070512695e+003;4.2448715820e+003;4.2491025391e+003;4.2388461914e+003;4.2307690430e+003;4.2420512695e+003;4.2423076172e+003;4.2271796875e+003;4.2473076172e+003;4.2289741211e+003;4.2278203125e+003;
1.7968750000e+000;4.1544873047e+003;4.2410258789e+003;4.2430771484e+003;4.2165385742e+003;4.2496152344e+003;4.2529487305e+003;4.2425639648e+003;4.2373076172e+003;4.2448715820e+003;4.2473076172e+003;4.2325639648e+003;4.2525639648e+003;4.2362822266e+003;4.2355126953e+003;
1.8046875000e+000;4.1502563477e+003;4.2389741211e+003;4.2305126953e+003;4.2139741211e+003;4.2306411133e+003;4.2364101563e+003;4.2228203125e+003;4.2178203125e+003;4.2162822266e+003;4.2344873047e+003;4.2294873047e+003;4.2435898438e+003;4.2258974609e+003;4.2320512695e+003;
1.8125000000e+000;4.1510258789e+003;4.2351284180e+003;4.2264101563e+003;4.2112822266e+003;4.2241025391e+003;4.2297436523e+003;4.2184614258e+003;4.2079487305e+003;4.2073076172e+003;4.2266665039e+003;4.2261538086e+003;4.2416665039e+003;4.2215385742e+003;4.2296152344e+003;
1.8203125000e+000;4.1783334961e+003;4.2507690430e+003;4.2430771484e+003;4.2333334961e+003;4.2417949219e+003;4.2360258789e+003;4.2311538086e+003;4.2166665039e+003;4.2215385742e+003;4.2383334961e+003;4.2428203125e+003;4.2612822266e+003;4.2410258789e+003;4.2476923828e+003;
1.8281250000e+000;4.1876923828e+003;4.2591025391e+003;4.2520512695e+003;4.2455126953e+003;4.2520512695e+003;4.2393588867e+003;4.2346152344e+003;4.2233334961e+003;4.2297436523e+003;4.2464101563e+003;4.2517949219e+003;4.2705126953e+003;4.2516665039e+003;4.2562822266e+003;
1.8359375000e+000;4.1994873047e+003;4.2750000000e+003;4.2715385742e+003;4.2694873047e+003;4.2676923828e+003;4.2533334961e+003;4.2425639648e+003;4.2387177734e+003;4.2423076172e+003;4.2675639648e+003;4.2692309570e+003;4.2866665039e+003;4.2685898438e+003;4.2753847656e+003;
1.8437500000e+000;4.2171796875e+003;4.2920512695e+003;4.2856411133e+003;4.2847436523e+003;4.2826923828e+003;4.2698715820e+003;4.2601284180e+003;4.2575639648e+003;4.2612822266e+003;4.2888461914e+003;4.2870512695e+003;4.3016665039e+003;4.2852563477e+003;4.2917949219e+003;
1.8515625000e+000;4.2207690430e+003;4.2934614258e+003;4.2806411133e+003;4.2793588867e+003;4.2824360352e+003;4.2698715820e+003;4.2634614258e+003;4.2643588867e+003;4.2714101563e+003;4.2932050781e+003;4.2898715820e+003;4.3014101563e+003;4.2874360352e+003;4.2901284180e+003;
1.8593750000e+000;4.1982050781e+003;4.2696152344e+003;4.2571796875e+003;4.2542309570e+003;4.2602563477e+003;4.2484614258e+003;4.2416665039e+003;4.2429487305e+003;4.2519228516e+003;4.2660258789e+003;4.2656411133e+003;4.2782050781e+003;4.2630771484e+003;4.2655126953e+003;
1.8671875000e+000;4.1387177734e+003;4.2138461914e+003;4.1989741211e+003;4.2039741211e+003;4.2103847656e+003;4.2073076172e+003;4.1961538086e+003;4.1969228516e+003;4.2055126953e+003;4.2046152344e+003;4.2024360352e+003;4.2164101563e+003;4.1983334961e+003;4.2021796875e+003;
1.8750000000e+000;4.1238461914e+003;4.2006411133e+003;4.1838461914e+003;4.1939741211e+003;4.1980771484e+003;4.1993588867e+003;4.1894873047e+003;4.1896152344e+003;4.1962822266e+003;4.1955126953e+003;4.1889741211e+003;4.2015385742e+003;4.1838461914e+003;4.1878203125e+003;
1.8828125000e+000;4.1074360352e+003;4.1830771484e+003;4.1667949219e+003;4.1792309570e+003;4.1825639648e+003;4.1878203125e+003;4.1800000000e+003;4.1783334961e+003;4.1834614258e+003;4.1830771484e+003;4.1733334961e+003;4.1842309570e+003;4.1673076172e+003;4.1712822266e+003;
1.8906250000e+000;4.0951281738e+003;4.1664101563e+003;4.1533334961e+003;4.1648715820e+003;4.1701284180e+003;4.1785898438e+003;4.1716665039e+003;4.1676923828e+003;4.1721796875e+003;4.1708974609e+003;4.1598715820e+003;4.1691025391e+003;4.1538461914e+003;4.1565385742e+003;
1.8984375000e+000;4.0917949219e+003;4.1516665039e+003;4.1410258789e+003;4.1574360352e+003;4.1707690430e+003;4.1796152344e+003;4.1688461914e+003;4.1639741211e+003;4.1698715820e+003;4.1594873047e+003;4.1396152344e+003;4.1552563477e+003;4.1443588867e+003;4.1429487305e+003;
1.9062500000e+000;4.0617949219e+003;4.1223076172e+003;4.1103847656e+003;4.1287177734e+003;4.1396152344e+003;4.1485898438e+003;4.1389741211e+003;4.1358974609e+003;4.1406411133e+003;4.1317949219e+003;4.1115385742e+003;4.1284614258e+003;4.1144873047e+003;4.1143588867e+003;
1.9140625000e+000;3.9256411133e+003;3.9721794434e+003;3.9702563477e+003;3.9937180176e+003;3.9783332520e+003;4.0060256348e+003;3.9997436523e+003;3.9897436523e+003;3.9908974609e+003;3.9848718262e+003;3.9776923828e+003;3.9897436523e+003;3.9701281738e+003;3.9739743652e+003;
1.9218750000e+000;4.0370512695e+003;4.0671794434e+003;4.0714101563e+003;4.0916667480e+003;4.0783332520e+003;4.0888461914e+003;4.0807692871e+003;4.0601281738e+003;4.0644870605e+003;4.0720512695e+003;4.0641025391e+003;4.0821794434e+003;4.0675642090e+003;4.0782050781e+003;
1.9296875000e+000;4.1175639648e+003;4.1482050781e+003;4.1520512695e+003;4.1720512695e+003;4.1457690430e+003;4.1403847656e+003;4.1325639648e+003;4.1158974609e+003;4.1269228516e+003;4.1519228516e+003;4.1571796875e+003;4.1706411133e+003;4.1491025391e+003;4.1579487305e+003;
1.9375000000e+000;4.0828205566e+003;4.1112822266e+003;4.1143588867e+003;4.1429487305e+003;4.1050000000e+003;4.1042309570e+003;4.0942307129e+003;4.0791025391e+003;4.0916667480e+003;4.1146152344e+003;4.1179487305e+003;4.1317949219e+003;4.1135898438e+003;4.1202563477e+003;
1.9453125000e+000;4.0447436523e+003;4.0733332520e+003;4.0701281738e+003;4.0998715820e+003;4.0693588867e+003;4.0675642090e+003;4.0529487305e+003;4.0407692871e+003;4.0537180176e+003;4.0684614258e+003;4.0676923828e+003;4.0843588867e+003;4.0698718262e+003;4.0760256348e+003;
1.9531250000e+000;4.0920512695e+003;4.1223076172e+003;4.1158974609e+003;4.1384614258e+003;4.1220512695e+003;4.1135898438e+003;4.0996152344e+003;4.0882050781e+003;4.0991025391e+003;4.1115385742e+003;4.1105126953e+003;4.1293588867e+003;4.1128203125e+003;4.1200000000e+003;
1.9609375000e+000;4.4073076172e+003;4.4469228516e+003;4.4347436523e+003;4.4460258789e+003;4.4492309570e+003;4.4223076172e+003;4.4210258789e+003;4.4232050781e+003;4.4242309570e+003;4.4448715820e+003;4.4362822266e+003;4.4461538086e+003;4.4367949219e+003;4.4320512695e+003;
1.9687500000e+000;4.4370512695e+003;4.4802563477e+003;4.4685898438e+003;4.4832050781e+003;4.4846152344e+003;4.4610258789e+003;4.4623076172e+003;4.4688461914e+003;4.4693588867e+003;4.4896152344e+003;4.4760258789e+003;4.4801284180e+003;4.4743588867e+003;4.4662822266e+003;
1.9765625000e+000;4.4128203125e+003;4.4592309570e+003;4.4483334961e+003;4.4658974609e+003;4.4679487305e+003;4.4517949219e+003;4.4539741211e+003;4.4603847656e+003;4.4617949219e+003;4.4767949219e+003;4.4592309570e+003;4.4597436523e+003;4.4548715820e+003;4.4471796875e+003;
1.9843750000e+000;4.3729487305e+003;4.4214101563e+003;4.4107690430e+003;4.4280771484e+003;4.4360258789e+003;4.4275639648e+003;4.4297436523e+003;4.4326923828e+003;4.4348715820e+003;4.4425639648e+003;4.4214101563e+003;4.4210258789e+003;4.4160258789e+003;4.4097436523e+003;
1.9921875000e+000;4.3678203125e+003;4.4203847656e+003;4.4144873047e+003;4.4191025391e+003;4.4442309570e+003;4.4479487305e+003;4.4443588867e+003;4.4448715820e+003;4.4412822266e+003;4.4494873047e+003;4.4138461914e+003;4.4170512695e+003;4.4170512695e+003;4.4048715820e+003;
2.0000000000e+000;4.3602563477e+003;4.4152563477e+003;4.4087177734e+003;4.4137177734e+003;4.4352563477e+003;4.4385898438e+003;4.4351284180e+003;4.4323076172e+003;4.4298715820e+003;4.4424360352e+003;4.4087177734e+003;4.4093588867e+003;4.4101284180e+003;4.3984614258e+003;
2.0078125000e+000;4.3398715820e+003;4.3894873047e+003;4.3774360352e+003;4.3778203125e+003;4.4061538086e+003;4.4047436523e+003;4.4011538086e+003;4.3888461914e+003;4.3973076172e+003;4.4123076172e+003;4.3839741211e+003;4.3796152344e+003;4.3861538086e+003;4.3712822266e+003;
2.0156250000e+000;4.4020512695e+003;4.4580771484e+003;4.4456411133e+003;4.4447436523e+003;4.4657690430e+003;4.4615385742e+003;4.4566665039e+003;4.4396152344e+003;4.4534614258e+003;4.4743588867e+003;4.4557690430e+003;4.4542309570e+003;4.4596152344e+003;4.4494873047e+003;
2.0234375000e+000;4.4451284180e+003;4.5101284180e+003;4.4892309570e+003;4.4906411133e+003;4.5124360352e+003;4.4996152344e+003;4.4946152344e+003;4.4775639648e+003;4.4929487305e+003;4.5193588867e+003;4.5033334961e+003;4.4997436523e+003;4.5071796875e+003;4.4958974609e+003;
2.0312500000e+000;4.4625639648e+003;4.5289741211e+003;4.5070512695e+003;4.5023076172e+003;4.5288461914e+003;4.5016665039e+003;4.4962822266e+003;4.4851284180e+003;4.4994873047e+003;4.5317949219e+003;4.5146152344e+003;4.5157690430e+003;4.5247436523e+003;4.5084614258e+003;
2.0390625000e+000;4.4382050781e+003;4.5006411133e+003;4.4865385742e+003;4.4783334961e+003;4.4997436523e+003;4.4751284180e+003;4.4698715820e+003;4.4601284180e+003;4.4742309570e+003;4.5034614258e+003;4.4900000000e+003;4.4923076172e+003;4.4985898438e+003;4.4852563477e+003;
2.0468750000e+000;4.4197436523e+003;4.4826923828e+003;4.4776923828e+003;4.4616665039e+003;4.4734614258e+003;4.4521796875e+003;4.4510258789e+003;4.4417949219e+003;4.4558974609e+003;4.4821796875e+003;4.4796152344e+003;4.4830771484e+003;4.4788461914e+003;4.4743588867e+003;
2.0546875000e+000;4.4319228516e+003;4.4970512695e+003;4.4926923828e+003;4.4725639648e+003;4.4835898438e+003;4.4608974609e+003;4.4633334961e+003;4.4547436523e+003;4.4662822266e+003;4.4943588867e+003;4.4953847656e+003;4.5015385742e+003;4.4919228516e+003;4.4897436523e+003;
2.0625000000e+000;4.4651284180e+003;4.5300000000e+003;4.5208974609e+003;4.5014101563e+003;4.5147436523e+003;4.4824360352e+003;4.4875639648e+003;4.4939741211e+003;4.4983334961e+003;4.5300000000e+003;4.5266665039e+003;4.5375639648e+003;4.5282050781e+003;4.5232050781e+003;
2.0703125000e+000;4.4451284180e+003;4.5097436523e+003;4.4996152344e+003;4.4807690430e+003;4.4942309570e+003;4.4625639648e+003;4.4658974609e+003;4.4766665039e+003;4.4820512695e+003;4.5110258789e+003;4.5044873047e+003;4.5134614258e+003;4.5067949219e+003;4.5020512695e+003;
2.0781250000e+000;4.4102563477e+003;4.4764101563e+003;4.4666665039e+003;4.4406411133e+003;4.4620512695e+003;4.4351284180e+003;4.4392309570e+003;4.4487177734e+003;4.4570512695e+003;4.4791025391e+003;4.4687177734e+003;4.4729487305e+003;4.4684614258e+003;4.4664101563e+003;
2.0859375000e+000;4.4206411133e+003;4.4883334961e+003;4.4776923828e+003;4.4505126953e+003;4.4764101563e+003;4.4507690430e+003;4.4575639648e+003;4.4666665039e+003;4.4747436523e+003;4.4951284180e+003;4.4828203125e+003;4.4843588867e+003;4.4806411133e+003;4.4780771484e+003;
2.0937500000e+000;4.3117949219e+003;4.3803847656e+003;4.3708974609e+003;4.3641025391e+003;4.3769228516e+003;4.3634614258e+003;4.3661538086e+003;4.3891025391e+003;4.3929487305e+003;4.4080771484e+003;4.3870512695e+003;4.3839741211e+003;4.3828203125e+003;4.3764101563e+003;
2.1015625000e+000;4.1788461914e+003;4.2435898438e+003;4.2383334961e+003;4.2338461914e+003;4.2414101563e+003;4.2391025391e+003;4.2366665039e+003;4.2569228516e+003;4.2617949219e+003;4.2689741211e+003;4.2492309570e+003;4.2471796875e+003;4.2458974609e+003;4.2400000000e+003;
2.1093750000e+000;4.0520512695e+003;4.1115385742e+003;4.1092309570e+003;4.1024360352e+003;4.1105126953e+003;4.1202563477e+003;4.1138461914e+003;4.1246152344e+003;4.1316665039e+003;4.1284614258e+003;4.1132050781e+003;4.1124360352e+003;4.1105126953e+003;4.1053847656e+003;
2.1171875000e+000;4.0610256348e+003;4.1026923828e+003;4.0966665039e+003;4.1070512695e+003;4.1126923828e+003;4.1308974609e+003;4.1235898438e+003;4.1155126953e+003;4.1296152344e+003;4.1151284180e+003;4.1057690430e+003;4.1123076172e+003;4.1033334961e+003;4.1041025391e+003;
2.1250000000e+000;4.0258974609e+003;4.0610256348e+003;4.0569230957e+003;4.0691025391e+003;4.0719230957e+003;4.0903845215e+003;4.0832050781e+003;4.0743588867e+003;4.0920512695e+003;4.0767949219e+003;4.0641025391e+003;4.0712819824e+003;4.0657692871e+003;4.0651281738e+003;
2.1328125000e+000;4.0279487305e+003;4.0510256348e+003;4.0442307129e+003;4.0576923828e+003;4.0624357910e+003;4.0808974609e+003;4.0783332520e+003;4.0516667480e+003;4.0676923828e+003;4.0524357910e+003;4.0532050781e+003;4.0594870605e+003;4.0575642090e+003;4.0556411133e+003;
2.1406250000e+000;4.0882050781e+003;4.1111538086e+003;4.1028203125e+003;4.1197436523e+003;4.1203847656e+003;4.1341025391e+003;4.1320512695e+003;4.1047436523e+003;4.1151284180e+003;4.1064101563e+003;4.1130771484e+003;4.1192309570e+003;4.1146152344e+003;4.1148715820e+003;
2.1484375000e+000;4.1600000000e+003;4.1853847656e+003;4.1746152344e+003;4.1988461914e+003;4.1853847656e+003;4.1923076172e+003;4.1875639648e+003;4.1647436523e+003;4.1637177734e+003;4.1716665039e+003;4.1780771484e+003;4.1866665039e+003;4.1783334961e+003;4.1821796875e+003;
2.1562500000e+000;4.1071796875e+003;4.1310258789e+003;4.1214101563e+003;4.1369228516e+003;4.1248715820e+003;4.1294873047e+003;4.1226923828e+003;4.0967949219e+003;4.0894870605e+003;4.0980771484e+003;4.1101284180e+003;4.1239741211e+003;4.1117949219e+003;4.1205126953e+003;
2.1640625000e+000;4.0891025391e+003;4.1098715820e+003;4.1042309570e+003;4.1169228516e+003;4.1048715820e+003;4.1076923828e+003;4.1008974609e+003;4.0803845215e+003;4.0758974609e+003;4.0797436523e+003;4.0966665039e+003;4.1053847656e+003;4.0955129395e+003;4.1026923828e+003;
2.1718750000e+000;4.0008974609e+003;4.0124357910e+003;4.0144870605e+003;4.0275642090e+003;4.0060256348e+003;4.0120512695e+003;4.0069230957e+003;3.9958974609e+003;3.9951281738e+003;3.9917949219e+003;4.0107692871e+003;4.0202563477e+003;4.0115385742e+003;4.0156411133e+003;
2.1796875000e+000;3.9530769043e+003;3.9596154785e+003;3.9632050781e+003;3.9797436523e+003;3.9514101563e+003;3.9601281738e+003;3.9561538086e+003;3.9471794434e+003;3.9453845215e+003;3.9407692871e+003;3.9579487305e+003;3.9744870605e+003;3.9621794434e+003;3.9665385742e+003;
2.1875000000e+000;3.9379487305e+003;3.9303845215e+003;3.9398718262e+003;3.9601281738e+003;3.9237180176e+003;3.9320512695e+003;3.9329487305e+003;3.9316667480e+003;3.9257692871e+003;3.9176923828e+003;3.9306411133e+003;3.9619230957e+003;3.9302563477e+003;3.9415385742e+003;
2.1953125000e+000;3.9515385742e+003;3.9391025391e+003;3.9519230957e+003;3.9673076172e+003;3.9335898438e+003;3.9443588867e+003;3.9476923828e+003;3.9471794434e+003;3.9435898438e+003;3.9305129395e+003;3.9443588867e+003;3.9751281738e+003;3.9397436523e+003;3.9519230957e+003;
2.2031250000e+000;3.9591025391e+003;3.9430769043e+003;3.9534614258e+003;3.9635898438e+003;3.9374357910e+003;3.9580769043e+003;3.9639743652e+003;3.9623076172e+003;3.9628205566e+003;3.9417949219e+003;3.9551281738e+003;3.9805129395e+003;3.9498718262e+003;3.9558974609e+003;
2.2109375000e+000;3.9569230957e+003;3.9433332520e+003;3.9482050781e+003;3.9638461914e+003;3.9380769043e+003;3.9620512695e+003;3.9674357910e+003;3.9670512695e+003;3.9664101563e+003;3.9458974609e+003;3.9551281738e+003;3.9776923828e+003;3.9525642090e+003;3.9532050781e+003;
2.2187500000e+000;3.9825642090e+003;3.9767949219e+003;3.9714101563e+003;4.0135898438e+003;3.9800000000e+003;3.9996154785e+003;4.0006411133e+003;4.0023076172e+003;3.9984614258e+003;3.9850000000e+003;3.9811538086e+003;3.9942307129e+003;3.9789743652e+003;3.9708974609e+003;
2.2265625000e+000;4.0048718262e+003;3.9989743652e+003;3.9926923828e+003;4.0355129395e+003;4.0044870605e+003;4.0211538086e+003;4.0220512695e+003;4.0191025391e+003;4.0176923828e+003;4.0051281738e+003;4.0005129395e+003;4.0103845215e+003;3.9960256348e+003;3.9885898438e+003;
2.2343750000e+000;4.0197436523e+003;4.0112819824e+003;4.0066667480e+003;4.0456411133e+003;4.0193588867e+003;4.0353845215e+003;4.0362819824e+003;4.0271794434e+003;4.0275642090e+003;4.0157692871e+003;4.0110256348e+003;4.0206411133e+003;4.0044870605e+003;3.9993588867e+003;
2.2421875000e+000;4.1187177734e+003;4.1044873047e+003;4.1065385742e+003;4.1282050781e+003;4.1276923828e+003;4.1382050781e+003;4.1347436523e+003;4.1044873047e+003;4.1017949219e+003;4.0912819824e+003;4.0876923828e+003;4.1062822266e+003;4.0915385742e+003;4.0787180176e+003;
2.2500000000e+000;4.1562822266e+003;4.1460258789e+003;4.1419228516e+003;4.1612822266e+003;4.1657690430e+003;4.1726923828e+003;4.1689741211e+003;4.1380771484e+003;4.1379487305e+003;4.1291025391e+003;4.1270512695e+003;4.1447436523e+003;4.1293588867e+003;4.1141025391e+003;
2.2578125000e+000;3.9456411133e+003;3.9189743652e+003;3.9367949219e+003;3.9473076172e+003;3.9351281738e+003;3.9591025391e+003;3.9517949219e+003;3.9224357910e+003;3.9241025391e+003;3.9108974609e+003;3.9166667480e+003;3.9498718262e+003;3.9142307129e+003;3.9192307129e+003;
2.2656250000e+000;3.8603845215e+003;3.8266667480e+003;3.8517949219e+003;3.8637180176e+003;3.8444870605e+003;3.8711538086e+003;3.8634614258e+003;3.8330769043e+003;3.8325642090e+003;3.8174357910e+003;3.8266667480e+003;3.8650000000e+003;3.8251281738e+003;3.8371794434e+003;
2.2734375000e+000;3.8489743652e+003;3.8120512695e+003;3.8325642090e+003;3.8489743652e+003;3.8252563477e+003;3.8457692871e+003;3.8405129395e+003;3.8067949219e+003;3.8019230957e+003;3.7912819824e+003;3.8057692871e+003;3.8476923828e+003;3.8053845215e+003;3.8200000000e+003;
2.2812500000e+000;3.9660256348e+003;3.9214101563e+003;3.9352563477e+003;3.9635898438e+003;3.9347436523e+003;3.9410256348e+003;3.9414101563e+003;3.9267949219e+003;3.9298718262e+003;3.9244870605e+003;3.9352563477e+003;3.9610256348e+003;3.9339743652e+003;3.9430769043e+003;
2.2890625000e+000;3.9576923828e+003;3.9158974609e+003;3.9269230957e+003;3.9585898438e+003;3.9317949219e+003;3.9348718262e+003;3.9334614258e+003;3.9257692871e+003;3.9330769043e+003;3.9234614258e+003;3.9334614258e+003;3.9562819824e+003;3.9302563477e+003;3.9408974609e+003;
2.2968750000e+000;3.9724357910e+003;3.9378205566e+003;3.9358974609e+003;3.9665385742e+003;3.9507692871e+003;3.9474357910e+003;3.9475642090e+003;3.9462819824e+003;3.9567949219e+003;3.9469230957e+003;3.9520512695e+003;3.9724357910e+003;3.9482050781e+003;3.9564101563e+003;
2.3046875000e+000;4.0024357910e+003;3.9669230957e+003;3.9620512695e+003;3.9893588867e+003;3.9761538086e+003;3.9748718262e+003;3.9778205566e+003;3.9782050781e+003;3.9862819824e+003;3.9807692871e+003;3.9797436523e+003;3.9994870605e+003;3.9784614258e+003;3.9823076172e+003;
2.3125000000e+000;4.0597436523e+003;4.0158974609e+003;4.0273076172e+003;4.0482050781e+003;4.0279487305e+003;4.0388461914e+003;4.0491025391e+003;4.0452563477e+003;4.0529487305e+003;4.0433332520e+003;4.0325642090e+003;4.0532050781e+003;4.0358974609e+003;4.0335898438e+003;
2.3203125000e+000;4.0685898438e+003;4.0266667480e+003;4.0424357910e+003;4.0600000000e+003;4.0441025391e+003;4.0511538086e+003;4.0606411133e+003;4.0542307129e+003;4.0662819824e+003;4.0497436523e+003;4.0410256348e+003;4.0606411133e+003;4.0432050781e+003;4.0400000000e+003;
2.3281250000e+000;4.0951281738e+003;4.0583332520e+003;4.0733332520e+003;4.0816667480e+003;4.0796154785e+003;4.0830769043e+003;4.0855129395e+003;4.0769230957e+003;4.0929487305e+003;4.0711538086e+003;4.0643588867e+003;4.0803845215e+003;4.0634614258e+003;4.0588461914e+003;
2.3359375000e+000;4.1056411133e+003;4.0694870605e+003;4.0825642090e+003;4.0883332520e+003;4.0882050781e+003;4.0973076172e+003;4.0965385742e+003;4.0850000000e+003;4.0993588867e+003;4.0811538086e+003;4.0723076172e+003;4.0889743652e+003;4.0706411133e+003;4.0675642090e+003;
2.3437500000e+000;4.0457692871e+003;4.0146154785e+003;4.0225642090e+003;4.0432050781e+003;4.0356411133e+003;4.0562819824e+003;4.0507692871e+003;4.0266667480e+003;4.0370512695e+003;4.0279487305e+003;4.0162819824e+003;4.0396154785e+003;4.0116667480e+003;4.0151281738e+003;
2.3515625000e+000;3.9926923828e+003;3.9620512695e+003;3.9702563477e+003;3.9997436523e+003;3.9900000000e+003;4.0079487305e+003;4.0017949219e+003;3.9733332520e+003;3.9856411133e+003;3.9728205566e+003;3.9669230957e+003;3.9900000000e+003;3.9602563477e+003;3.9648718262e+003;
2.3593750000e+000;3.9552563477e+003;3.9219230957e+003;3.9315385742e+003;3.9673076172e+003;3.9557692871e+003;3.9712819824e+003;3.9647436523e+003;3.9315385742e+003;3.9453845215e+003;3.9287180176e+003;3.9302563477e+003;3.9525642090e+003;3.9223076172e+003;3.9283332520e+003;
2.3671875000e+000;3.9534614258e+003;3.9160256348e+003;3.9258974609e+003;3.9641025391e+003;3.9515385742e+003;3.9657692871e+003;3.9585898438e+003;3.9226923828e+003;3.9362819824e+003;3.9198718262e+003;3.9261538086e+003;3.9476923828e+003;3.9191025391e+003;3.9262819824e+003;
2.3750000000e+000;3.8926923828e+003;3.8534614258e+003;3.8558974609e+003;3.8857692871e+003;3.8693588867e+003;3.8802563477e+003;3.8651281738e+003;3.8453845215e+003;3.8571794434e+003;3.8623076172e+003;3.8605129395e+003;3.8819230957e+003;3.8708974609e+003;3.8701281738e+003;
2.3828125000e+000;3.9629487305e+003;3.9008974609e+003;3.9178205566e+003;3.9397436523e+003;3.9060256348e+003;3.9050000000e+003;3.8965385742e+003;3.8842307129e+003;3.9001281738e+003;3.9111538086e+003;3.9232050781e+003;3.9352563477e+003;3.9215385742e+003;3.9315385742e+003;
2.3906250000e+000;3.9566667480e+003;3.8951281738e+003;3.9115385742e+003;3.9324357910e+003;3.8969230957e+003;3.8926923828e+003;3.8837180176e+003;3.8841025391e+003;3.8991025391e+003;3.9128205566e+003;3.9180769043e+003;3.9319230957e+003;3.9161538086e+003;3.9262819824e+003;
2.3984375000e+000;3.7573076172e+003;3.6928205566e+003;3.7126923828e+003;3.7393588867e+003;3.6908974609e+003;3.6928205566e+003;3.6834614258e+003;3.6935898438e+003;3.7052563477e+003;3.7092307129e+003;3.7094870605e+003;3.7335898438e+003;3.7137180176e+003;3.7197436523e+003;
2.4062500000e+000;3.7114101563e+003;3.6325642090e+003;3.6528205566e+003;3.6896154785e+003;3.6306411133e+003;3.6439743652e+003;3.6482050781e+003;3.6414101563e+003;3.6538461914e+003;3.6294870605e+003;3.6348718262e+003;3.6621794434e+003;3.6419230957e+003;3.6479487305e+003;
2.4140625000e+000;3.7250000000e+003;3.6442307129e+003;3.6653845215e+003;3.6982050781e+003;3.6465385742e+003;3.6596154785e+003;3.6644870605e+003;3.6569230957e+003;3.6693588867e+003;3.6416667480e+003;3.6487180176e+003;3.6748718262e+003;3.6533332520e+003;3.6606411133e+003;
2.4218750000e+000;3.8050000000e+003;3.7287180176e+003;3.7434614258e+003;3.7747436523e+003;3.7384614258e+003;3.7471794434e+003;3.7516667480e+003;3.7353845215e+003;3.7452563477e+003;3.7169230957e+003;3.7305129395e+003;3.7535898438e+003;3.7341025391e+003;3.7380769043e+003;
2.4296875000e+000;3.9164101563e+003;3.8464101563e+003;3.8548718262e+003;3.8883332520e+003;3.8566667480e+003;3.8628205566e+003;3.8671794434e+003;3.8453845215e+003;3.8533332520e+003;3.8302563477e+003;3.8434614258e+003;3.8666667480e+003;3.8476923828e+003;3.8485898438e+003;
2.4375000000e+000;4.1443588867e+003;4.0900000000e+003;4.0896154785e+003;4.1274360352e+003;4.1020512695e+003;4.1115385742e+003;4.1091025391e+003;4.0882050781e+003;4.0984614258e+003;4.0911538086e+003;4.0917949219e+003;4.1087177734e+003;4.0885898438e+003;4.0826923828e+003;
2.4453125000e+000;4.0873076172e+003;4.0365385742e+003;4.0350000000e+003;4.0743588867e+003;4.0520512695e+003;4.0644870605e+003;4.0587180176e+003;4.0394870605e+003;4.0512819824e+003;4.0437180176e+003;4.0439743652e+003;4.0555129395e+003;4.0370512695e+003;4.0302563477e+003;
2.4531250000e+000;3.9429487305e+003;3.8985898438e+003;3.8923076172e+003;3.9362819824e+003;3.9208974609e+003;3.9344870605e+003;3.9252563477e+003;3.9011538086e+003;3.9103845215e+003;3.9008974609e+003;3.9024357910e+003;3.9134614258e+003;3.8988461914e+003;3.8969230957e+003;
2.4609375000e+000;3.9353845215e+003;3.8912819824e+003;3.8829487305e+003;3.9270512695e+003;3.9158974609e+003;3.9273076172e+003;3.9175642090e+003;3.8894870605e+003;3.8956411133e+003;3.8885898438e+003;3.8887180176e+003;3.9021794434e+003;3.8906411133e+003;3.8916667480e+003;
2.4687500000e+000;4.0520512695e+003;4.0001281738e+003;3.9960256348e+003;4.0321794434e+003;4.0270512695e+003;4.0297436523e+003;4.0194870605e+003;3.9896154785e+003;3.9912819824e+003;3.9974357910e+003;3.9985898438e+003;4.0067949219e+003;4.0006411133e+003;3.9982050781e+003;
2.4765625000e+000;4.0597436523e+003;4.0087180176e+003;4.0050000000e+003;4.0411538086e+003;4.0324357910e+003;4.0326923828e+003;4.0232050781e+003;3.9921794434e+003;3.9953845215e+003;4.0015385742e+003;4.0080769043e+003;4.0161538086e+003;4.0064101563e+003;4.0048718262e+003;
2.4843750000e+000;4.0566667480e+003;4.0097436523e+003;4.0032050781e+003;4.0405129395e+003;4.0269230957e+003;4.0241025391e+003;4.0157692871e+003;3.9839743652e+003;3.9894870605e+003;3.9947436523e+003;4.0052563477e+003;4.0160256348e+003;4.0033332520e+003;4.0046154785e+003;
2.4921875000e+000;4.0512819824e+003;4.0093588867e+003;3.9991025391e+003;4.0362819824e+003;4.0178205566e+003;4.0126923828e+003;4.0047436523e+003;3.9741025391e+003;3.9817949219e+003;3.9880769043e+003;3.9983332520e+003;4.0133332520e+003;4.0007692871e+003;4.0048718262e+003;
2.5000000000e+000;4.0861538086e+003;4.0394870605e+003;4.0383332520e+003;4.0632050781e+003;4.0361538086e+003;4.0246154785e+003;4.0205129395e+003;4.0016667480e+003;4.0048718262e+003;4.0220512695e+003;4.0282050781e+003;4.0514101563e+003;4.0405129395e+003;4.0429487305e+003;
2.5078125000e+000;4.2214101563e+003;4.1889741211e+003;4.1737177734e+003;4.2019228516e+003;4.1833334961e+003;4.1488461914e+003;4.1523076172e+003;4.1669228516e+003;4.1823076172e+003;4.1964101563e+003;4.1950000000e+003;4.2024360352e+003;4.1933334961e+003;4.1853847656e+003;
2.5156250000e+000;4.2250000000e+003;4.1947436523e+003;4.1807690430e+003;4.2061538086e+003;4.1906411133e+003;4.1576923828e+003;4.1601284180e+003;4.1776923828e+003;4.1924360352e+003;4.2073076172e+003;4.2032050781e+003;4.2103847656e+003;4.2000000000e+003;4.1970512695e+003;
2.5234375000e+000;4.2923076172e+003;4.2661538086e+003;4.2557690430e+003;4.2735898438e+003;4.2620512695e+003;4.2301284180e+003;4.2348715820e+003;4.2557690430e+003;4.2661538086e+003;4.2826923828e+003;4.2725639648e+003;4.2811538086e+003;4.2655126953e+003;4.2702563477e+003;
2.5312500000e+000;4.1891025391e+003;4.1710258789e+003;4.1664101563e+003;4.1865385742e+003;4.1720512695e+003;4.1497436523e+003;4.1542309570e+003;4.1730771484e+003;4.1817949219e+003;4.1923076172e+003;4.1737177734e+003;4.1739741211e+003;4.1723076172e+003;4.1639741211e+003;
2.5390625000e+000;4.1500000000e+003;4.1317949219e+003;4.1246152344e+003;4.1483334961e+003;4.1376923828e+003;4.1207690430e+003;4.1217949219e+003;4.1324360352e+003;4.1411538086e+003;4.1494873047e+003;4.1341025391e+003;4.1311538086e+003;4.1310258789e+003;4.1255126953e+003;
2.5468750000e+000;4.1752563477e+003;4.1594873047e+003;4.1442309570e+003;4.1789741211e+003;4.1673076172e+003;4.1646152344e+003;4.1603847656e+003;4.1510258789e+003;4.1605126953e+003;4.1670512695e+003;4.1579487305e+003;4.1564101563e+003;4.1523076172e+003;4.1534614258e+003;
2.5546875000e+000;4.2203847656e+003;4.2076923828e+003;4.1885898438e+003;4.2289741211e+003;4.2123076172e+003;4.2134614258e+003;4.2087177734e+003;4.1933334961e+003;4.2034614258e+003;4.2123076172e+003;4.2021796875e+003;4.2029487305e+003;4.1993588867e+003;4.1988461914e+003;
2.5625000000e+000;4.1980771484e+003;4.1905126953e+003;4.1711538086e+003;4.2119228516e+003;4.1976923828e+003;4.1946152344e+003;4.1871796875e+003;4.1697436523e+003;4.1794873047e+003;4.1961538086e+003;4.1771796875e+003;4.1807690430e+003;4.1850000000e+003;4.1723076172e+003;
2.5703125000e+000;4.1525639648e+003;4.1429487305e+003;4.1275639648e+003;4.1638461914e+003;4.1555126953e+003;4.1528203125e+003;4.1437177734e+003;4.1211538086e+003;4.1300000000e+003;4.1458974609e+003;4.1293588867e+003;4.1355126953e+003;4.1373076172e+003;4.1260258789e+003;
2.5781250000e+000;4.1698715820e+003;4.1585898438e+003;4.1442309570e+003;4.1779487305e+003;4.1720512695e+003;4.1707690430e+003;4.1598715820e+003;4.1256411133e+003;4.1315385742e+003;4.1528203125e+003;4.1450000000e+003;4.1528203125e+003;4.1516665039e+003;4.1460258789e+003;
2.5859375000e+000;4.2276923828e+003;4.2185898438e+003;4.1997436523e+003;4.2361538086e+003;4.2265385742e+003;4.2230771484e+003;4.2121796875e+003;4.1778203125e+003;4.1820512695e+003;4.2111538086e+003;4.2064101563e+003;4.2106411133e+003;4.2110258789e+003;4.2064101563e+003;
2.5937500000e+000;4.2921796875e+003;4.2841025391e+003;4.2682050781e+003;4.2983334961e+003;4.2843588867e+003;4.2708974609e+003;4.2583334961e+003;4.2341025391e+003;4.2412822266e+003;4.2834614258e+003;4.2826923828e+003;4.2838461914e+003;4.2806411133e+003;4.2769228516e+003;
2.6015625000e+000;4.2698715820e+003;4.2626923828e+003;4.2514101563e+003;4.2752563477e+003;4.2630771484e+003;4.2478203125e+003;4.2344873047e+003;4.2120512695e+003;4.2242309570e+003;4.2643588867e+003;4.2626923828e+003;4.2651284180e+003;4.2617949219e+003;4.2574360352e+003;
2.6093750000e+000;4.2526923828e+003;4.2487177734e+003;4.2387177734e+003;4.2583334961e+003;4.2467949219e+003;4.2305126953e+003;4.2173076172e+003;4.1984614258e+003;4.2151284180e+003;4.2529487305e+003;4.2488461914e+003;4.2502563477e+003;4.2491025391e+003;4.2438461914e+003;
2.6171875000e+000;4.2508974609e+003;4.2498715820e+003;4.2379487305e+003;4.2557690430e+003;4.2433334961e+003;4.2260258789e+003;4.2146152344e+003;4.2029487305e+003;4.2212822266e+003;4.2571796875e+003;4.2505126953e+003;4.2493588867e+003;4.2498715820e+003;4.2450000000e+003;
2.6250000000e+000;4.3621796875e+003;4.3533334961e+003;4.3414101563e+003;4.3578203125e+003;4.3476923828e+003;4.3074360352e+003;4.3129487305e+003;4.3441025391e+003;4.3515385742e+003;4.3788461914e+003;4.3610258789e+003;4.3626923828e+003;4.3600000000e+003;4.3524360352e+003;
2.6328125000e+000;4.3767949219e+003;4.3705126953e+003;4.3598715820e+003;4.3775639648e+003;4.3689741211e+003;4.3264101563e+003;4.3324360352e+003;4.3694873047e+003;4.3788461914e+003;4.4014101563e+003;4.3778203125e+003;4.3803847656e+003;4.3797436523e+003;4.3675639648e+003;
2.6406250000e+000;4.3447436523e+003;4.3456411133e+003;4.3373076172e+003;4.3491025391e+003;4.3433334961e+003;4.3180771484e+003;4.3214101563e+003;4.3551284180e+003;4.3683334961e+003;4.3806411133e+003;4.3550000000e+003;4.3551284180e+003;4.3480771484e+003;4.3423076172e+003;
2.6484375000e+000;4.3621796875e+003;4.3643588867e+003;4.3555126953e+003;4.3653847656e+003;4.3688461914e+003;4.3496152344e+003;4.3535898438e+003;4.3691025391e+003;4.3847436523e+003;4.4016665039e+003;4.3739741211e+003;4.3779487305e+003;4.3703847656e+003;4.3619228516e+003;
2.6562500000e+000;4.3491025391e+003;4.3501284180e+003;4.3448715820e+003;4.3561538086e+003;4.3587177734e+003;4.3430771484e+003;4.3451284180e+003;4.3551284180e+003;4.3723076172e+003;4.3892309570e+003;4.3598715820e+003;4.3658974609e+003;4.3606411133e+003;4.3493588867e+003;
2.6640625000e+000;4.2492309570e+003;4.2485898438e+003;4.2511538086e+003;4.2648715820e+003;4.2634614258e+003;4.2574360352e+003;4.2543588867e+003;4.2479487305e+003;4.2667949219e+003;4.2771796875e+003;4.2566665039e+003;4.2588461914e+003;4.2573076172e+003;4.2488461914e+003;
2.6718750000e+000;4.1474360352e+003;4.1569228516e+003;4.1552563477e+003;4.1698715820e+003;4.1664101563e+003;4.1689741211e+003;4.1597436523e+003;4.1344873047e+003;4.1447436523e+003;4.1606411133e+003;4.1462822266e+003;4.1587177734e+003;4.1489741211e+003;4.1448715820e+003;
2.6796875000e+000;4.1443588867e+003;4.1560258789e+003;4.1520512695e+003;4.1675639648e+003;4.1639741211e+003;4.1650000000e+003;4.1553847656e+003;4.1284614258e+003;4.1347436523e+003;4.1556411133e+003;4.1411538086e+003;4.1551284180e+003;4.1448715820e+003;4.1402563477e+003;
2.6875000000e+000;4.1269228516e+003;4.1339741211e+003;4.1339741211e+003;4.1523076172e+003;4.1496152344e+003;4.1364101563e+003;4.1338461914e+003;4.1050000000e+003;4.1071796875e+003;4.1325639648e+003;4.1288461914e+003;4.1374360352e+003;4.1262822266e+003;4.1275639648e+003;
2.6953125000e+000;4.1147436523e+003;4.1198715820e+003;4.1214101563e+003;4.1415385742e+003;4.1373076172e+003;4.1216665039e+003;4.1183334961e+003;4.0878205566e+003;4.0933332520e+003;4.1162822266e+003;4.1173076172e+003;4.1255126953e+003;4.1135898438e+003;4.1166665039e+003;
2.7031250000e+000;4.1460258789e+003;4.1500000000e+003;4.1491025391e+003;4.1716665039e+003;4.1615385742e+003;4.1405126953e+003;4.1325639648e+003;4.1101284180e+003;4.1206411133e+003;4.1451284180e+003;4.1478203125e+003;4.1589741211e+003;4.1446152344e+003;4.1451284180e+003;
2.7109375000e+000;4.1764101563e+003;4.1807690430e+003;4.1785898438e+003;4.2007690430e+003;4.1856411133e+003;4.1600000000e+003;4.1534614258e+003;4.1411538086e+003;4.1515385742e+003;4.1794873047e+003;4.1797436523e+003;4.1924360352e+003;4.1758974609e+003;4.1747436523e+003;
2.7187500000e+000;4.1880771484e+003;4.1866665039e+003;4.1917949219e+003;4.2085898438e+003;4.1839741211e+003;4.1496152344e+003;4.1555126953e+003;4.1685898438e+003;4.1808974609e+003;4.2025639648e+003;4.1955126953e+003;4.2062822266e+003;4.1892309570e+003;4.1911538086e+003;
2.7265625000e+000;4.1847436523e+003;4.1793588867e+003;4.1874360352e+003;4.2020512695e+003;4.1798715820e+003;4.1479487305e+003;4.1521796875e+003;4.1702563477e+003;4.1825639648e+003;4.1994873047e+003;4.1900000000e+003;4.2007690430e+003;4.1860258789e+003;4.1882050781e+003;
2.7343750000e+000;4.1870512695e+003;4.1784614258e+003;4.1884614258e+003;4.2019228516e+003;4.1821796875e+003;4.1541025391e+003;4.1542309570e+003;4.1764101563e+003;4.1865385742e+003;4.2016665039e+003;4.1897436523e+003;4.2026923828e+003;4.1884614258e+003;4.1908974609e+003;
2.7421875000e+000;4.1891025391e+003;4.1800000000e+003;4.1905126953e+003;4.2041025391e+003;4.1851284180e+003;4.1596152344e+003;4.1564101563e+003;4.1819228516e+003;4.1883334961e+003;4.2044873047e+003;4.1905126953e+003;4.2067949219e+003;4.1911538086e+003;4.1943588867e+003;
2.7500000000e+000;4.0916667480e+003;4.0883332520e+003;4.0998715820e+003;4.1175639648e+003;4.0970512695e+003;4.0742307129e+003;4.0729487305e+003;4.0920512695e+003;4.0994873047e+003;4.1097436523e+003;4.0996152344e+003;4.1084614258e+003;4.0980771484e+003;4.0978203125e+003;
2.7578125000e+000;4.0271794434e+003;4.0188461914e+003;4.0341025391e+003;4.0523076172e+003;4.0302563477e+003;4.0157692871e+003;4.0114101563e+003;4.0242307129e+003;4.0341025391e+003;4.0375642090e+003;4.0293588867e+003;4.0416667480e+003;4.0305129395e+003;4.0307692871e+003;
2.7656250000e+000;4.0585898438e+003;4.0420512695e+003;4.0515385742e+003;4.0764101563e+003;4.0597436523e+003;4.0543588867e+003;4.0467949219e+003;4.0326923828e+003;4.0366667480e+003;4.0398718262e+003;4.0385898438e+003;4.0598718262e+003;4.0451281738e+003;4.0525642090e+003;
2.7734375000e+000;4.3193588867e+003;4.3193588867e+003;4.3162822266e+003;4.3548715820e+003;4.3401284180e+003;4.3107690430e+003;4.3092309570e+003;4.2952563477e+003;4.3024360352e+003;4.3316665039e+003;4.3226923828e+003;4.3238461914e+003;4.3243588867e+003;4.3216665039e+003;
2.7812500000e+000;4.2455126953e+003;4.2458974609e+003;4.2455126953e+003;4.2882050781e+003;4.2684614258e+003;4.2425639648e+003;4.2365385742e+003;4.2262822266e+003;4.2374360352e+003;4.2669228516e+003;4.2562822266e+003;4.2555126953e+003;4.2569228516e+003;4.2543588867e+003;
2.7890625000e+000;4.0103845215e+003;4.0017949219e+003;4.0093588867e+003;4.0484614258e+003;4.0296154785e+003;4.0284614258e+003;4.0091025391e+003;3.9791025391e+003;3.9880769043e+003;4.0069230957e+003;4.0084614258e+003;4.0196154785e+003;4.0139743652e+003;4.0215385742e+003;
2.7968750000e+000;4.0694870605e+003;4.0598718262e+003;4.0680769043e+003;4.1014101563e+003;4.0889743652e+003;4.0832050781e+003;4.0661538086e+003;4.0306411133e+003;4.0365385742e+003;4.0578205566e+003;4.0607692871e+003;4.0746154785e+003;4.0688461914e+003;4.0765385742e+003;
2.8046875000e+000;4.1603847656e+003;4.1530771484e+003;4.1597436523e+003;4.1898715820e+003;4.1807690430e+003;4.1594873047e+003;4.1496152344e+003;4.1241025391e+003;4.1270512695e+003;4.1560258789e+003;4.1541025391e+003;4.1642309570e+003;4.1614101563e+003;4.1635898438e+003;
2.8125000000e+000;4.1279487305e+003;4.1200000000e+003;4.1264101563e+003;4.1582050781e+003;4.1458974609e+003;4.1241025391e+003;4.1153847656e+003;4.0979487305e+003;4.1001284180e+003;4.1282050781e+003;4.1273076172e+003;4.1343588867e+003;4.1312822266e+003;4.1324360352e+003;
2.8203125000e+000;4.0862819824e+003;4.0750000000e+003;4.0825642090e+003;4.1142309570e+003;4.1002563477e+003;4.0810256348e+003;4.0721794434e+003;4.0600000000e+003;4.0614101563e+003;4.0857692871e+003;4.0901281738e+003;4.0952563477e+003;4.0903845215e+003;4.0933332520e+003;
2.8281250000e+000;4.0776923828e+003;4.0621794434e+003;4.0711538086e+003;4.0997436523e+003;4.0876923828e+003;4.0694870605e+003;4.0601281738e+003;4.0523076172e+003;4.0533332520e+003;4.0743588867e+003;4.0842307129e+003;4.0891025391e+003;4.0823076172e+003;4.0878205566e+003;
2.8359375000e+000;3.9725642090e+003;3.9521794434e+003;3.9647436523e+003;3.9889743652e+003;3.9723076172e+003;3.9587180176e+003;3.9494870605e+003;3.9656411133e+003;3.9666667480e+003;3.9747436523e+003;3.9789743652e+003;3.9929487305e+003;3.9817949219e+003;3.9821794434e+003;
2.8437500000e+000;4.4796152344e+003;4.4620512695e+003;4.4578203125e+003;4.4691025391e+003;4.4848715820e+003;4.4367949219e+003;4.4420512695e+003;4.4553847656e+003;4.4603847656e+003;4.4774360352e+003;4.4750000000e+003;4.4757690430e+003;4.4766665039e+003;4.4670512695e+003;
2.8515625000e+000;4.5819228516e+003;4.5760258789e+003;4.5650000000e+003;4.5755126953e+003;4.5984614258e+003;4.5447436523e+003;4.5464101563e+003;4.5667949219e+003;4.5725639648e+003;4.5958974609e+003;4.5833334961e+003;4.5844873047e+003;4.5873076172e+003;4.5742309570e+003;
2.8593750000e+000;4.6044873047e+003;4.6260258789e+003;4.6016665039e+003;4.6150000000e+003;4.6426923828e+003;4.5957690430e+003;4.5883334961e+003;4.6126923828e+003;4.6129487305e+003;4.6442309570e+003;4.6206411133e+003;4.6210258789e+003;4.6278203125e+003;4.6080771484e+003;
2.8671875000e+000;4.5997436523e+003;4.6328203125e+003;4.6028203125e+003;4.6151284180e+003;4.6471796875e+003;4.6029487305e+003;4.5941025391e+003;4.6170512695e+003;4.6156411133e+003;4.6493588867e+003;4.6247436523e+003;4.6216665039e+003;4.6312822266e+003;4.6082050781e+003;
2.8750000000e+000;4.5519228516e+003;4.5952563477e+003;4.5688461914e+003;4.5706411133e+003;4.6148715820e+003;4.5712822266e+003;4.5647436523e+003;4.5787177734e+003;4.5839741211e+003;4.6134614258e+003;4.5948715820e+003;4.5921796875e+003;4.5943588867e+003;4.5705126953e+003;
2.8828125000e+000;4.5280771484e+003;4.5697436523e+003;4.5478203125e+003;4.5482050781e+003;4.5921796875e+003;4.5520512695e+003;4.5441025391e+003;4.5516665039e+003;4.5593588867e+003;4.5869228516e+003;4.5707690430e+003;4.5694873047e+003;4.5701284180e+003;4.5467949219e+003;
2.8906250000e+000;4.5025639648e+003;4.5457690430e+003;4.5247436523e+003;4.5326923828e+003;4.5733334961e+003;4.5362822266e+003;4.5238461914e+003;4.5242309570e+003;4.5324360352e+003;4.5642309570e+003;4.5446152344e+003;4.5458974609e+003;4.5479487305e+003;4.5280771484e+003;
2.8984375000e+000;4.2812822266e+003;4.3182050781e+003;4.3094873047e+003;4.3226923828e+003;4.3439741211e+003;4.3123076172e+003;4.3042309570e+003;4.2966665039e+003;4.2993588867e+003;4.3212822266e+003;4.3184614258e+003;4.3264101563e+003;4.3170512695e+003;4.3079487305e+003;
2.9062500000e+000;4.2382050781e+003;4.2707690430e+003;4.2694873047e+003;4.2776923828e+003;4.2964101563e+003;4.2678203125e+003;4.2615385742e+003;4.2489741211e+003;4.2488461914e+003;4.2683334961e+003;4.2739741211e+003;4.2803847656e+003;4.2719228516e+003;4.2620512695e+003;
2.9140625000e+000;4.2433334961e+003;4.2729487305e+003;4.2767949219e+003;4.2793588867e+003;4.2982050781e+003;4.2702563477e+003;4.2662822266e+003;4.2508974609e+003;4.2492309570e+003;4.2684614258e+003;4.2793588867e+003;4.2855126953e+003;4.2778203125e+003;4.2665385742e+003;
2.9218750000e+000;4.3310258789e+003;4.3588461914e+003;4.3623076172e+003;4.3583334961e+003;4.3791025391e+003;4.3448715820e+003;4.3447436523e+003;4.3378203125e+003;4.3369228516e+003;4.3592309570e+003;4.3679487305e+003;4.3780771484e+003;4.3697436523e+003;4.3583334961e+003;
2.9296875000e+000;4.3589741211e+003;4.3773076172e+003;4.3851284180e+003;4.3767949219e+003;4.3907690430e+003;4.3507690430e+003;4.3526923828e+003;4.3710258789e+003;4.3689741211e+003;4.3891025391e+003;4.3907690430e+003;4.3997436523e+003;4.3924360352e+003;4.3796152344e+003;
2.9375000000e+000;4.3371796875e+003;4.3544873047e+003;4.3647436523e+003;4.3571796875e+003;4.3684614258e+003;4.3276923828e+003;4.3316665039e+003;4.3514101563e+003;4.3506411133e+003;4.3664101563e+003;4.3669228516e+003;4.3766665039e+003;4.3675639648e+003;4.3556411133e+003;
2.9453125000e+000;4.3220512695e+003;4.3412822266e+003;4.3501284180e+003;4.3456411133e+003;4.3556411133e+003;4.3124360352e+003;4.3188461914e+003;4.3382050781e+003;4.3398715820e+003;4.3511538086e+003;4.3505126953e+003;4.3608974609e+003;4.3500000000e+003;4.3412822266e+003;
2.9531250000e+000;4.3215385742e+003;4.3448715820e+003;4.3485898438e+003;4.3484614258e+003;4.3580771484e+003;4.3121796875e+003;4.3201284180e+003;4.3400000000e+003;4.3433334961e+003;4.3516665039e+003;4.3508974609e+003;4.3600000000e+003;4.3483334961e+003;4.3443588867e+003;
2.9609375000e+000;4.3619228516e+003;4.3923076172e+003;4.3908974609e+003;4.3961538086e+003;4.4067949219e+003;4.3680771484e+003;4.3680771484e+003;4.3902563477e+003;4.3897436523e+003;4.4034614258e+003;4.3978203125e+003;4.4007690430e+003;4.3997436523e+003;4.3900000000e+003;
2.9687500000e+000;4.3566665039e+003;4.3883334961e+003;4.3850000000e+003;4.3917949219e+003;4.4075639648e+003;4.3719228516e+003;4.3678203125e+003;4.3862822266e+003;4.3883334961e+003;4.4002563477e+003;4.3905126953e+003;4.3937177734e+003;4.3971796875e+003;4.3806411133e+003;
2.9765625000e+000;4.4325639648e+003;4.4730771484e+003;4.4570512695e+003;4.4611538086e+003;4.4955126953e+003;4.4680771484e+003;4.4546152344e+003;4.4608974609e+003;4.4706411133e+003;4.4732050781e+003;4.4676923828e+003;4.4666665039e+003;4.4703847656e+003;4.4574360352e+003;
2.9843750000e+000;4.5217949219e+003;4.5673076172e+003;4.5550000000e+003;4.5596152344e+003;4.5926923828e+003;4.5641025391e+003;4.5494873047e+003;4.5520512695e+003;4.5669228516e+003;4.5829487305e+003;4.5689741211e+003;4.5644873047e+003;4.5715385742e+003;4.5565385742e+003;
2.9921875000e+000;4.4751284180e+003;4.5228203125e+003;4.5117949219e+003;4.5203847656e+003;4.5493588867e+003;4.5226923828e+003;4.5073076172e+003;4.5071796875e+003;4.5230771484e+003;4.5421796875e+003;4.5235898438e+003;4.5219228516e+003;4.5302563477e+003;4.5114101563e+003;
3.0000000000e+000;4.4800000000e+003;4.5314101563e+003;4.5200000000e+003;4.5279487305e+003;4.5564101563e+003;4.5283334961e+003;4.5187177734e+003;4.5037177734e+003;4.5165385742e+003;4.5323076172e+003;4.5262822266e+003;4.5260258789e+003;4.5316665039e+003;4.5205126953e+003;
3.0078125000e+000;4.5482050781e+003;4.6014101563e+003;4.5898715820e+003;4.5944873047e+003;4.6250000000e+003;4.5924360352e+003;4.5866665039e+003;4.5728203125e+003;4.5837177734e+003;4.6024360352e+003;4.5982050781e+003;4.5957690430e+003;4.6011538086e+003;4.5920512695e+003;
3.0156250000e+000;4.4873076172e+003;4.5437177734e+003;4.5411538086e+003;4.5407690430e+003;4.5605126953e+003;4.5298715820e+003;4.5294873047e+003;4.5319228516e+003;4.5361538086e+003;4.5662822266e+003;4.5543588867e+003;4.5560258789e+003;4.5566665039e+003;4.5441025391e+003;
3.0234375000e+000;4.3200000000e+003;4.3729487305e+003;4.3714101563e+003;4.3826923828e+003;4.3866665039e+003;4.3529487305e+003;4.3567949219e+003;4.3696152344e+003;4.3732050781e+003;4.3876923828e+003;4.3901284180e+003;4.3885898438e+003;4.3906411133e+003;4.3788461914e+003;
3.0312500000e+000;4.3215385742e+003;4.3694873047e+003;4.3732050781e+003;4.3830771484e+003;4.3820512695e+003;4.3474360352e+003;4.3520512695e+003;4.3708974609e+003;4.3748715820e+003;4.3856411133e+003;4.3902563477e+003;4.3884614258e+003;4.3908974609e+003;4.3808974609e+003;
3.0390625000e+000;4.3287177734e+003;4.3698715820e+003;4.3812822266e+003;4.3865385742e+003;4.3806411133e+003;4.3467949219e+003;4.3523076172e+003;4.3771796875e+003;4.3816665039e+003;4.3919228516e+003;4.3956411133e+003;4.3948715820e+003;4.3964101563e+003;4.3882050781e+003;
3.0468750000e+000;4.3144873047e+003;4.3469228516e+003;4.3643588867e+003;4.3629487305e+003;4.3541025391e+003;4.3214101563e+003;4.3298715820e+003;4.3612822266e+003;4.3685898438e+003;4.3802563477e+003;4.3775639648e+003;4.3791025391e+003;4.3776923828e+003;4.3711538086e+003;
3.0546875000e+000;4.1735898438e+003;4.2038461914e+003;4.2173076172e+003;4.2211538086e+003;4.2167949219e+003;4.1896152344e+003;4.1952563477e+003;4.2242309570e+003;4.2351284180e+003;4.2294873047e+003;4.2257690430e+003;4.2306411133e+003;4.2303847656e+003;4.2250000000e+003;
3.0625000000e+000;4.1194873047e+003;4.1461538086e+003;4.1629487305e+003;4.1701284180e+003;4.1635898438e+003;4.1448715820e+003;4.1452563477e+003;4.1711538086e+003;4.1821796875e+003;4.1701284180e+003;4.1669228516e+003;4.1720512695e+003;4.1747436523e+003;4.1674360352e+003;
3.0703125000e+000;4.0823076172e+003;4.1057690430e+003;4.1248715820e+003;4.1373076172e+003;4.1270512695e+003;4.1180771484e+003;4.1128203125e+003;4.1341025391e+003;4.1452563477e+003;4.1298715820e+003;4.1261538086e+003;4.1312822266e+003;4.1353847656e+003;4.1262822266e+003;
3.0781250000e+000;4.0607692871e+003;4.0832050781e+003;4.1014101563e+003;4.1216665039e+003;4.1069228516e+003;4.1065385742e+003;4.0970512695e+003;4.1116665039e+003;4.1237177734e+003;4.1073076172e+003;4.1026923828e+003;4.1084614258e+003;4.1110258789e+003;4.1021796875e+003;
3.0859375000e+000;4.0016667480e+003;4.0182050781e+003;4.0267949219e+003;4.0688461914e+003;4.0514101563e+003;4.0580769043e+003;4.0465385742e+003;4.0320512695e+003;4.0503845215e+003;4.0238461914e+003;4.0338461914e+003;4.0334614258e+003;4.0379487305e+003;4.0337180176e+003;
3.0937500000e+000;4.0039743652e+003;4.0141025391e+003;4.0253845215e+003;4.0670512695e+003;4.0501281738e+003;4.0583332520e+003;4.0447436523e+003;4.0265385742e+003;4.0476923828e+003;4.0179487305e+003;4.0294870605e+003;4.0285898438e+003;4.0369230957e+003;4.0303845215e+003;
3.1015625000e+000;4.0112819824e+003;4.0173076172e+003;4.0248718262e+003;4.0746154785e+003;4.0466667480e+003;4.0683332520e+003;4.0474357910e+003;4.0257692871e+003;4.0482050781e+003;4.0221794434e+003;4.0233332520e+003;4.0333332520e+003;4.0338461914e+003;4.0325642090e+003;
3.1093750000e+000;4.0051281738e+003;4.0012819824e+003;4.0146154785e+003;4.0562819824e+003;4.0297436523e+003;4.0457692871e+003;4.0319230957e+003;4.0071794434e+003;4.0205129395e+003;3.9988461914e+003;4.0119230957e+003;4.0221794434e+003;4.0215385742e+003;4.0226923828e+003;
3.1171875000e+000;4.0144870605e+003;4.0017949219e+003;4.0233332520e+003;4.0606411133e+003;4.0321794434e+003;4.0434614258e+003;4.0332050781e+003;4.0064101563e+003;4.0187180176e+003;3.9991025391e+003;4.0174357910e+003;4.0301281738e+003;4.0297436523e+003;4.0302563477e+003;
3.1250000000e+000;4.0421794434e+003;4.0262819824e+003;4.0480769043e+003;4.0878205566e+003;4.0479487305e+003;4.0510256348e+003;4.0442307129e+003;4.0239743652e+003;4.0356411133e+003;4.0256411133e+003;4.0412819824e+003;4.0615385742e+003;4.0556411133e+003;4.0544870605e+003;
3.1328125000e+000;4.0473076172e+003;4.0344870605e+003;4.0520512695e+003;4.0920512695e+003;4.0493588867e+003;4.0519230957e+003;4.0473076172e+003;4.0324357910e+003;4.0402563477e+003;4.0342307129e+003;4.0476923828e+003;4.0682050781e+003;4.0588461914e+003;4.0585898438e+003;
3.1406250000e+000;4.0626923828e+003;4.0402563477e+003;4.0656411133e+003;4.0969228516e+003;4.0456411133e+003;4.0388461914e+003;4.0450000000e+003;4.0514101563e+003;4.0483332520e+003;4.0485898438e+003;4.0652563477e+003;4.0855129395e+003;4.0680769043e+003;4.0732050781e+003;
3.1484375000e+000;4.0482050781e+003;4.0208974609e+003;4.0521794434e+003;4.0826923828e+003;4.0266667480e+003;4.0184614258e+003;4.0255129395e+003;4.0388461914e+003;4.0362819824e+003;4.0337180176e+003;4.0508974609e+003;4.0723076172e+003;4.0523076172e+003;4.0597436523e+003;
3.1562500000e+000;4.0026923828e+003;3.9703845215e+003;4.0064101563e+003;4.0366667480e+003;3.9769230957e+003;3.9746154785e+003;3.9776923828e+003;3.9973076172e+003;3.9978205566e+003;3.9843588867e+003;4.0000000000e+003;4.0241025391e+003;4.0023076172e+003;4.0134614258e+003;
3.1640625000e+000;3.9978205566e+003;3.9665385742e+003;3.9983332520e+003;4.0293588867e+003;3.9726923828e+003;3.9744870605e+003;3.9750000000e+003;3.9941025391e+003;3.9951281738e+003;3.9774357910e+003;3.9914101563e+003;4.0147436523e+003;3.9957692871e+003;4.0071794434e+003;
3.1718750000e+000;4.0178205566e+003;3.9979487305e+003;4.0097436523e+003;4.0597436523e+003;4.0066667480e+003;4.0233332520e+003;4.0219230957e+003;4.0296154785e+003;4.0320512695e+003;4.0080769043e+003;4.0178205566e+003;4.0317949219e+003;4.0189743652e+003;4.0300000000e+003;
3.1796875000e+000;4.0121794434e+003;3.9948718262e+003;4.0039743652e+003;4.0608974609e+003;4.0082050781e+003;4.0291025391e+003;4.0273076172e+003;4.0287180176e+003;4.0330769043e+003;4.0061538086e+003;4.0164101563e+003;4.0280769043e+003;4.0144870605e+003;4.0251281738e+003;
3.1875000000e+000;4.0173076172e+003;4.0000000000e+003;4.0084614258e+003;4.0650000000e+003;4.0255129395e+003;4.0470512695e+003;4.0371794434e+003;4.0341025391e+003;4.0430769043e+003;4.0133332520e+003;4.0207692871e+003;4.0288461914e+003;4.0210256348e+003;4.0256411133e+003;
3.1953125000e+000;4.0208974609e+003;4.0023076172e+003;4.0116667480e+003;4.0639743652e+003;4.0323076172e+003;4.0529487305e+003;4.0362819824e+003;4.0360256348e+003;4.0464101563e+003;4.0178205566e+003;4.0206411133e+003;4.0293588867e+003;4.0260256348e+003;4.0274357910e+003;
3.2031250000e+000;4.0069230957e+003;3.9867949219e+003;3.9974357910e+003;4.0474357910e+003;4.0185898438e+003;4.0406411133e+003;4.0182050781e+003;4.0203845215e+003;4.0316667480e+003;4.0047436523e+003;4.0029487305e+003;4.0147436523e+003;4.0128205566e+003;4.0141025391e+003;
3.2109375000e+000;3.8461538086e+003;3.8156411133e+003;3.8317949219e+003;3.8911538086e+003;3.8430769043e+003;3.8778205566e+003;3.8615385742e+003;3.8315385742e+003;3.8488461914e+003;3.8205129395e+003;3.8317949219e+003;3.8378205566e+003;3.8389743652e+003;3.8385898438e+003;
3.2187500000e+000;3.8711538086e+003;3.8370512695e+003;3.8546154785e+003;3.9171794434e+003;3.8644870605e+003;3.8971794434e+003;3.8791025391e+003;3.8453845215e+003;3.8630769043e+003;3.8375642090e+003;3.8516667480e+003;3.8566667480e+003;3.8588461914e+003;3.8575642090e+003;
3.2265625000e+000;4.0237180176e+003;3.9915385742e+003;4.0003845215e+003;4.0798718262e+003;4.0119230957e+003;4.0301281738e+003;4.0147436523e+003;3.9891025391e+003;3.9994870605e+003;3.9879487305e+003;3.9935898438e+003;4.0074357910e+003;4.0057692871e+003;4.0061538086e+003;
3.2343750000e+000;4.0588461914e+003;4.0284614258e+003;4.0453845215e+003;4.1056411133e+003;4.0547436523e+003;4.0608974609e+003;4.0560256348e+003;4.0376923828e+003;4.0387180176e+003;4.0339743652e+003;4.0406411133e+003;4.0537180176e+003;4.0484614258e+003;4.0475642090e+003;
3.2421875000e+000;4.0805129395e+003;4.0473076172e+003;4.0671794434e+003;4.1220512695e+003;4.0735898438e+003;4.0767949219e+003;4.0737180176e+003;4.0567949219e+003;4.0579487305e+003;4.0542307129e+003;4.0671794434e+003;4.0743588867e+003;4.0700000000e+003;4.0705129395e+003;
3.2500000000e+000;4.1069228516e+003;4.0791025391e+003;4.0923076172e+003;4.1455126953e+003;4.0870512695e+003;4.0891025391e+003;4.0844870605e+003;4.0858974609e+003;4.0792307129e+003;4.0826923828e+003;4.0958974609e+003;4.1069228516e+003;4.1003847656e+003;4.1020512695e+003;
3.2578125000e+000;4.0979487305e+003;4.0737180176e+003;4.0823076172e+003;4.1348715820e+003;4.0762819824e+003;4.0770512695e+003;4.0729487305e+003;4.0779487305e+003;4.0673076172e+003;4.0732050781e+003;4.0805129395e+003;4.0971796875e+003;4.0903845215e+003;4.0911538086e+003;
3.2656250000e+000;4.1807690430e+003;4.1544873047e+003;4.1567949219e+003;4.2071796875e+003;4.1603847656e+003;4.1537177734e+003;4.1506411133e+003;4.1546152344e+003;4.1480771484e+003;4.1557690430e+003;4.1588461914e+003;4.1664101563e+003;4.1683334961e+003;4.1671796875e+003;
3.2734375000e+000;4.2137177734e+003;4.1867949219e+003;4.1921796875e+003;4.2419228516e+003;4.1967949219e+003;4.1915385742e+003;4.1861538086e+003;4.1905126953e+003;4.1871796875e+003;4.1926923828e+003;4.1989741211e+003;4.2020512695e+003;4.2034614258e+003;4.2030771484e+003;
3.2812500000e+000;4.2073076172e+003;4.1882050781e+003;4.1958974609e+003;4.2450000000e+003;4.2023076172e+003;4.2047436523e+003;4.1930771484e+003;4.2012822266e+003;4.2000000000e+003;4.2002563477e+003;4.2048715820e+003;4.2057690430e+003;4.2062822266e+003;4.2047436523e+003;
3.2890625000e+000;4.1817949219e+003;4.1684614258e+003;4.1724360352e+003;4.2234614258e+003;4.1835898438e+003;4.1898715820e+003;4.1753847656e+003;4.1843588867e+003;4.1832050781e+003;4.1815385742e+003;4.1807690430e+003;4.1823076172e+003;4.1839741211e+003;4.1800000000e+003;
3.2968750000e+000;4.2085898438e+003;4.1978203125e+003;4.1973076172e+003;4.2547436523e+003;4.2232050781e+003;4.2314101563e+003;4.2137177734e+003;4.2103847656e+003;4.2179487305e+003;4.2180771484e+003;4.2002563477e+003;4.2080771484e+003;4.2092309570e+003;4.2005126953e+003;
3.3046875000e+000;4.2396152344e+003;4.2288461914e+003;4.2302563477e+003;4.2852563477e+003;4.2548715820e+003;4.2621796875e+003;4.2434614258e+003;4.2375639648e+003;4.2500000000e+003;4.2525639648e+003;4.2325639648e+003;4.2400000000e+003;4.2402563477e+003;4.2316665039e+003;
3.3125000000e+000;4.2341025391e+003;4.2258974609e+003;4.2294873047e+003;4.2762822266e+003;4.2438461914e+003;4.2525639648e+003;4.2332050781e+003;4.2252563477e+003;4.2417949219e+003;4.2470512695e+003;4.2326923828e+003;4.2358974609e+003;4.2341025391e+003;4.2297436523e+003;
3.3203125000e+000;4.2180771484e+003;4.2088461914e+003;4.2139741211e+003;4.2593588867e+003;4.2217949219e+003;4.2308974609e+003;4.2135898438e+003;4.2021796875e+003;4.2174360352e+003;4.2225639648e+003;4.2147436523e+003;4.2178203125e+003;4.2153847656e+003;4.2133334961e+003;
3.3281250000e+000;4.2210258789e+003;4.2087177734e+003;4.2164101563e+003;4.2643588867e+003;4.2197436523e+003;4.2264101563e+003;4.2115385742e+003;4.1961538086e+003;4.2093588867e+003;4.2155126953e+003;4.2120512695e+003;4.2174360352e+003;4.2153847656e+003;4.2139741211e+003;
3.3359375000e+000;4.2394873047e+003;4.2248715820e+003;4.2347436523e+003;4.2888461914e+003;4.2376923828e+003;4.2392309570e+003;4.2255126953e+003;4.2080771484e+003;4.2196152344e+003;4.2284614258e+003;4.2253847656e+003;4.2341025391e+003;4.2329487305e+003;4.2303847656e+003;
3.3437500000e+000;4.1955126953e+003;4.1924360352e+003;4.1962822266e+003;4.2567949219e+003;4.2057690430e+003;4.2048715820e+003;4.1964101563e+003;4.1715385742e+003;4.1705126953e+003;4.1878203125e+003;4.1860258789e+003;4.2002563477e+003;4.1934614258e+003;4.1939741211e+003;
3.3515625000e+000;4.3980771484e+003;4.3953847656e+003;4.3957690430e+003;4.4462822266e+003;4.4023076172e+003;4.3847436523e+003;4.3830771484e+003;4.3803847656e+003;4.3661538086e+003;4.3911538086e+003;4.3869228516e+003;4.3974360352e+003;4.3942309570e+003;4.3915385742e+003;
3.3593750000e+000;4.4075639648e+003;4.4078203125e+003;4.4085898438e+003;4.4592309570e+003;4.4142309570e+003;4.3923076172e+003;4.3924360352e+003;4.3970512695e+003;4.3841025391e+003;4.4082050781e+003;4.4011538086e+003;4.4115385742e+003;4.4091025391e+003;4.4051284180e+003;
3.3671875000e+000;4.3851284180e+003;4.3933334961e+003;4.3911538086e+003;4.4379487305e+003;4.3933334961e+003;4.3715385742e+003;4.3719228516e+003;4.3888461914e+003;4.3783334961e+003;4.3962822266e+003;4.3911538086e+003;4.3956411133e+003;4.3942309570e+003;4.3903847656e+003;
3.3750000000e+000;4.3792309570e+003;4.3896152344e+003;4.3856411133e+003;4.4310258789e+003;4.3865385742e+003;4.3669228516e+003;4.3648715820e+003;4.3882050781e+003;4.3773076172e+003;4.3938461914e+003;4.3883334961e+003;4.3916665039e+003;4.3880771484e+003;4.3862822266e+003;
3.3828125000e+000;4.3752563477e+003;4.3837177734e+003;4.3835898438e+003;4.4253847656e+003;4.3807690430e+003;4.3664101563e+003;4.3542309570e+003;4.3869228516e+003;4.3792309570e+003;4.3967949219e+003;4.3792309570e+003;4.3916665039e+003;4.3800000000e+003;4.3847436523e+003;
3.3906250000e+000;4.3507690430e+003;4.3589741211e+003;4.3611538086e+003;4.4003847656e+003;4.3573076172e+003;4.3446152344e+003;4.3302563477e+003;4.3612822266e+003;4.3574360352e+003;4.3721796875e+003;4.3534614258e+003;4.3655126953e+003;4.3569228516e+003;4.3588461914e+003;
3.3984375000e+000;4.1982050781e+003;4.2089741211e+003;4.2110258789e+003;4.2567949219e+003;4.2128203125e+003;4.2124360352e+003;4.1933334961e+003;4.2103847656e+003;4.2164101563e+003;4.2135898438e+003;4.2044873047e+003;4.2092309570e+003;4.2102563477e+003;4.2066665039e+003;
3.4062500000e+000;4.0926923828e+003;4.1032050781e+003;4.1032050781e+003;4.1669228516e+003;4.1080771484e+003;4.1258974609e+003;4.1003847656e+003;4.1019228516e+003;4.1142309570e+003;4.1089741211e+003;4.0994873047e+003;4.1102563477e+003;4.1060258789e+003;4.1070512695e+003;
3.4140625000e+000;4.0994873047e+003;4.1078203125e+003;4.1101284180e+003;4.1752563477e+003;4.1110258789e+003;4.1325639648e+003;4.1057690430e+003;4.0989741211e+003;4.1120512695e+003;4.1085898438e+003;4.1010258789e+003;4.1147436523e+003;4.1073076172e+003;4.1085898438e+003;
3.4218750000e+000;4.2510258789e+003;4.2552563477e+003;4.2571796875e+003;4.3138461914e+003;4.2632050781e+003;4.2673076172e+003;4.2466665039e+003;4.2276923828e+003;4.2407690430e+003;4.2442309570e+003;4.2421796875e+003;4.2516665039e+003;4.2452563477e+003;4.2448715820e+003;
3.4296875000e+000;4.2678203125e+003;4.2717949219e+003;4.2734614258e+003;4.3279487305e+003;4.2843588867e+003;4.2834614258e+003;4.2660258789e+003;4.2473076172e+003;4.2601284180e+003;4.2651284180e+003;4.2612822266e+003;4.2687177734e+003;4.2650000000e+003;4.2646152344e+003;
