Time (s);AF3;F7;F3;FC5;T7;P7;O1;O2;P8;T8;FC6;F4;F8;AF4;Sampling Rate
0.0000000000e+000;4.1671796875e+003;4.1675639648e+003;4.1489741211e+003;4.1744873047e+003;4.1791025391e+003;4.1748715820e+003;4.1641025391e+003;4.1705126953e+003;4.1776923828e+003;4.1651284180e+003;4.1564101563e+003;4.1624360352e+003;4.1594873047e+003;4.1496152344e+003;128
7.8125000000e-003;4.1632050781e+003;4.1650000000e+003;4.1430771484e+003;4.1760258789e+003;4.1767949219e+003;4.1750000000e+003;4.1632050781e+003;4.1664101563e+003;4.1739741211e+003;4.1605126953e+003;4.1547436523e+003;4.1608974609e+003;4.1551284180e+003;4.1466665039e+003;
1.5625000000e-002;4.1797436523e+003;4.1866665039e+003;4.1591025391e+003;4.1962822266e+003;4.2015385742e+003;4.1953847656e+003;4.1824360352e+003;4.1857690430e+003;4.1935898438e+003;4.1788461914e+003;4.1748715820e+003;4.1820512695e+003;4.1751284180e+003;4.1650000000e+003;
2.3437500000e-002;4.1912822266e+003;4.1924360352e+003;4.1744873047e+003;4.2030771484e+003;4.1985898438e+003;4.1984614258e+003;4.1844873047e+003;4.1700000000e+003;4.1805126953e+003;4.1688461914e+003;4.1710258789e+003;4.1817949219e+003;4.1721796875e+003;4.1712822266e+003;
3.1250000000e-002;4.2042309570e+003;4.2079487305e+003;4.1878203125e+003;4.2162822266e+003;4.2111538086e+003;4.2050000000e+003;4.1933334961e+003;4.1821796875e+003;4.1905126953e+003;4.1812822266e+003;4.1862822266e+003;4.1966665039e+003;4.1880771484e+003;4.1869228516e+003;
3.9062500000e-002;4.1561538086e+003;4.1583334961e+003;4.1456411133e+003;4.1656411133e+003;4.1646152344e+003;4.1460258789e+003;4.1416665039e+003;4.1342309570e+003;4.1375639648e+003;4.1325639648e+003;4.1403847656e+003;4.1560258789e+003;4.1480771484e+003;4.1406411133e+003;
4.6875000000e-002;4.1878203125e+003;4.1907690430e+003;4.1770512695e+003;4.1955126953e+003;4.1950000000e+003;4.1738461914e+003;4.1711538086e+003;4.1650000000e+003;4.1676923828e+003;4.1674360352e+003;4.1734614258e+003;4.1883334961e+003;4.1798715820e+003;4.1719228516e+003;
5.4687500000e-002;4.2212822266e+003;4.2297436523e+003;4.2141025391e+003;4.2315385742e+003;4.2256411133e+003;4.2085898438e+003;4.2064101563e+003;4.2093588867e+003;4.2067949219e+003;4.2123076172e+003;4.2142309570e+003;4.2287177734e+003;4.2165385742e+003;4.2111538086e+003;
6.2500000000e-002;4.2337177734e+003;4.2376923828e+003;4.2248715820e+003;4.2455126953e+003;4.2376923828e+003;4.2192309570e+003;4.2230771484e+003;4.2365385742e+003;4.2407690430e+003;4.2291025391e+003;4.2266665039e+003;4.2402563477e+003;4.2316665039e+003;4.2215385742e+003;
7.0312500000e-002;4.2261538086e+003;4.2350000000e+003;4.2167949219e+003;4.2429487305e+003;4.2326923828e+003;4.2167949219e+003;4.2171796875e+003;4.2328203125e+003;4.2415385742e+003;4.2292309570e+003;4.2210258789e+003;4.2356411133e+003;4.2255126953e+003;4.2162822266e+003;
7.8125000000e-002;4.2056411133e+003;4.2217949219e+003;4.1976923828e+003;4.2273076172e+003;4.2182050781e+003;4.2047436523e+003;4.2011538086e+003;4.2148715820e+003;4.2260258789e+003;4.2134614258e+003;4.2030771484e+003;4.2176923828e+003;4.2080771484e+003;4.1996152344e+003;
8.5937500000e-002;4.2016665039e+003;4.2241025391e+003;4.1961538086e+003;4.2247436523e+003;4.2220512695e+003;4.2076923828e+003;4.2019228516e+003;4.2115385742e+003;4.2229487305e+003;4.2103847656e+003;4.2025639648e+003;4.2146152344e+003;4.2087177734e+003;4.1991025391e+003;
9.3750000000e-002;4.2239741211e+003;4.2408974609e+003;4.2252563477e+003;4.2444873047e+003;4.2391025391e+003;4.2347436523e+003;4.2282050781e+003;4.2378203125e+003;4.2425639648e+003;4.2338461914e+003;4.2338461914e+003;4.2416665039e+003;4.2337177734e+003;4.2258974609e+003;
1.0156250000e-001;4.2265385742e+003;4.2521796875e+003;4.2266665039e+003;4.2502563477e+003;4.2674360352e+003;4.2467949219e+003;4.2324360352e+003;4.2369228516e+003;4.2508974609e+003;4.2458974609e+003;4.2320512695e+003;4.2389741211e+003;4.2424360352e+003;4.2289741211e+003;
1.0937500000e-001;4.1941025391e+003;4.2161538086e+003;4.1957690430e+003;4.2176923828e+003;4.2352563477e+003;4.2189741211e+003;4.2025639648e+003;4.2011538086e+003;4.2183334961e+003;4.2111538086e+003;4.1989741211e+003;4.2076923828e+003;4.2085898438e+003;4.1976923828e+003;
1.1718750000e-001;4.2025639648e+003;4.2246152344e+003;4.2038461914e+003;4.2202563477e+003;4.2388461914e+003;4.2217949219e+003;4.2092309570e+003;4.2000000000e+003;4.2191025391e+003;4.2102563477e+003;4.2033334961e+003;4.2126923828e+003;4.2130771484e+003;4.2043588867e+003;
1.2500000000e-001;4.2362822266e+003;4.2630771484e+003;4.2376923828e+003;4.2503847656e+003;4.2694873047e+003;4.2488461914e+003;4.2391025391e+003;4.2339741211e+003;4.2507690430e+003;4.2447436523e+003;4.2382050781e+003;4.2464101563e+003;4.2474360352e+003;4.2384614258e+003;
1.3281250000e-001;4.2088461914e+003;4.2361538086e+003;4.2141025391e+003;4.2300000000e+003;4.2276923828e+003;4.2201284180e+003;4.2108974609e+003;4.2035898438e+003;4.2146152344e+003;4.2174360352e+003;4.2160258789e+003;4.2247436523e+003;4.2197436523e+003;4.2153847656e+003;
1.4062500000e-001;4.2030771484e+003;4.2246152344e+003;4.2139741211e+003;4.2280771484e+003;4.2243588867e+003;4.2067949219e+003;4.2047436523e+003;4.1982050781e+003;4.2041025391e+003;4.2074360352e+003;4.2112822266e+003;4.2200000000e+003;4.2173076172e+003;4.2105126953e+003;
1.4843750000e-001;4.1760258789e+003;4.1941025391e+003;4.1891025391e+003;4.1989741211e+003;4.1964101563e+003;4.1776923828e+003;4.1788461914e+003;4.1770512695e+003;4.1776923828e+003;4.1798715820e+003;4.1846152344e+003;4.1937177734e+003;4.1923076172e+003;4.1824360352e+003;
1.5625000000e-001;4.1593588867e+003;4.1735898438e+003;4.1721796875e+003;4.1803847656e+003;4.1757690430e+003;4.1585898438e+003;4.1630771484e+003;4.1638461914e+003;4.1608974609e+003;4.1623076172e+003;4.1674360352e+003;4.1752563477e+003;4.1757690430e+003;4.1639741211e+003;
1.6406250000e-001;4.1908974609e+003;4.2034614258e+003;4.2005126953e+003;4.2123076172e+003;4.1970512695e+003;4.1851284180e+003;4.1933334961e+003;4.1997436523e+003;4.1996152344e+003;4.1988461914e+003;4.1982050781e+003;4.2039741211e+003;4.2052563477e+003;4.1974360352e+003;
1.7187500000e-001;4.1926923828e+003;4.2075639648e+003;4.2024360352e+003;4.2160258789e+003;4.1985898438e+003;4.1885898438e+003;4.1962822266e+003;4.2064101563e+003;4.2088461914e+003;4.2037177734e+003;4.2008974609e+003;4.2087177734e+003;4.2070512695e+003;4.2032050781e+003;
1.7968750000e-001;4.1726923828e+003;4.1901284180e+003;4.1824360352e+003;4.1962822266e+003;4.1828203125e+003;4.1729487305e+003;4.1792309570e+003;4.1905126953e+003;4.1942309570e+003;4.1828203125e+003;4.1812822266e+003;4.1916665039e+003;4.1871796875e+003;4.1852563477e+003;
1.8750000000e-001;4.1634614258e+003;4.1811538086e+003;4.1723076172e+003;4.1908974609e+003;4.1757690430e+003;4.1779487305e+003;4.1674360352e+003;4.1791025391e+003;4.1824360352e+003;4.1707690430e+003;4.1714101563e+003;4.1767949219e+003;4.1767949219e+003;4.1765385742e+003;
1.9531250000e-001;4.1529487305e+003;4.1687177734e+003;4.1624360352e+003;4.1819228516e+003;4.1610258789e+003;4.1684614258e+003;4.1541025391e+003;4.1620512695e+003;4.1656411133e+003;4.1501284180e+003;4.1547436523e+003;4.1633334961e+003;4.1585898438e+003;4.1630771484e+003;
2.0312500000e-001;4.2001284180e+003;4.2197436523e+003;4.2047436523e+003;4.2237177734e+003;4.2178203125e+003;4.2106411133e+003;4.1958974609e+003;4.1984614258e+003;4.2076923828e+003;4.1916665039e+003;4.1957690430e+003;4.2091025391e+003;4.2023076172e+003;4.2034614258e+003;
2.1093750000e-001;4.2089741211e+003;4.2315385742e+003;4.2137177734e+003;4.2325639648e+003;4.2348715820e+003;4.2189741211e+003;4.2053847656e+003;4.2061538086e+003;4.2193588867e+003;4.2083334961e+003;4.2080771484e+003;4.2216665039e+003;4.2178203125e+003;4.2134614258e+003;
2.1875000000e-001;4.1905126953e+003;4.2119228516e+003;4.2003847656e+003;4.2202563477e+003;4.2108974609e+003;4.2014101563e+003;4.1856411133e+003;4.1761538086e+003;4.1958974609e+003;4.1937177734e+003;4.1975639648e+003;4.2044873047e+003;4.2085898438e+003;4.1994873047e+003;
2.2656250000e-001;4.2216665039e+003;4.2428203125e+003;4.2301284180e+003;4.2480771484e+003;4.2358974609e+003;4.2314101563e+003;4.2121796875e+003;4.2052563477e+003;4.2264101563e+003;4.2230771484e+003;4.2305126953e+003;4.2362822266e+003;4.2376923828e+003;4.2311538086e+003;
2.3437500000e-001;4.2020512695e+003;4.2220512695e+003;4.2106411133e+003;4.2255126953e+003;4.2167949219e+003;4.2098715820e+003;4.1939741211e+003;4.1860258789e+003;4.2025639648e+003;4.1997436523e+003;4.2060258789e+003;4.2217949219e+003;4.2117949219e+003;4.2106411133e+003;
2.4218750000e-001;4.2487177734e+003;4.2662822266e+003;4.2583334961e+003;4.2775639648e+003;4.2610258789e+003;4.2442309570e+003;4.2392309570e+003;4.2343588867e+003;4.2310258789e+003;4.2397436523e+003;4.2497436523e+003;4.2619228516e+003;4.2569228516e+003;4.2578203125e+003;
2.5000000000e-001;4.2317949219e+003;4.2473076172e+003;4.2433334961e+003;4.2616665039e+003;4.2355126953e+003;4.2291025391e+003;4.2250000000e+003;4.2221796875e+003;4.2153847656e+003;4.2211538086e+003;4.2342309570e+003;4.2485898438e+003;4.2383334961e+003;4.2424360352e+003;
2.5781250000e-001;4.2046152344e+003;4.2193588867e+003;4.2185898438e+003;4.2343588867e+003;4.2012822266e+003;4.2043588867e+003;4.2033334961e+003;4.1983334961e+003;4.1897436523e+003;4.1917949219e+003;4.2064101563e+003;4.2246152344e+003;4.2088461914e+003;4.2147436523e+003;
2.6562500000e-001;4.2137177734e+003;4.2358974609e+003;4.2317949219e+003;4.2430771484e+003;4.2137177734e+003;4.2121796875e+003;4.2200000000e+003;4.2150000000e+003;4.2039741211e+003;4.2057690430e+003;4.2175639648e+003;4.2387177734e+003;4.2193588867e+003;4.2244873047e+003;
2.7343750000e-001;4.1982050781e+003;4.2221796875e+003;4.2180771484e+003;4.2342309570e+003;4.2120512695e+003;4.1926923828e+003;4.2023076172e+003;4.2129487305e+003;4.2052563477e+003;4.1992309570e+003;4.2070512695e+003;4.2256411133e+003;4.2092309570e+003;4.2160258789e+003;
2.8125000000e-001;4.1965385742e+003;4.2150000000e+003;4.2146152344e+003;4.2293588867e+003;4.2060258789e+003;4.1878203125e+003;4.1994873047e+003;4.2096152344e+003;4.2070512695e+003;4.1946152344e+003;4.2016665039e+003;4.2194873047e+003;4.2075639648e+003;4.2108974609e+003;
2.8906250000e-001;4.2110258789e+003;4.2266665039e+003;4.2284614258e+003;4.2392309570e+003;4.2146152344e+003;4.2011538086e+003;4.2134614258e+003;4.2239741211e+003;4.2260258789e+003;4.2101284180e+003;4.2142309570e+003;4.2307690430e+003;4.2233334961e+003;4.2219228516e+003;
2.9687500000e-001;4.2175639648e+003;4.2353847656e+003;4.2360258789e+003;4.2442309570e+003;4.2184614258e+003;4.2125639648e+003;4.2212822266e+003;4.2344873047e+003;4.2385898438e+003;4.2225639648e+003;4.2223076172e+003;4.2378203125e+003;4.2315385742e+003;4.2278203125e+003;
3.0468750000e-001;4.2114101563e+003;4.2515385742e+003;4.2228203125e+003;4.2502563477e+003;4.2378203125e+003;4.2352563477e+003;4.2303847656e+003;4.2341025391e+003;4.2426923828e+003;4.2302563477e+003;4.2288461914e+003;4.2303847656e+003;4.2323076172e+003;4.2319228516e+003;
3.1250000000e-001;4.2257690430e+003;4.2676923828e+003;4.2383334961e+003;4.2633334961e+003;4.2496152344e+003;4.2467949219e+003;4.2447436523e+003;4.2462822266e+003;4.2594873047e+003;4.2493588867e+003;4.2451284180e+003;4.2430771484e+003;4.2516665039e+003;4.2485898438e+003;
3.2031250000e-001;4.1893588867e+003;4.2326923828e+003;4.2043588867e+003;4.2265385742e+003;4.1997436523e+003;4.2100000000e+003;4.1979487305e+003;4.1908974609e+003;4.2134614258e+003;4.2073076172e+003;4.2012822266e+003;4.2011538086e+003;4.2112822266e+003;4.2041025391e+003;
3.2812500000e-001;4.2248715820e+003;4.2624360352e+003;4.2365385742e+003;4.2592309570e+003;4.2560258789e+003;4.2401284180e+003;4.2166665039e+003;4.2115385742e+003;4.2338461914e+003;4.2374360352e+003;4.2411538086e+003;4.2362822266e+003;4.2450000000e+003;4.2430771484e+003;
3.3593750000e-001;4.1893588867e+003;4.2219228516e+003;4.2030771484e+003;4.2255126953e+003;4.2215385742e+003;4.2020512695e+003;4.1820512695e+003;4.1746152344e+003;4.1950000000e+003;4.2033334961e+003;4.2075639648e+003;4.2012822266e+003;4.2117949219e+003;4.2096152344e+003;
3.4375000000e-001;4.1896152344e+003;4.2207690430e+003;4.2010258789e+003;4.2262822266e+003;4.2057690430e+003;4.1894873047e+003;4.1784614258e+003;4.1741025391e+003;4.1875639648e+003;4.1939741211e+003;4.2038461914e+003;4.2011538086e+003;4.2094873047e+003;4.2093588867e+003;
3.5156250000e-001;4.1850000000e+003;4.2146152344e+003;4.1966665039e+003;4.2196152344e+003;4.1983334961e+003;4.1829487305e+003;4.1719228516e+003;4.1719228516e+003;4.1794873047e+003;4.1808974609e+003;4.1938461914e+003;4.1983334961e+003;4.1996152344e+003;4.2034614258e+003;
3.5937500000e-001;4.1573076172e+003;4.1766665039e+003;4.1739741211e+003;4.1875639648e+003;4.1653847656e+003;4.1520512695e+003;4.1562822266e+003;4.1534614258e+003;4.1397436523e+003;4.1453847656e+003;4.1580771484e+003;4.1705126953e+003;4.1682050781e+003;4.1707690430e+003;
3.6718750000e-001;4.1680771484e+003;4.1878203125e+003;4.1850000000e+003;4.2003847656e+003;4.1720512695e+003;4.1648715820e+003;4.1734614258e+003;4.1729487305e+003;4.1548715820e+003;4.1662822266e+003;4.1744873047e+003;4.1850000000e+003;4.1835898438e+003;4.1842309570e+003;
3.7500000000e-001;4.1324360352e+003;4.1558974609e+003;4.1493588867e+003;4.1743588867e+003;4.1311538086e+003;4.1429487305e+003;4.1524360352e+003;4.1543588867e+003;4.1325639648e+003;4.1382050781e+003;4.1464101563e+003;4.1597436523e+003;4.1523076172e+003;4.1556411133e+003;
3.8281250000e-001;4.1235898438e+003;4.1496152344e+003;4.1394873047e+003;4.1675639648e+003;4.1241025391e+003;4.1369228516e+003;4.1474360352e+003;4.1476923828e+003;4.1275639648e+003;4.1237177734e+003;4.1361538086e+003;4.1505126953e+003;4.1430771484e+003;4.1473076172e+003;
3.9062500000e-001;4.1435898438e+003;4.1734614258e+003;4.1589741211e+003;4.1869228516e+003;4.1491025391e+003;4.1543588867e+003;4.1669228516e+003;4.1678203125e+003;4.1515385742e+003;4.1407690430e+003;4.1550000000e+003;4.1676923828e+003;4.1638461914e+003;4.1665385742e+003;
3.9843750000e-001;4.1387177734e+003;4.1748715820e+003;4.1521796875e+003;4.1748715820e+003;4.1485898438e+003;4.1529487305e+003;4.1538461914e+003;4.1520512695e+003;4.1539741211e+003;4.1448715820e+003;4.1487177734e+003;4.1546152344e+003;4.1550000000e+003;4.1532050781e+003;
4.0625000000e-001;4.1576923828e+003;4.1956411133e+003;4.1706411133e+003;4.1932050781e+003;4.1674360352e+003;4.1760258789e+003;4.1726923828e+003;4.1701284180e+003;4.1756411133e+003;4.1664101563e+003;4.1687177734e+003;4.1744873047e+003;4.1769228516e+003;4.1743588867e+003;
4.1406250000e-001;4.1362822266e+003;4.1665385742e+003;4.1498715820e+003;4.1673076172e+003;4.1505126953e+003;4.1593588867e+003;4.1478203125e+003;4.1414101563e+003;4.1587177734e+003;4.1492309570e+003;4.1414101563e+003;4.1484614258e+003;4.1558974609e+003;4.1546152344e+003;
4.2187500000e-001;4.1932050781e+003;4.2253847656e+003;4.1982050781e+003;4.2175639648e+003;4.1994873047e+003;4.2056411133e+003;4.1856411133e+003;4.1766665039e+003;4.2007690430e+003;4.1997436523e+003;4.1933334961e+003;4.2035898438e+003;4.2083334961e+003;4.2107690430e+003;
4.2968750000e-001;4.1780771484e+003;4.2119228516e+003;4.1871796875e+003;4.2066665039e+003;4.1800000000e+003;4.1917949219e+003;4.1697436523e+003;4.1585898438e+003;4.1824360352e+003;4.1850000000e+003;4.1823076172e+003;4.1942309570e+003;4.1966665039e+003;4.1992309570e+003;
4.3750000000e-001;4.2473076172e+003;4.2796152344e+003;4.2624360352e+003;4.2771796875e+003;4.2503847656e+003;4.2421796875e+003;4.2303847656e+003;4.2164101563e+003;4.2398715820e+003;4.2498715820e+003;4.2546152344e+003;4.2593588867e+003;4.2680771484e+003;4.2676923828e+003;
4.4531250000e-001;4.2729487305e+003;4.3050000000e+003;4.2908974609e+003;4.3024360352e+003;4.2787177734e+003;4.2615385742e+003;4.2529487305e+003;4.2442309570e+003;4.2655126953e+003;4.2739741211e+003;4.2807690430e+003;4.2857690430e+003;4.2914101563e+003;4.2938461914e+003;
4.5312500000e-001;4.2682050781e+003;4.3028203125e+003;4.2934614258e+003;4.3000000000e+003;4.2794873047e+003;4.2597436523e+003;4.2561538086e+003;4.2502563477e+003;4.2605126953e+003;4.2638461914e+003;4.2788461914e+003;4.2875639648e+003;4.2841025391e+003;4.2905126953e+003;
4.6093750000e-001;4.2897436523e+003;4.3269228516e+003;4.3162822266e+003;4.3196152344e+003;4.3034614258e+003;4.2841025391e+003;4.2851284180e+003;4.2794873047e+003;4.2816665039e+003;4.2879487305e+003;4.3033334961e+003;4.3106411133e+003;4.3074360352e+003;4.3112822266e+003;
4.6875000000e-001;4.3080771484e+003;4.3410258789e+003;4.3414101563e+003;4.3358974609e+003;4.3187177734e+003;4.3103847656e+003;4.3275639648e+003;4.3362822266e+003;4.3160258789e+003;4.3338461914e+003;4.3271796875e+003;4.3391025391e+003;4.3292309570e+003;4.3339741211e+003;
4.7656250000e-001;4.2735898438e+003;4.3029487305e+003;4.3101284180e+003;4.3058974609e+003;4.2826923828e+003;4.2792309570e+003;4.3008974609e+003;4.3108974609e+003;4.2892309570e+003;4.3023076172e+003;4.2921796875e+003;4.3084614258e+003;4.2941025391e+003;4.3034614258e+003;
4.8437500000e-001;4.2755126953e+003;4.3074360352e+003;4.3132050781e+003;4.3139741211e+003;4.2853847656e+003;4.2867949219e+003;4.3037177734e+003;4.3200000000e+003;4.3139741211e+003;4.3185898438e+003;4.3084614258e+003;4.3155126953e+003;4.3062822266e+003;4.3143588867e+003;
4.9218750000e-001;4.2576923828e+003;4.2919228516e+003;4.2942309570e+003;4.2975639648e+003;4.2702563477e+003;4.2733334961e+003;4.2846152344e+003;4.3017949219e+003;4.2994873047e+003;4.3038461914e+003;4.2937177734e+003;4.2974360352e+003;4.2920512695e+003;4.2969228516e+003;
5.0000000000e-001;4.2234614258e+003;4.2650000000e+003;4.2597436523e+003;4.2652563477e+003;4.2442309570e+003;4.2485898438e+003;4.2550000000e+003;4.2688461914e+003;4.2667949219e+003;4.2650000000e+003;4.2555126953e+003;4.2610258789e+003;4.2637177734e+003;4.2626923828e+003;
5.0781250000e-001;4.2287177734e+003;4.2746152344e+003;4.2665385742e+003;4.2703847656e+003;4.2510258789e+003;4.2578203125e+003;4.2634614258e+003;4.2778203125e+003;4.2760258789e+003;4.2703847656e+003;4.2598715820e+003;4.2675639648e+003;4.2726923828e+003;4.2696152344e+003;
5.1562500000e-001;4.2271796875e+003;4.2748715820e+003;4.2665385742e+003;4.2688461914e+003;4.2478203125e+003;4.2607690430e+003;4.2644873047e+003;4.2792309570e+003;4.2791025391e+003;4.2715385742e+003;4.2597436523e+003;4.2679487305e+003;4.2729487305e+003;4.2696152344e+003;
5.2343750000e-001;4.2510258789e+003;4.2843588867e+003;4.2835898438e+003;4.2858974609e+003;4.2921796875e+003;4.2782050781e+003;4.2678203125e+003;4.2739741211e+003;4.2885898438e+003;4.2838461914e+003;4.2716665039e+003;4.2778203125e+003;4.2765385742e+003;4.2801284180e+003;
5.3125000000e-001;4.2280771484e+003;4.2648715820e+003;4.2656411133e+003;4.2671796875e+003;4.2696152344e+003;4.2560258789e+003;4.2443588867e+003;4.2511538086e+003;4.2666665039e+003;4.2611538086e+003;4.2478203125e+003;4.2589741211e+003;4.2567949219e+003;4.2608974609e+003;
5.3906250000e-001;4.2056411133e+003;4.2460258789e+003;4.2453847656e+003;4.2508974609e+003;4.2283334961e+003;4.2301284180e+003;4.2244873047e+003;4.2143588867e+003;4.2280771484e+003;4.2291025391e+003;4.2280771484e+003;4.2352563477e+003;4.2366665039e+003;4.2430771484e+003;
5.4687500000e-001;4.2185898438e+003;4.2575639648e+003;4.2584614258e+003;4.2620512695e+003;4.2407690430e+003;4.2410258789e+003;4.2348715820e+003;4.2261538086e+003;4.2378203125e+003;4.2423076172e+003;4.2441025391e+003;4.2501284180e+003;4.2508974609e+003;4.2580771484e+003;
5.5468750000e-001;4.1830771484e+003;4.2201284180e+003;4.2278203125e+003;4.2260258789e+003;4.2117949219e+003;4.2041025391e+003;4.1961538086e+003;4.1937177734e+003;4.1978203125e+003;4.2061538086e+003;4.2102563477e+003;4.2233334961e+003;4.2167949219e+003;4.2248715820e+003;
5.6250000000e-001;4.1932050781e+003;4.2207690430e+003;4.2325639648e+003;4.2256411133e+003;4.1996152344e+003;4.1850000000e+003;4.1992309570e+003;4.1998715820e+003;4.1841025391e+003;4.1978203125e+003;4.2133334961e+003;4.2312822266e+003;4.2160258789e+003;4.2289741211e+003;
5.7031250000e-001;4.1588461914e+003;4.1826923828e+003;4.1947436523e+003;4.1901284180e+003;4.1564101563e+003;4.1492309570e+003;4.1670512695e+003;4.1662822266e+003;4.1456411133e+003;4.1560258789e+003;4.1734614258e+003;4.1907690430e+003;4.1797436523e+003;4.1902563477e+003;
5.7812500000e-001;4.1589741211e+003;4.1794873047e+003;4.1914101563e+003;4.1879487305e+003;4.1544873047e+003;4.1505126953e+003;4.1723076172e+003;4.1726923828e+003;4.1519228516e+003;4.1580771484e+003;4.1691025391e+003;4.1829487305e+003;4.1805126953e+003;4.1819228516e+003;
5.8593750000e-001;4.1787177734e+003;4.1998715820e+003;4.2130771484e+003;4.2087177734e+003;4.1807690430e+003;4.1742309570e+003;4.1958974609e+003;4.2005126953e+003;4.1838461914e+003;4.1905126953e+003;4.1939741211e+003;4.2065385742e+003;4.2029487305e+003;4.2035898438e+003;
5.9375000000e-001;4.1673076172e+003;4.1957690430e+003;4.1985898438e+003;4.1979487305e+003;4.1829487305e+003;4.1811538086e+003;4.1935898438e+003;4.1971796875e+003;4.1906411133e+003;4.1879487305e+003;4.1882050781e+003;4.2012822266e+003;4.1933334961e+003;4.1988461914e+003;
6.0156250000e-001;4.1935898438e+003;4.2255126953e+003;4.2191025391e+003;4.2200000000e+003;4.2084614258e+003;4.2082050781e+003;4.2170512695e+003;4.2207690430e+003;4.2156411133e+003;4.2080771484e+003;4.2103847656e+003;4.2224360352e+003;4.2188461914e+003;4.2223076172e+003;
6.0937500000e-001;4.1861538086e+003;4.2170512695e+003;4.2144873047e+003;4.2189741211e+003;4.2048715820e+003;4.2160258789e+003;4.2157690430e+003;4.2207690430e+003;4.2229487305e+003;4.2067949219e+003;4.2030771484e+003;4.2125639648e+003;4.2085898438e+003;4.2124360352e+003;
6.1718750000e-001;4.1734614258e+003;4.2039741211e+003;4.2033334961e+003;4.2092309570e+003;4.1980771484e+003;4.2073076172e+003;4.2046152344e+003;4.2056411133e+003;4.2124360352e+003;4.1957690430e+003;4.1923076172e+003;4.2000000000e+003;4.1942309570e+003;4.2003847656e+003;
6.2500000000e-001;4.2038461914e+003;4.2406411133e+003;4.2305126953e+003;4.2360258789e+003;4.2361538086e+003;4.2337177734e+003;4.2226923828e+003;4.2262822266e+003;4.2411538086e+003;4.2305126953e+003;4.2250000000e+003;4.2321796875e+003;4.2274360352e+003;4.2338461914e+003;
6.3281250000e-001;4.1957690430e+003;4.2338461914e+003;4.2207690430e+003;4.2253847656e+003;4.2262822266e+003;4.2239741211e+003;4.2084614258e+003;4.2147436523e+003;4.2324360352e+003;4.2234614258e+003;4.2151284180e+003;4.2261538086e+003;4.2216665039e+003;4.2265385742e+003;
6.4062500000e-001;4.1676923828e+003;4.2034614258e+003;4.1910258789e+003;4.1957690430e+003;4.1939741211e+003;4.1960258789e+003;4.1784614258e+003;4.1823076172e+003;4.2025639648e+003;4.1917949219e+003;4.1834614258e+003;4.1980771484e+003;4.1944873047e+003;4.1971796875e+003;
6.4843750000e-001;4.1520512695e+003;4.1839741211e+003;4.1732050781e+003;4.1780771484e+003;4.1738461914e+003;4.1798715820e+003;4.1634614258e+003;4.1611538086e+003;4.1832050781e+003;4.1697436523e+003;4.1653847656e+003;4.1796152344e+003;4.1788461914e+003;4.1789741211e+003;
6.5625000000e-001;4.1776923828e+003;4.2069228516e+003;4.1988461914e+003;4.1969228516e+003;4.1876923828e+003;4.1965385742e+003;4.1847436523e+003;4.1834614258e+003;4.1908974609e+003;4.1901284180e+003;4.1962822266e+003;4.2048715820e+003;4.2012822266e+003;4.2017949219e+003;
6.6406250000e-001;4.1951284180e+003;4.2143588867e+003;4.2085898438e+003;4.2155126953e+003;4.2128203125e+003;4.1889741211e+003;4.1902563477e+003;4.1930771484e+003;4.1915385742e+003;4.1921796875e+003;4.2046152344e+003;4.2155126953e+003;4.2167949219e+003;4.2085898438e+003;
6.7187500000e-001;4.1767949219e+003;4.1942309570e+003;4.1926923828e+003;4.1951284180e+003;4.1856411133e+003;4.1683334961e+003;4.1737177734e+003;4.1802563477e+003;4.1726923828e+003;4.1766665039e+003;4.1898715820e+003;4.2029487305e+003;4.2014101563e+003;4.1938461914e+003;
6.7968750000e-001;4.1853847656e+003;4.1955126953e+003;4.2055126953e+003;4.1958974609e+003;4.1764101563e+003;4.1660258789e+003;4.1844873047e+003;4.1946152344e+003;4.1793588867e+003;4.1765385742e+003;4.1992309570e+003;4.2184614258e+003;4.2032050781e+003;4.2050000000e+003;
6.8750000000e-001;4.1611538086e+003;4.1810258789e+003;4.1798715820e+003;4.1764101563e+003;4.1767949219e+003;4.1657690430e+003;4.1797436523e+003;4.1893588867e+003;4.1776923828e+003;4.1587177734e+003;4.1762822266e+003;4.1878203125e+003;4.1821796875e+003;4.1779487305e+003;
6.9531250000e-001;4.1608974609e+003;4.1838461914e+003;4.1770512695e+003;4.1741025391e+003;4.1815385742e+003;4.1743588867e+003;4.1826923828e+003;4.1902563477e+003;4.1779487305e+003;4.1643588867e+003;4.1770512695e+003;4.1848715820e+003;4.1893588867e+003;4.1748715820e+003;
7.0312500000e-001;4.1751284180e+003;4.1962822266e+003;4.1893588867e+003;4.1932050781e+003;4.1998715820e+003;4.1919228516e+003;4.1920512695e+003;4.2016665039e+003;4.1946152344e+003;4.1820512695e+003;4.1887177734e+003;4.2002563477e+003;4.2039741211e+003;4.1858974609e+003;
7.1093750000e-001;4.1500000000e+003;4.1697436523e+003;4.1648715820e+003;4.1755126953e+003;4.1757690430e+003;4.1687177734e+003;4.1664101563e+003;4.1730771484e+003;4.1716665039e+003;4.1521796875e+003;4.1594873047e+003;4.1755126953e+003;4.1705126953e+003;4.1592309570e+003;
7.1875000000e-001;4.1446152344e+003;4.1764101563e+003;4.1591025391e+003;4.1751284180e+003;4.1776923828e+003;4.1780771484e+003;4.1721796875e+003;4.1652563477e+003;4.1775639648e+003;4.1526923828e+003;4.1603847656e+003;4.1625639648e+003;4.1630771484e+003;4.1507690430e+003;
7.2656250000e-001;4.1500000000e+003;4.1832050781e+003;4.1652563477e+003;4.1789741211e+003;4.1850000000e+003;4.1850000000e+003;4.1767949219e+003;4.1719228516e+003;4.1879487305e+003;4.1662822266e+003;4.1712822266e+003;4.1691025391e+003;4.1766665039e+003;4.1578203125e+003;
7.3437500000e-001;4.1319228516e+003;4.1605126953e+003;4.1471796875e+003;4.1594873047e+003;4.1658974609e+003;4.1650000000e+003;4.1543588867e+003;4.1502563477e+003;4.1698715820e+003;4.1483334961e+003;4.1524360352e+003;4.1511538086e+003;4.1611538086e+003;4.1401284180e+003;
7.4218750000e-001;4.1130771484e+003;4.1285898438e+003;4.1235898438e+003;4.1333334961e+003;4.1393588867e+003;4.1396152344e+003;4.1255126953e+003;4.1165385742e+003;4.1401284180e+003;4.1147436523e+003;4.1194873047e+003;4.1264101563e+003;4.1311538086e+003;4.1175639648e+003;
7.5000000000e-001;4.1125639648e+003;4.1292309570e+003;4.1192309570e+003;4.1262822266e+003;4.1323076172e+003;4.1425639648e+003;4.1253847656e+003;4.1178203125e+003;4.1310258789e+003;4.1158974609e+003;4.1164101563e+003;4.1265385742e+003;4.1261538086e+003;4.1114101563e+003;
7.5781250000e-001;4.0980771484e+003;4.1160258789e+003;4.1035898438e+003;4.1146152344e+003;4.1194873047e+003;4.1230771484e+003;4.1092309570e+003;4.0997436523e+003;4.1103847656e+003;4.0962822266e+003;4.1003847656e+003;4.1106411133e+003;4.1125639648e+003;4.0937180176e+003;
7.6562500000e-001;4.1143588867e+003;4.1337177734e+003;4.1185898438e+003;4.1332050781e+003;4.1379487305e+003;4.1282050781e+003;4.1194873047e+003;4.1098715820e+003;4.1203847656e+003;4.1060258789e+003;4.1151284180e+003;4.1250000000e+003;4.1297436523e+003;4.1088461914e+003;
7.7343750000e-001;4.1534614258e+003;4.1730771484e+003;4.1573076172e+003;4.1728203125e+003;4.1761538086e+003;4.1534614258e+003;4.1497436523e+003;4.1447436523e+003;4.1556411133e+003;4.1419228516e+003;4.1547436523e+003;4.1644873047e+003;4.1689741211e+003;4.1503847656e+003;
7.8125000000e-001;4.1565385742e+003;4.1582050781e+003;4.1648715820e+003;4.1710258789e+003;4.1485898438e+003;4.1329487305e+003;4.1480771484e+003;4.1461538086e+003;4.1428203125e+003;4.1402563477e+003;4.1589741211e+003;4.1701284180e+003;4.1607690430e+003;4.1557690430e+003;
7.8906250000e-001;4.1732050781e+003;4.1778203125e+003;4.1815385742e+003;4.1853847656e+003;4.1652563477e+003;4.1493588867e+003;4.1689741211e+003;4.1665385742e+003;4.1608974609e+003;4.1575639648e+003;4.1743588867e+003;4.1853847656e+003;4.1784614258e+003;4.1701284180e+003;
7.9687500000e-001;4.1346152344e+003;4.1437177734e+003;4.1447436523e+003;4.1516665039e+003;4.1397436523e+003;4.1305126953e+003;4.1462822266e+003;4.1530771484e+003;4.1453847656e+003;4.1217949219e+003;4.1396152344e+003;4.1516665039e+003;4.1430771484e+003;4.1370512695e+003;
8.0468750000e-001;4.1480771484e+003;4.1494873047e+003;4.1565385742e+003;4.1615385742e+003;4.1500000000e+003;4.1560258789e+003;4.1669228516e+003;4.1638461914e+003;4.1612822266e+003;4.1351284180e+003;4.1478203125e+003;4.1585898438e+003;4.1526923828e+003;4.1483334961e+003;
8.1250000000e-001;4.1350000000e+003;4.1361538086e+003;4.1448715820e+003;4.1451284180e+003;4.1382050781e+003;4.1426923828e+003;4.1512822266e+003;4.1483334961e+003;4.1450000000e+003;4.1176923828e+003;4.1308974609e+003;4.1435898438e+003;4.1355126953e+003;4.1337177734e+003;
8.2031250000e-001;4.1056411133e+003;4.1098715820e+003;4.1110258789e+003;4.1258974609e+003;4.1173076172e+003;4.1106411133e+003;4.1171796875e+003;4.1142309570e+003;4.1078203125e+003;4.0793588867e+003;4.0965385742e+003;4.1066665039e+003;4.1057690430e+003;4.1003847656e+003;
8.2812500000e-001;4.0383332520e+003;4.0421794434e+003;4.0453845215e+003;4.0541025391e+003;4.0403845215e+003;4.0601281738e+003;4.0565385742e+003;4.0456411133e+003;4.0557692871e+003;4.0383332520e+003;4.0379487305e+003;4.0442307129e+003;4.0476923828e+003;4.0382050781e+003;
8.3593750000e-001;4.0344870605e+003;4.0385898438e+003;4.0393588867e+003;4.0441025391e+003;4.0415385742e+003;4.0571794434e+003;4.0501281738e+003;4.0346154785e+003;4.0498718262e+003;4.0325642090e+003;4.0329487305e+003;4.0379487305e+003;4.0416667480e+003;4.0324357910e+003;
8.4375000000e-001;4.0655129395e+003;4.0708974609e+003;4.0669230957e+003;4.0714101563e+003;4.0816667480e+003;4.0839743652e+003;4.0742307129e+003;4.0593588867e+003;4.0778205566e+003;4.0605129395e+003;4.0632050781e+003;4.0658974609e+003;4.0711538086e+003;4.0611538086e+003;
8.5156250000e-001;4.1006411133e+003;4.1048715820e+003;4.1015385742e+003;4.1089741211e+003;4.1212822266e+003;4.1117949219e+003;4.0964101563e+003;4.0898718262e+003;4.1098715820e+003;4.0933332520e+003;4.0978203125e+003;4.1011538086e+003;4.1041025391e+003;4.0967949219e+003;
8.5937500000e-001;4.0776923828e+003;4.0779487305e+003;4.0803845215e+003;4.0865385742e+003;4.0874357910e+003;4.0875642090e+003;4.0705129395e+003;4.0629487305e+003;4.0823076172e+003;4.0648718262e+003;4.0710256348e+003;4.0780769043e+003;4.0771794434e+003;4.0742307129e+003;
8.6718750000e-001;4.0876923828e+003;4.0760256348e+003;4.0892307129e+003;4.0852563477e+003;4.0720512695e+003;4.0730769043e+003;4.0630769043e+003;4.0571794434e+003;4.0716667480e+003;4.0556411133e+003;4.0688461914e+003;4.0810256348e+003;4.0751281738e+003;4.0778205566e+003;
8.7500000000e-001;4.0796154785e+003;4.0634614258e+003;4.0879487305e+003;4.0816667480e+003;4.0643588867e+003;4.0564101563e+003;4.0508974609e+003;4.0564101563e+003;4.0571794434e+003;4.0447436523e+003;4.0592307129e+003;4.0752563477e+003;4.0655129395e+003;4.0701281738e+003;
8.8281250000e-001;4.1028203125e+003;4.0896154785e+003;4.1098715820e+003;4.1032050781e+003;4.0846154785e+003;4.0784614258e+003;4.0758974609e+003;4.0824357910e+003;4.0787180176e+003;4.0679487305e+003;4.0839743652e+003;4.1005126953e+003;4.0916667480e+003;4.0969228516e+003;
8.9062500000e-001;4.1221796875e+003;4.1134614258e+003;4.1264101563e+003;4.1216665039e+003;4.1026923828e+003;4.0957692871e+003;4.0978203125e+003;4.1071796875e+003;4.0992309570e+003;4.0905129395e+003;4.1074360352e+003;4.1246152344e+003;4.1165385742e+003;4.1211538086e+003;
8.9843750000e-001;4.1119228516e+003;4.1066665039e+003;4.1143588867e+003;4.1134614258e+003;4.0929487305e+003;4.0847436523e+003;4.0920512695e+003;4.1033334961e+003;4.0917949219e+003;4.0834614258e+003;4.1011538086e+003;4.1202563477e+003;4.1114101563e+003;4.1143588867e+003;
9.0625000000e-001;4.0985898438e+003;4.0902563477e+003;4.1098715820e+003;4.1012822266e+003;4.0856411133e+003;4.0802563477e+003;4.0919230957e+003;4.0932050781e+003;4.0821794434e+003;4.0624357910e+003;4.0802563477e+003;4.0967949219e+003;4.0852563477e+003;4.0867949219e+003;
9.1406250000e-001;4.0923076172e+003;4.0837180176e+003;4.1048715820e+003;4.0956411133e+003;4.0816667480e+003;4.0828205566e+003;4.0906411133e+003;4.0934614258e+003;4.0820512695e+003;4.0628205566e+003;4.0744870605e+003;4.0897436523e+003;4.0779487305e+003;4.0808974609e+003;
9.2187500000e-001;4.0507692871e+003;4.0350000000e+003;4.0514101563e+003;4.0617949219e+003;4.0416667480e+003;4.0565385742e+003;4.0635898438e+003;4.0542307129e+003;4.0452563477e+003;4.0237180176e+003;4.0310256348e+003;4.0444870605e+003;4.0435898438e+003;4.0339743652e+003;
9.2968750000e-001;4.0566667480e+003;4.0493588867e+003;4.0633332520e+003;4.0630769043e+003;4.0573076172e+003;4.0701281738e+003;4.0632050781e+003;4.0530769043e+003;4.0529487305e+003;4.0323076172e+003;4.0446154785e+003;4.0553845215e+003;4.0464101563e+003;4.0417949219e+003;
9.3750000000e-001;4.0358974609e+003;4.0324357910e+003;4.0398718262e+003;4.0421794434e+003;4.0394870605e+003;4.0521794434e+003;4.0414101563e+003;4.0291025391e+003;4.0328205566e+003;4.0155129395e+003;4.0233332520e+003;4.0312819824e+003;4.0243588867e+003;4.0203845215e+003;
9.4531250000e-001;4.0647436523e+003;4.0517949219e+003;4.0493588867e+003;4.0712819824e+003;4.0623076172e+003;4.0747436523e+003;4.0571794434e+003;4.0423076172e+003;4.0598718262e+003;4.0474357910e+003;4.0425642090e+003;4.0515385742e+003;4.0533332520e+003;4.0451281738e+003;
9.5312500000e-001;4.0405129395e+003;4.0274357910e+003;4.0280769043e+003;4.0438461914e+003;4.0407692871e+003;4.0425642090e+003;4.0302563477e+003;4.0096154785e+003;4.0210256348e+003;4.0097436523e+003;4.0152563477e+003;4.0265385742e+003;4.0250000000e+003;4.0215385742e+003;
9.6093750000e-001;4.0638461914e+003;4.0544870605e+003;4.0510256348e+003;4.0650000000e+003;4.0652563477e+003;4.0591025391e+003;4.0503845215e+003;4.0350000000e+003;4.0439743652e+003;4.0383332520e+003;4.0402563477e+003;4.0474357910e+003;4.0506411133e+003;4.0452563477e+003;
9.6875000000e-001;4.0719230957e+003;4.0621794434e+003;4.0589743652e+003;4.0726923828e+003;4.0691025391e+003;4.0632050781e+003;4.0555129395e+003;4.0466667480e+003;4.0532050781e+003;4.0526923828e+003;4.0484614258e+003;4.0552563477e+003;4.0601281738e+003;4.0546154785e+003;
9.7656250000e-001;4.0464101563e+003;4.0273076172e+003;4.0367949219e+003;4.0479487305e+003;4.0267949219e+003;4.0379487305e+003;4.0312819824e+003;4.0235898438e+003;4.0212819824e+003;4.0221794434e+003;4.0169230957e+003;4.0324357910e+003;4.0296154785e+003;4.0289743652e+003;
9.8437500000e-001;4.0596154785e+003;4.0400000000e+003;4.0521794434e+003;4.0603845215e+003;4.0383332520e+003;4.0507692871e+003;4.0471794434e+003;4.0383332520e+003;4.0302563477e+003;4.0301281738e+003;4.0301281738e+003;4.0475642090e+003;4.0405129395e+003;4.0412819824e+003;
9.9218750000e-001;4.0841025391e+003;4.0734614258e+003;4.0800000000e+003;4.0847436523e+003;4.0764101563e+003;4.0673076172e+003;4.0720512695e+003;4.0767949219e+003;4.0575642090e+003;4.0547436523e+003;4.0630769043e+003;4.0789743652e+003;4.0658974609e+003;4.0684614258e+003;
1.0000000000e+000;4.0685898438e+003;4.0550000000e+003;4.0635898438e+003;4.0670512695e+003;4.0557692871e+003;4.0492307129e+003;4.0561538086e+003;4.0602563477e+003;4.0406411133e+003;4.0346154785e+003;4.0435898438e+003;4.0620512695e+003;4.0476923828e+003;4.0516667480e+003;
1.0078125000e+000;4.1026923828e+003;4.0820512695e+003;4.0917949219e+003;4.0921794434e+003;4.0711538086e+003;4.0829487305e+003;4.0944870605e+003;4.0929487305e+003;4.0738461914e+003;4.0644870605e+003;4.0730769043e+003;4.0920512695e+003;4.0765385742e+003;4.0815385742e+003;
1.0156250000e+000;4.1137177734e+003;4.0937180176e+003;4.1008974609e+003;4.1020512695e+003;4.0810256348e+003;4.0994873047e+003;4.1117949219e+003;4.1089741211e+003;4.0898718262e+003;4.0794870605e+003;4.0875642090e+003;4.1034614258e+003;4.0883332520e+003;4.0923076172e+003;
1.0234375000e+000;4.0983334961e+003;4.0805129395e+003;4.0850000000e+003;4.0883332520e+003;4.0732050781e+003;4.0914101563e+003;4.1033334961e+003;4.0980771484e+003;4.0794870605e+003;4.0674357910e+003;4.0753845215e+003;4.0876923828e+003;4.0746154785e+003;4.0767949219e+003;
1.0312500000e+000;4.0753845215e+003;4.0638461914e+003;4.0670512695e+003;4.0832050781e+003;4.0739743652e+003;4.0726923828e+003;4.0696154785e+003;4.0664101563e+003;4.0579487305e+003;4.0521794434e+003;4.0526923828e+003;4.0655129395e+003;4.0644870605e+003;4.0634614258e+003;
1.0390625000e+000;4.0456411133e+003;4.0352563477e+003;4.0355129395e+003;4.0552563477e+003;4.0380769043e+003;4.0478205566e+003;4.0396154785e+003;4.0339743652e+003;4.0297436523e+003;4.0219230957e+003;4.0246154785e+003;4.0343588867e+003;4.0369230957e+003;4.0324357910e+003;
1.0468750000e+000;4.0939743652e+003;4.0869230957e+003;4.0764101563e+003;4.0885898438e+003;4.0883332520e+003;4.0942307129e+003;4.0801281738e+003;4.0700000000e+003;4.0858974609e+003;4.0837180176e+003;4.0769230957e+003;4.0730769043e+003;4.0908974609e+003;4.0856411133e+003;
1.0546875000e+000;4.0678205566e+003;4.0539743652e+003;4.0529487305e+003;4.0647436523e+003;4.0685898438e+003;4.0619230957e+003;4.0538461914e+003;4.0420512695e+003;4.0610256348e+003;4.0517949219e+003;4.0561538086e+003;4.0520512695e+003;4.0639743652e+003;4.0584614258e+003;
1.0625000000e+000;4.0844870605e+003;4.0714101563e+003;4.0674357910e+003;4.0826923828e+003;4.0805129395e+003;4.0767949219e+003;4.0682050781e+003;4.0583332520e+003;4.0787180176e+003;4.0698718262e+003;4.0734614258e+003;4.0675642090e+003;4.0815385742e+003;4.0726923828e+003;
1.0703125000e+000;4.0782050781e+003;4.0658974609e+003;4.0608974609e+003;4.0774357910e+003;4.0547436523e+003;4.0679487305e+003;4.0488461914e+003;4.0462819824e+003;4.0696154785e+003;4.0746154785e+003;4.0637180176e+003;4.0611538086e+003;4.0692307129e+003;4.0633332520e+003;
1.0781250000e+000;4.1324360352e+003;4.1193588867e+003;4.1139741211e+003;4.1184614258e+003;4.1138461914e+003;4.1015385742e+003;4.0942307129e+003;4.1030771484e+003;4.1060258789e+003;4.1087177734e+003;4.1147436523e+003;4.1083334961e+003;4.1246152344e+003;4.1134614258e+003;
1.0859375000e+000;4.1238461914e+003;4.1083334961e+003;4.1094873047e+003;4.1091025391e+003;4.1029487305e+003;4.0937180176e+003;4.0880769043e+003;4.1028203125e+003;4.0993588867e+003;4.1017949219e+003;4.1065385742e+003;4.1035898438e+003;4.1183334961e+003;4.1087177734e+003;
1.0937500000e+000;4.0992309570e+003;4.0811538086e+003;4.0884614258e+003;4.0861538086e+003;4.0744870605e+003;4.0728205566e+003;4.0673076172e+003;4.0832050781e+003;4.0755129395e+003;4.0787180176e+003;4.0803845215e+003;4.0839743652e+003;4.0924357910e+003;4.0876923828e+003;
1.1015625000e+000;4.1017949219e+003;4.0850000000e+003;4.0921794434e+003;4.0926923828e+003;4.0738461914e+003;4.0775642090e+003;4.0756411133e+003;4.0858974609e+003;4.0747436523e+003;4.0778205566e+003;4.0784614258e+003;4.0930769043e+003;4.0891025391e+003;4.0932050781e+003;
1.1093750000e+000;4.1121796875e+003;4.0962822266e+003;4.1030771484e+003;4.1044873047e+003;4.0847436523e+003;4.0876923828e+003;4.0902563477e+003;4.0987177734e+003;4.0853845215e+003;4.0851281738e+003;4.0885898438e+003;4.1050000000e+003;4.0991025391e+003;4.1034614258e+003;
1.1171875000e+000;4.0684614258e+003;4.0439743652e+003;4.0606411133e+003;4.0598718262e+003;4.0446154785e+003;4.0530769043e+003;4.0693588867e+003;4.0644870605e+003;4.0394870605e+003;4.0310256348e+003;4.0430769043e+003;4.0551281738e+003;4.0529487305e+003;4.0535898438e+003;
1.1250000000e+000;4.0916667480e+003;4.0700000000e+003;4.0817949219e+003;4.0810256348e+003;4.0728205566e+003;4.0778205566e+003;4.0946154785e+003;4.0880769043e+003;4.0634614258e+003;4.0571794434e+003;4.0684614258e+003;4.0767949219e+003;4.0761538086e+003;4.0757692871e+003;
1.1328125000e+000;4.1091025391e+003;4.0982050781e+003;4.0987177734e+003;4.1015385742e+003;4.1006411133e+003;4.1019228516e+003;4.1101284180e+003;4.1061538086e+003;4.0888461914e+003;4.0875642090e+003;4.0933332520e+003;4.0966665039e+003;4.0973076172e+003;4.0962822266e+003;
1.1406250000e+000;4.0803845215e+003;4.0719230957e+003;4.0721794434e+003;4.0784614258e+003;4.0746154785e+003;4.0789743652e+003;4.0821794434e+003;4.0757692871e+003;4.0623076172e+003;4.0621794434e+003;4.0647436523e+003;4.0670512695e+003;4.0706411133e+003;4.0685898438e+003;
1.1484375000e+000;4.0642307129e+003;4.0565385742e+003;4.0574357910e+003;4.0673076172e+003;4.0593588867e+003;4.0665385742e+003;4.0669230957e+003;4.0562819824e+003;4.0469230957e+003;4.0484614258e+003;4.0466667480e+003;4.0475642090e+003;4.0566667480e+003;4.0515385742e+003;
1.1562500000e+000;4.0783332520e+003;4.0814101563e+003;4.0655129395e+003;4.0748718262e+003;4.0657692871e+003;4.0865385742e+003;4.0705129395e+003;4.0647436523e+003;4.0765385742e+003;4.0680769043e+003;4.0676923828e+003;4.0673076172e+003;4.0739743652e+003;4.0679487305e+003;
1.1640625000e+000;4.0844870605e+003;4.0876923828e+003;4.0723076172e+003;4.0824357910e+003;4.0801281738e+003;4.0875642090e+003;4.0719230957e+003;4.0657692871e+003;4.0778205566e+003;4.0733332520e+003;4.0728205566e+003;4.0721794434e+003;4.0792307129e+003;4.0747436523e+003;
1.1718750000e+000;4.0674357910e+003;4.0696154785e+003;4.0601281738e+003;4.0728205566e+003;4.0702563477e+003;4.0630769043e+003;4.0483332520e+003;4.0428205566e+003;4.0575642090e+003;4.0707692871e+003;4.0589743652e+003;4.0576923828e+003;4.0711538086e+003;4.0606411133e+003;
1.1796875000e+000;4.0628205566e+003;4.0635898438e+003;4.0529487305e+003;4.0653845215e+003;4.0588461914e+003;4.0592307129e+003;4.0438461914e+003;4.0355129395e+003;4.0489743652e+003;4.0605129395e+003;4.0530769043e+003;4.0511538086e+003;4.0661538086e+003;4.0534614258e+003;
1.1875000000e+000;4.1183334961e+003;4.1143588867e+003;4.1039741211e+003;4.1121796875e+003;4.1084614258e+003;4.1071796875e+003;4.0914101563e+003;4.0921794434e+003;4.0932050781e+003;4.1046152344e+003;4.1051284180e+003;4.1061538086e+003;4.1158974609e+003;4.1052563477e+003;
1.1953125000e+000;4.0767949219e+003;4.0566667480e+003;4.0662819824e+003;4.0669230957e+003;4.0575642090e+003;4.0594870605e+003;4.0610256348e+003;4.0669230957e+003;4.0502563477e+003;4.0582050781e+003;4.0573076172e+003;4.0702563477e+003;4.0562819824e+003;4.0573076172e+003;
1.2031250000e+000;4.1026923828e+003;4.0793588867e+003;4.0926923828e+003;4.0893588867e+003;4.0783332520e+003;4.0861538086e+003;4.0919230957e+003;4.0960258789e+003;4.0819230957e+003;4.0856411133e+003;4.0856411133e+003;4.0953845215e+003;4.0811538086e+003;4.0841025391e+003;
1.2109375000e+000;4.0847436523e+003;4.0582050781e+003;4.0792307129e+003;4.0770512695e+003;4.0553845215e+003;4.0746154785e+003;4.0855129395e+003;4.0898718262e+003;4.0711538086e+003;4.0735898438e+003;4.0714101563e+003;4.0826923828e+003;4.0657692871e+003;4.0755129395e+003;
1.2187500000e+000;4.0544870605e+003;4.0292307129e+003;4.0484614258e+003;4.0519230957e+003;4.0273076172e+003;4.0475642090e+003;4.0619230957e+003;4.0637180176e+003;4.0397436523e+003;4.0419230957e+003;4.0394870605e+003;4.0533332520e+003;4.0367949219e+003;4.0476923828e+003;
1.2265625000e+000;4.0611538086e+003;4.0496154785e+003;4.0464101563e+003;4.0565385742e+003;4.0501281738e+003;4.0589743652e+003;4.0791025391e+003;4.0766667480e+003;4.0525642090e+003;4.0467949219e+003;4.0497436523e+003;4.0606411133e+003;4.0489743652e+003;4.0537180176e+003;
1.2343750000e+000;4.0502563477e+003;4.0382050781e+003;4.0351281738e+003;4.0456411133e+003;4.0394870605e+003;4.0496154785e+003;4.0674357910e+003;4.0630769043e+003;4.0432050781e+003;4.0362819824e+003;4.0397436523e+003;4.0502563477e+003;4.0375642090e+003;4.0417949219e+003;
1.2421875000e+000;4.0766667480e+003;4.0614101563e+003;4.0576923828e+003;4.0739743652e+003;4.0598718262e+003;4.0788461914e+003;4.0837180176e+003;4.0794870605e+003;4.0714101563e+003;4.0700000000e+003;4.0637180176e+003;4.0692307129e+003;4.0669230957e+003;4.0633332520e+003;
1.2500000000e+000;4.0782050781e+003;4.0653845215e+003;4.0601281738e+003;4.0737180176e+003;4.0639743652e+003;4.0847436523e+003;4.0851281738e+003;4.0865385742e+003;4.0798718262e+003;4.0783332520e+003;4.0684614258e+003;4.0712819824e+003;4.0715385742e+003;4.0653845215e+003;
1.2578125000e+000;4.0464101563e+003;4.0360256348e+003;4.0312819824e+003;4.0414101563e+003;4.0432050781e+003;4.0601281738e+003;4.0551281738e+003;4.0575642090e+003;4.0576923828e+003;4.0501281738e+003;4.0405129395e+003;4.0387180176e+003;4.0392307129e+003;4.0337180176e+003;
1.2656250000e+000;4.0719230957e+003;4.0621794434e+003;4.0551281738e+003;4.0687180176e+003;4.0746154785e+003;4.0829487305e+003;4.0765385742e+003;4.0771794434e+003;4.0838461914e+003;4.0757692871e+003;4.0661538086e+003;4.0620512695e+003;4.0638461914e+003;4.0592307129e+003;
1.2734375000e+000;4.1217949219e+003;4.1132050781e+003;4.1025639648e+003;4.1206411133e+003;4.1283334961e+003;4.1271796875e+003;4.1191025391e+003;4.1211538086e+003;4.1338461914e+003;4.1285898438e+003;4.1166665039e+003;4.1114101563e+003;4.1147436523e+003;4.1103847656e+003;
1.2812500000e+000;4.1429487305e+003;4.1279487305e+003;4.1285898438e+003;4.1343588867e+003;4.1246152344e+003;4.1256411133e+003;4.1183334961e+003;4.1219228516e+003;4.1388461914e+003;4.1435898438e+003;4.1323076172e+003;4.1342309570e+003;4.1330771484e+003;4.1300000000e+003;
1.2890625000e+000;4.1580771484e+003;4.1464101563e+003;4.1430771484e+003;4.1548715820e+003;4.1417949219e+003;4.1373076172e+003;4.1310258789e+003;4.1388461914e+003;4.1505126953e+003;4.1619228516e+003;4.1496152344e+003;4.1511538086e+003;4.1485898438e+003;4.1466665039e+003;
1.2968750000e+000;4.1393588867e+003;4.1339741211e+003;4.1230771484e+003;4.1448715820e+003;4.1139741211e+003;4.1121796875e+003;4.1133334961e+003;4.1247436523e+003;4.1146152344e+003;4.1300000000e+003;4.1321796875e+003;4.1387177734e+003;4.1274360352e+003;4.1297436523e+003;
1.3046875000e+000;4.1579487305e+003;4.1515385742e+003;4.1423076172e+003;4.1550000000e+003;4.1228203125e+003;4.1269228516e+003;4.1307690430e+003;4.1433334961e+003;4.1306411133e+003;4.1439741211e+003;4.1494873047e+003;4.1573076172e+003;4.1469228516e+003;4.1488461914e+003;
1.3125000000e+000;4.1467949219e+003;4.1346152344e+003;4.1357690430e+003;4.1351284180e+003;4.1066665039e+003;4.1175639648e+003;4.1221796875e+003;4.1369228516e+003;4.1235898438e+003;4.1373076172e+003;4.1369228516e+003;4.1470512695e+003;4.1369228516e+003;4.1414101563e+003;
1.3203125000e+000;4.1207690430e+003;4.1075639648e+003;4.1108974609e+003;4.1130771484e+003;4.0901281738e+003;4.0950000000e+003;4.1029487305e+003;4.1129487305e+003;4.0978203125e+003;4.1117949219e+003;4.1103847656e+003;4.1205126953e+003;4.1079487305e+003;4.1147436523e+003;
1.3281250000e+000;4.1734614258e+003;4.1700000000e+003;4.1597436523e+003;4.1692309570e+003;4.1651284180e+003;4.1497436523e+003;4.1744873047e+003;4.1737177734e+003;4.1520512695e+003;4.1611538086e+003;4.1633334961e+003;4.1700000000e+003;4.1557690430e+003;4.1597436523e+003;
1.3359375000e+000;4.1643588867e+003;4.1543588867e+003;4.1515385742e+003;4.1593588867e+003;4.1421796875e+003;4.1589741211e+003;4.1738461914e+003;4.1698715820e+003;4.1529487305e+003;4.1607690430e+003;4.1533334961e+003;4.1539741211e+003;4.1539741211e+003;4.1517949219e+003;
1.3437500000e+000;4.1805126953e+003;4.1734614258e+003;4.1685898438e+003;4.1800000000e+003;4.1641025391e+003;4.1765385742e+003;4.1897436523e+003;4.1853847656e+003;4.1715385742e+003;4.1825639648e+003;4.1721796875e+003;4.1688461914e+003;4.1717949219e+003;4.1703847656e+003;
1.3515625000e+000;4.1480771484e+003;4.1558974609e+003;4.1421796875e+003;4.1555126953e+003;4.1492309570e+003;4.1560258789e+003;4.1511538086e+003;4.1473076172e+003;4.1494873047e+003;4.1576923828e+003;4.1407690430e+003;4.1410258789e+003;4.1394873047e+003;4.1441025391e+003;
1.3593750000e+000;4.1516665039e+003;4.1596152344e+003;4.1434614258e+003;4.1538461914e+003;4.1529487305e+003;4.1620512695e+003;4.1510258789e+003;4.1451284180e+003;4.1523076172e+003;4.1569228516e+003;4.1417949219e+003;4.1406411133e+003;4.1421796875e+003;4.1448715820e+003;
1.3671875000e+000;4.2257690430e+003;4.2346152344e+003;4.2108974609e+003;4.2252563477e+003;4.2325639648e+003;4.2256411133e+003;4.2129487305e+003;4.2165385742e+003;4.2337177734e+003;4.2401284180e+003;4.2260258789e+003;4.2128203125e+003;4.2266665039e+003;4.2192309570e+003;
1.3750000000e+000;4.2026923828e+003;4.2132050781e+003;4.1885898438e+003;4.2080771484e+003;4.2129487305e+003;4.2007690430e+003;4.1878203125e+003;4.1916665039e+003;4.2092309570e+003;4.2198715820e+003;4.2044873047e+003;4.1917949219e+003;4.2066665039e+003;4.1973076172e+003;
1.3828125000e+000;4.1898715820e+003;4.2066665039e+003;4.1764101563e+003;4.1985898438e+003;4.2034614258e+003;4.1857690430e+003;4.1685898438e+003;4.1714101563e+003;4.1865385742e+003;4.2093588867e+003;4.1938461914e+003;4.1819228516e+003;4.1976923828e+003;4.1865385742e+003;
1.3906250000e+000;4.1984614258e+003;4.2171796875e+003;4.1858974609e+003;4.2051284180e+003;4.2098715820e+003;4.1933334961e+003;4.1746152344e+003;4.1811538086e+003;4.1951284180e+003;4.2205126953e+003;4.2075639648e+003;4.1942309570e+003;4.2079487305e+003;4.1984614258e+003;
1.3984375000e+000;4.1887177734e+003;4.2056411133e+003;4.1776923828e+003;4.1946152344e+003;4.1952563477e+003;4.1828203125e+003;4.1648715820e+003;4.1753847656e+003;4.1876923828e+003;4.2107690430e+003;4.2023076172e+003;4.1887177734e+003;4.1991025391e+003;4.1917949219e+003;
1.4062500000e+000;4.1671796875e+003;4.1788461914e+003;4.1576923828e+003;4.1743588867e+003;4.1684614258e+003;4.1589741211e+003;4.1450000000e+003;4.1569228516e+003;4.1662822266e+003;4.1842309570e+003;4.1808974609e+003;4.1691025391e+003;4.1773076172e+003;4.1700000000e+003;
1.4140625000e+000;4.1858974609e+003;4.1884614258e+003;4.1794873047e+003;4.1962822266e+003;4.1788461914e+003;4.1608974609e+003;4.1593588867e+003;4.1796152344e+003;4.1658974609e+003;4.1874360352e+003;4.1905126953e+003;4.1896152344e+003;4.1830771484e+003;4.1748715820e+003;
1.4218750000e+000;4.1878203125e+003;4.1842309570e+003;4.1769228516e+003;4.1851284180e+003;4.1647436523e+003;4.1665385742e+003;4.1788461914e+003;4.1874360352e+003;4.1742309570e+003;4.1941025391e+003;4.1946152344e+003;4.1967949219e+003;4.1967949219e+003;4.1851284180e+003;
1.4296875000e+000;4.1960258789e+003;4.1912822266e+003;4.1883334961e+003;4.1961538086e+003;4.1788461914e+003;4.1785898438e+003;4.1924360352e+003;4.2038461914e+003;4.1870512695e+003;4.2084614258e+003;4.2046152344e+003;4.2087177734e+003;4.2083334961e+003;4.1952563477e+003;
1.4375000000e+000;4.1524360352e+003;4.1547436523e+003;4.1524360352e+003;4.1641025391e+003;4.1550000000e+003;4.1544873047e+003;4.1687177734e+003;4.1730771484e+003;4.1478203125e+003;4.1616665039e+003;4.1661538086e+003;4.1703847656e+003;4.1605126953e+003;4.1511538086e+003;
1.4453125000e+000;4.1592309570e+003;4.1721796875e+003;4.1632050781e+003;4.1812822266e+003;4.1832050781e+003;4.1723076172e+003;4.1825639648e+003;4.1820512695e+003;4.1667949219e+003;4.1830771484e+003;4.1811538086e+003;4.1762822266e+003;4.1770512695e+003;4.1619228516e+003;
1.4531250000e+000;4.1402563477e+003;4.1533334961e+003;4.1432050781e+003;4.1653847656e+003;4.1639741211e+003;4.1579487305e+003;4.1633334961e+003;4.1600000000e+003;4.1475639648e+003;4.1644873047e+003;4.1585898438e+003;4.1541025391e+003;4.1567949219e+003;4.1408974609e+003;
1.4609375000e+000;4.1573076172e+003;4.1764101563e+003;4.1580771484e+003;4.1779487305e+003;4.1806411133e+003;4.1789741211e+003;4.1757690430e+003;4.1678203125e+003;4.1641025391e+003;4.1782050781e+003;4.1744873047e+003;4.1650000000e+003;4.1720512695e+003;4.1564101563e+003;
1.4687500000e+000;4.1585898438e+003;4.1791025391e+003;4.1610258789e+003;4.1748715820e+003;4.1802563477e+003;4.1791025391e+003;4.1719228516e+003;4.1662822266e+003;4.1669228516e+003;4.1805126953e+003;4.1793588867e+003;4.1671796875e+003;4.1747436523e+003;4.1607690430e+003;
1.4765625000e+000;4.1566665039e+003;4.1753847656e+003;4.1564101563e+003;4.1703847656e+003;4.1792309570e+003;4.1688461914e+003;4.1552563477e+003;4.1564101563e+003;4.1689741211e+003;4.1841025391e+003;4.1812822266e+003;4.1658974609e+003;4.1779487305e+003;4.1615385742e+003;
1.4843750000e+000;4.1869228516e+003;4.2091025391e+003;4.1856411133e+003;4.2039741211e+003;4.2132050781e+003;4.1992309570e+003;4.1835898438e+003;4.1880771484e+003;4.2032050781e+003;4.2196152344e+003;4.2128203125e+003;4.1966665039e+003;4.2125639648e+003;4.1916665039e+003;
1.4921875000e+000;4.1888461914e+003;4.2133334961e+003;4.1964101563e+003;4.2075639648e+003;4.2021796875e+003;4.1987177734e+003;4.1810258789e+003;4.1864101563e+003;4.1948715820e+003;4.2171796875e+003;4.2116665039e+003;4.2016665039e+003;4.2141025391e+003;4.1925639648e+003;
1.5000000000e+000;4.2228203125e+003;4.2444873047e+003;4.2289741211e+003;4.2356411133e+003;4.2292309570e+003;4.2206411133e+003;4.2070512695e+003;4.2133334961e+003;4.2165385742e+003;4.2435898438e+003;4.2417949219e+003;4.2324360352e+003;4.2420512695e+003;4.2237177734e+003;
1.5078125000e+000;4.3065385742e+003;4.3238461914e+003;4.3098715820e+003;4.3156411133e+003;4.3134614258e+003;4.2819228516e+003;4.2773076172e+003;4.2973076172e+003;4.2865385742e+003;4.3212822266e+003;4.3246152344e+003;4.3166665039e+003;4.3175639648e+003;4.3071796875e+003;
1.5156250000e+000;4.3021796875e+003;4.3185898438e+003;4.3076923828e+003;4.3138461914e+003;4.3137177734e+003;4.2739741211e+003;4.2724360352e+003;4.2971796875e+003;4.2792309570e+003;4.3135898438e+003;4.3194873047e+003;4.3157690430e+003;4.3108974609e+003;4.3039741211e+003;
1.5234375000e+000;4.2867949219e+003;4.3041025391e+003;4.2962822266e+003;4.3003847656e+003;4.3016665039e+003;4.2584614258e+003;4.2596152344e+003;4.2841025391e+003;4.2614101563e+003;4.2930771484e+003;4.3016665039e+003;4.3026923828e+003;4.2947436523e+003;4.2888461914e+003;
1.5312500000e+000;4.2920512695e+003;4.3129487305e+003;4.3058974609e+003;4.3062822266e+003;4.3076923828e+003;4.2646152344e+003;4.2683334961e+003;4.2901284180e+003;4.2666665039e+003;4.2960258789e+003;4.3055126953e+003;4.3092309570e+003;4.3020512695e+003;4.2943588867e+003;
1.5390625000e+000;4.2910258789e+003;4.3201284180e+003;4.3179487305e+003;4.3121796875e+003;4.3062822266e+003;4.2906411133e+003;4.3020512695e+003;4.3128203125e+003;4.2938461914e+003;4.3135898438e+003;4.3194873047e+003;4.3207690430e+003;4.3124360352e+003;4.3006411133e+003;
1.5468750000e+000;4.2519228516e+003;4.2824360352e+003;4.2833334961e+003;4.2855126953e+003;4.2824360352e+003;4.2816665039e+003;4.2937177734e+003;4.2901284180e+003;4.2747436523e+003;4.2794873047e+003;4.2737177734e+003;4.2789741211e+003;4.2701284180e+003;4.2683334961e+003;
1.5546875000e+000;4.2203847656e+003;4.2530771484e+003;4.2526923828e+003;4.2592309570e+003;4.2501284180e+003;4.2593588867e+003;4.2665385742e+003;4.2571796875e+003;4.2441025391e+003;4.2471796875e+003;4.2426923828e+003;4.2460258789e+003;4.2401284180e+003;4.2367949219e+003;
1.5625000000e+000;4.2360258789e+003;4.2708974609e+003;4.2621796875e+003;4.2707690430e+003;4.2623076172e+003;4.2823076172e+003;4.2834614258e+003;4.2674360352e+003;4.2596152344e+003;4.2608974609e+003;4.2629487305e+003;4.2580771484e+003;4.2576923828e+003;4.2483334961e+003;
1.5703125000e+000;4.2005126953e+003;4.2326923828e+003;4.2292309570e+003;4.2366665039e+003;4.2456411133e+003;4.2405126953e+003;4.2356411133e+003;4.2248715820e+003;4.2326923828e+003;4.2358974609e+003;4.2275639648e+003;4.2184614258e+003;4.2238461914e+003;4.2208974609e+003;
1.5781250000e+000;4.2169228516e+003;4.2500000000e+003;4.2426923828e+003;4.2530771484e+003;4.2653847656e+003;4.2530771484e+003;4.2456411133e+003;4.2353847656e+003;4.2473076172e+003;4.2555126953e+003;4.2450000000e+003;4.2334614258e+003;4.2439741211e+003;4.2384614258e+003;
1.5859375000e+000;4.2310258789e+003;4.2614101563e+003;4.2497436523e+003;4.2637177734e+003;4.2710258789e+003;4.2634614258e+003;4.2508974609e+003;4.2444873047e+003;4.2591025391e+003;4.2757690430e+003;4.2655126953e+003;4.2547436523e+003;4.2639741211e+003;4.2553847656e+003;
1.5937500000e+000;4.2193588867e+003;4.2455126953e+003;4.2361538086e+003;4.2498715820e+003;4.2519228516e+003;4.2479487305e+003;4.2358974609e+003;4.2294873047e+003;4.2429487305e+003;4.2603847656e+003;4.2539741211e+003;4.2435898438e+003;4.2507690430e+003;4.2432050781e+003;
1.6015625000e+000;4.2465385742e+003;4.2756411133e+003;4.2661538086e+003;4.2657690430e+003;4.2678203125e+003;4.2539741211e+003;4.2442309570e+003;4.2517949219e+003;4.2574360352e+003;4.2766665039e+003;4.2769228516e+003;4.2658974609e+003;4.2725639648e+003;4.2715385742e+003;
1.6093750000e+000;4.2232050781e+003;4.2552563477e+003;4.2450000000e+003;4.2429487305e+003;4.2424360352e+003;4.2310258789e+003;4.2194873047e+003;4.2311538086e+003;4.2324360352e+003;4.2525639648e+003;4.2541025391e+003;4.2478203125e+003;4.2484614258e+003;4.2512822266e+003;
1.6171875000e+000;4.1896152344e+003;4.2215385742e+003;4.2119228516e+003;4.2132050781e+003;4.2078203125e+003;4.1989741211e+003;4.1879487305e+003;4.1983334961e+003;4.1944873047e+003;4.2148715820e+003;4.2205126953e+003;4.2184614258e+003;4.2129487305e+003;4.2184614258e+003;
1.6250000000e+000;4.2042309570e+003;4.2314101563e+003;4.2233334961e+003;4.2334614258e+003;4.2220512695e+003;4.2046152344e+003;4.2023076172e+003;4.2102563477e+003;4.1987177734e+003;4.2212822266e+003;4.2339741211e+003;4.2289741211e+003;4.2261538086e+003;4.2285898438e+003;
1.6328125000e+000;4.2033334961e+003;4.2242309570e+003;4.2224360352e+003;4.2265385742e+003;4.2069228516e+003;4.1975639648e+003;4.2014101563e+003;4.2193588867e+003;4.2056411133e+003;4.2251284180e+003;4.2237177734e+003;4.2221796875e+003;4.2257690430e+003;4.2274360352e+003;
1.6406250000e+000;4.1925639648e+003;4.2098715820e+003;4.2112822266e+003;4.2156411133e+003;4.1934614258e+003;4.1893588867e+003;4.1958974609e+003;4.2087177734e+003;4.1957690430e+003;4.2088461914e+003;4.2082050781e+003;4.2101284180e+003;4.2087177734e+003;4.2126923828e+003;
1.6484375000e+000;4.2064101563e+003;4.2208974609e+003;4.2242309570e+003;4.2311538086e+003;4.2097436523e+003;4.2052563477e+003;4.2148715820e+003;4.2230771484e+003;4.2102563477e+003;4.2178203125e+003;4.2205126953e+003;4.2229487305e+003;4.2162822266e+003;4.2214101563e+003;
1.6562500000e+000;4.2207690430e+003;4.2348715820e+003;4.2389741211e+003;4.2483334961e+003;4.2303847656e+003;4.2230771484e+003;4.2348715820e+003;4.2412822266e+003;4.2271796875e+003;4.2312822266e+003;4.2370512695e+003;4.2385898438e+003;4.2280771484e+003;4.2332050781e+003;
1.6640625000e+000;4.1958974609e+003;4.2211538086e+003;4.2169228516e+003;4.2157690430e+003;4.2135898438e+003;4.2207690430e+003;4.2351284180e+003;4.2252563477e+003;4.2030771484e+003;4.2061538086e+003;4.2111538086e+003;4.2134614258e+003;4.2130771484e+003;4.2126923828e+003;
1.6718750000e+000;4.2325639648e+003;4.2565385742e+003;4.2526923828e+003;4.2503847656e+003;4.2484614258e+003;4.2600000000e+003;4.2700000000e+003;4.2611538086e+003;4.2406411133e+003;4.2438461914e+003;4.2478203125e+003;4.2484614258e+003;4.2503847656e+003;4.2480771484e+003;
1.6796875000e+000;4.1947436523e+003;4.2269228516e+003;4.2183334961e+003;4.2351284180e+003;4.2305126953e+003;4.2417949219e+003;4.2387177734e+003;4.2265385742e+003;4.2215385742e+003;4.2165385742e+003;4.2192309570e+003;4.2166665039e+003;4.2126923828e+003;4.2102563477e+003;
1.6875000000e+000;4.1923076172e+003;4.2276923828e+003;4.2143588867e+003;4.2315385742e+003;4.2370512695e+003;4.2329487305e+003;4.2264101563e+003;4.2157690430e+003;4.2211538086e+003;4.2248715820e+003;4.2173076172e+003;4.2126923828e+003;4.2179487305e+003;4.2092309570e+003;
1.6953125000e+000;4.1694873047e+003;4.2006411133e+003;4.1892309570e+003;4.2046152344e+003;4.2055126953e+003;4.2103847656e+003;4.1988461914e+003;4.1900000000e+003;4.1951284180e+003;4.1979487305e+003;4.1933334961e+003;4.1882050781e+003;4.1957690430e+003;4.1847436523e+003;
1.7031250000e+000;4.1928203125e+003;4.2255126953e+003;4.2021796875e+003;4.2216665039e+003;4.2074360352e+003;4.2229487305e+003;4.2123076172e+003;4.2100000000e+003;4.2224360352e+003;4.2247436523e+003;4.2252563477e+003;4.2164101563e+003;4.2261538086e+003;4.2144873047e+003;
1.7109375000e+000;4.1761538086e+003;4.2030771484e+003;4.1943588867e+003;4.2033334961e+003;4.2029487305e+003;4.1882050781e+003;4.1830771484e+003;4.1950000000e+003;4.1965385742e+003;4.2071796875e+003;4.2037177734e+003;4.2064101563e+003;4.2110258789e+003;4.2015385742e+003;
1.7187500000e+000;4.1982050781e+003;4.2252563477e+003;4.2141025391e+003;4.2198715820e+003;4.2255126953e+003;4.2055126953e+003;4.1996152344e+003;4.2129487305e+003;4.2075639648e+003;4.2205126953e+003;4.2203847656e+003;4.2243588867e+003;4.2294873047e+003;4.2201284180e+003;
1.7265625000e+000;4.2457690430e+003;4.2712822266e+003;4.2576923828e+003;4.2597436523e+003;4.2508974609e+003;4.2348715820e+003;4.2320512695e+003;4.2591025391e+003;4.2489741211e+003;4.2611538086e+003;4.2696152344e+003;4.2705126953e+003;4.2658974609e+003;4.2656411133e+003;
1.7343750000e+000;4.2392309570e+003;4.2615385742e+003;4.2529487305e+003;4.2547436523e+003;4.2407690430e+003;4.2217949219e+003;4.2237177734e+003;4.2523076172e+003;4.2426923828e+003;4.2516665039e+003;4.2615385742e+003;4.2642309570e+003;4.2564101563e+003;4.2585898438e+003;
1.7421875000e+000;4.2537177734e+003;4.2765385742e+003;4.2697436523e+003;4.2701284180e+003;4.2584614258e+003;4.2324360352e+003;4.2388461914e+003;4.2687177734e+003;4.2588461914e+003;4.2651284180e+003;4.2753847656e+003;4.2805126953e+003;4.2716665039e+003;4.2744873047e+003;
1.7500000000e+000;4.2755126953e+003;4.3070512695e+003;4.2970512695e+003;4.2926923828e+003;4.2907690430e+003;4.2658974609e+003;4.2752563477e+003;4.3062822266e+003;4.2935898438e+003;4.2966665039e+003;4.3073076172e+003;4.3150000000e+003;4.3041025391e+003;4.3094873047e+003;
1.7578125000e+000;4.2014101563e+003;4.2237177734e+003;4.2233334961e+003;4.2157690430e+003;4.2097436523e+003;4.2212822266e+003;4.2306411133e+003;4.2394873047e+003;4.2232050781e+003;4.2212822266e+003;4.2338461914e+003;4.2380771484e+003;4.2289741211e+003;4.2364101563e+003;
1.7656250000e+000;4.2115385742e+003;4.2305126953e+003;4.2319228516e+003;4.2238461914e+003;4.2221796875e+003;4.2315385742e+003;4.2415385742e+003;4.2476923828e+003;4.2321796875e+003;4.2303847656e+003;4.2382050781e+003;4.2435898438e+003;4.2353847656e+003;4.2411538086e+003;
1.7734375000e+000;4.2097436523e+003;4.2266665039e+003;4.2296152344e+003;4.2224360352e+003;4.2228203125e+003;4.2285898438e+003;4.2393588867e+003;4.2448715820e+003;4.2305126953e+003;4.2289741211e+003;4.2311538086e+003;4.2396152344e+003;4.2300000000e+003;4.2356411133e+003;
1.7812500000e+000;4.1829487305e+003;4.1974360352e+003;4.2029487305e+003;4.1983334961e+003;4.1953847656e+003;4.2015385742e+003;4.2132050781e+003;4.2152563477e+003;4.2024360352e+003;4.2006411133e+003;4.2000000000e+003;4.2111538086e+003;4.1998715820e+003;4.2062822266e+003;
1.7890625000e+000;4.1673076172e+003;4.1834614258e+003;4.1885898438e+003;4.1937177734e+003;4.1847436523e+003;4.1966665039e+003;4.1929487305e+003;4.1788461914e+003;4.1811538086e+003;4.1802563477e+003;4.1842309570e+003;4.1855126953e+003;4.1843588867e+003;4.1824360352e+003;
1.7968750000e+000;4.1485898438e+003;4.1702563477e+003;4.1697436523e+003;4.1785898438e+003;4.1737177734e+003;4.1842309570e+003;4.1751284180e+003;4.1612822266e+003;4.1657690430e+003;4.1655126953e+003;4.1660258789e+003;4.1688461914e+003;4.1665385742e+003;4.1650000000e+003;
1.8046875000e+000;4.1603847656e+003;4.1761538086e+003;4.1671796875e+003;4.1798715820e+003;4.1812822266e+003;4.1832050781e+003;4.1780771484e+003;4.1638461914e+003;4.1691025391e+003;4.1682050781e+003;4.1674360352e+003;4.1692309570e+003;4.1767949219e+003;4.1743588867e+003;
1.8125000000e+000;4.1625639648e+003;4.1650000000e+003;4.1670512695e+003;4.1817949219e+003;4.1660258789e+003;4.1726923828e+003;4.1579487305e+003;4.1502563477e+003;4.1557690430e+003;4.1616665039e+003;4.1647436523e+003;4.1685898438e+003;4.1694873047e+003;4.1721796875e+003;
1.8203125000e+000;4.1685898438e+003;4.1762822266e+003;4.1726923828e+003;4.1901284180e+003;4.1724360352e+003;4.1757690430e+003;4.1601284180e+003;4.1526923828e+003;4.1558974609e+003;4.1643588867e+003;4.1689741211e+003;4.1743588867e+003;4.1738461914e+003;4.1791025391e+003;
1.8281250000e+000;4.1996152344e+003;4.2087177734e+003;4.2057690430e+003;4.2166665039e+003;4.1843588867e+003;4.1833334961e+003;4.1782050781e+003;4.1914101563e+003;4.1791025391e+003;4.2029487305e+003;4.2039741211e+003;4.2137177734e+003;4.2110258789e+003;4.2194873047e+003;
1.8359375000e+000;4.1892309570e+003;4.1952563477e+003;4.1988461914e+003;4.1992309570e+003;4.1702563477e+003;4.1671796875e+003;4.1705126953e+003;4.1897436523e+003;4.1764101563e+003;4.1960258789e+003;4.1969228516e+003;4.2078203125e+003;4.2020512695e+003;4.2078203125e+003;
1.8437500000e+000;4.2047436523e+003;4.2178203125e+003;4.2161538086e+003;4.2160258789e+003;4.1988461914e+003;4.1887177734e+003;4.1930771484e+003;4.2148715820e+003;4.2023076172e+003;4.2188461914e+003;4.2166665039e+003;4.2265385742e+003;4.2228203125e+003;4.2273076172e+003;
1.8515625000e+000;4.1969228516e+003;4.2151284180e+003;4.2110258789e+003;4.2132050781e+003;4.2053847656e+003;4.1893588867e+003;4.1944873047e+003;4.2173076172e+003;4.2039741211e+003;4.2171796875e+003;4.2119228516e+003;4.2223076172e+003;4.2188461914e+003;4.2230771484e+003;
1.8593750000e+000;4.1787177734e+003;4.1950000000e+003;4.1933334961e+003;4.2050000000e+003;4.2001284180e+003;4.1832050781e+003;4.1921796875e+003;4.2083334961e+003;4.1924360352e+003;4.1987177734e+003;4.1919228516e+003;4.2032050781e+003;4.1975639648e+003;4.2008974609e+003;
1.8671875000e+000;4.1960258789e+003;4.2112822266e+003;4.2100000000e+003;4.2238461914e+003;4.2144873047e+003;4.2055126953e+003;4.2166665039e+003;4.2298715820e+003;4.2134614258e+003;4.2170512695e+003;4.2101284180e+003;4.2202563477e+003;4.2137177734e+003;4.2165385742e+003;
1.8750000000e+000;4.1466665039e+003;4.1685898438e+003;4.1673076172e+003;4.1787177734e+003;4.1630771484e+003;4.1841025391e+003;4.1965385742e+003;4.1950000000e+003;4.1769228516e+003;4.1757690430e+003;4.1696152344e+003;4.1783334961e+003;4.1716665039e+003;4.1739741211e+003;
1.8828125000e+000;4.2058974609e+003;4.2241025391e+003;4.2151284180e+003;4.2351284180e+003;4.2351284180e+003;4.2312822266e+003;4.2433334961e+003;4.2297436523e+003;4.2212822266e+003;4.2298715820e+003;4.2193588867e+003;4.2174360352e+003;4.2203847656e+003;4.2184614258e+003;
1.8906250000e+000;4.2126923828e+003;4.2320512695e+003;4.2189741211e+003;4.2400000000e+003;4.2382050781e+003;4.2380771484e+003;4.2450000000e+003;4.2334614258e+003;4.2293588867e+003;4.2387177734e+003;4.2255126953e+003;4.2229487305e+003;4.2234614258e+003;4.2244873047e+003;
1.8984375000e+000;4.1952563477e+003;4.2161538086e+003;4.2000000000e+003;4.2205126953e+003;4.2152563477e+003;4.2247436523e+003;4.2264101563e+003;4.2143588867e+003;4.2142309570e+003;4.2203847656e+003;4.2078203125e+003;4.2064101563e+003;4.2033334961e+003;4.2073076172e+003;
1.9062500000e+000;4.1856411133e+003;4.2071796875e+003;4.1893588867e+003;4.2082050781e+003;4.2021796875e+003;4.2179487305e+003;4.2167949219e+003;4.2021796875e+003;4.2060258789e+003;4.2080771484e+003;4.1983334961e+003;4.1973076172e+003;4.1928203125e+003;4.1974360352e+003;
1.9140625000e+000;4.1975639648e+003;4.2141025391e+003;4.2047436523e+003;4.2185898438e+003;4.2188461914e+003;4.2261538086e+003;4.2223076172e+003;4.2126923828e+003;4.2226923828e+003;4.2334614258e+003;4.2102563477e+003;4.2175639648e+003;4.2043588867e+003;4.2141025391e+003;
1.9218750000e+000;4.1860258789e+003;4.2024360352e+003;4.1929487305e+003;4.2075639648e+003;4.2076923828e+003;4.2158974609e+003;4.2092309570e+003;4.1993588867e+003;4.2078203125e+003;4.2203847656e+003;4.1956411133e+003;4.2055126953e+003;4.1917949219e+003;4.2030771484e+003;
1.9296875000e+000;4.2298715820e+003;4.2392309570e+003;4.2356411133e+003;4.2483334961e+003;4.2333334961e+003;4.2421796875e+003;4.2373076172e+003;4.2375639648e+003;4.2365385742e+003;4.2541025391e+003;4.2419228516e+003;4.2497436523e+003;4.2388461914e+003;4.2455126953e+003;
1.9375000000e+000;4.2534614258e+003;4.2617949219e+003;4.2619228516e+003;4.2703847656e+003;4.2435898438e+003;4.2462822266e+003;4.2569228516e+003;4.2657690430e+003;4.2442309570e+003;4.2751284180e+003;4.2767949219e+003;4.2839741211e+003;4.2669228516e+003;4.2744873047e+003;
1.9453125000e+000;4.2850000000e+003;4.2982050781e+003;4.2933334961e+003;4.2987177734e+003;4.2828203125e+003;4.2733334961e+003;4.2856411133e+003;4.3008974609e+003;4.2779487305e+003;4.3117949219e+003;4.3110258789e+003;4.3180771484e+003;4.3017949219e+003;4.3103847656e+003;
1.9531250000e+000;4.2626923828e+003;4.2707690430e+003;4.2784614258e+003;4.2702563477e+003;4.2703847656e+003;4.2465385742e+003;4.2615385742e+003;4.2828203125e+003;4.2665385742e+003;4.2832050781e+003;4.2810258789e+003;4.2914101563e+003;4.2776923828e+003;4.2879487305e+003;
1.9609375000e+000;4.3016665039e+003;4.3200000000e+003;4.3215385742e+003;4.3178203125e+003;4.3087177734e+003;4.2933334961e+003;4.3156411133e+003;4.3414101563e+003;4.3205126953e+003;4.3319228516e+003;4.3271796875e+003;4.3339741211e+003;4.3194873047e+003;4.3261538086e+003;
1.9687500000e+000;4.2752563477e+003;4.2971796875e+003;4.2956411133e+003;4.2973076172e+003;4.2844873047e+003;4.2761538086e+003;4.2953847656e+003;4.3193588867e+003;4.2979487305e+003;4.3103847656e+003;4.3015385742e+003;4.3083334961e+003;4.2933334961e+003;4.3006411133e+003;
1.9765625000e+000;4.2521796875e+003;4.2753847656e+003;4.2725639648e+003;4.2789741211e+003;4.2646152344e+003;4.2623076172e+003;4.2784614258e+003;4.2955126953e+003;4.2756411133e+003;4.2873076172e+003;4.2764101563e+003;4.2824360352e+003;4.2696152344e+003;4.2771796875e+003;
1.9843750000e+000;4.2819228516e+003;4.3096152344e+003;4.3044873047e+003;4.3146152344e+003;4.3037177734e+003;4.3053847656e+003;4.3200000000e+003;4.3234614258e+003;4.3100000000e+003;4.3173076172e+003;4.3044873047e+003;4.3061538086e+003;4.3029487305e+003;4.3066665039e+003;
1.9921875000e+000;4.2924360352e+003;4.3239741211e+003;4.3178203125e+003;4.3283334961e+003;4.3185898438e+003;4.3223076172e+003;4.3361538086e+003;4.3370512695e+003;4.3256411133e+003;4.3308974609e+003;4.3169228516e+003;4.3169228516e+003;4.3164101563e+003;4.3174360352e+003;
2.0000000000e+000;4.2687177734e+003;4.3088461914e+003;4.2960258789e+003;4.3101284180e+003;4.3055126953e+003;4.3138461914e+003;4.3169228516e+003;4.3106411133e+003;4.3016665039e+003;4.3091025391e+003;4.2965385742e+003;4.2937177734e+003;4.2926923828e+003;4.2856411133e+003;
2.0078125000e+000;4.2630771484e+003;4.2994873047e+003;4.2911538086e+003;4.2998715820e+003;4.3017949219e+003;4.3091025391e+003;4.3012822266e+003;4.2943588867e+003;4.2925639648e+003;4.3102563477e+003;4.2965385742e+003;4.2911538086e+003;4.2946152344e+003;4.2897436523e+003;
2.0156250000e+000;4.2391025391e+003;4.2717949219e+003;4.2664101563e+003;4.2715385742e+003;4.2751284180e+003;4.2800000000e+003;4.2752563477e+003;4.2630771484e+003;4.2626923828e+003;4.2788461914e+003;4.2689741211e+003;4.2637177734e+003;4.2710258789e+003;4.2674360352e+003;
2.0234375000e+000;4.2382050781e+003;4.2682050781e+003;4.2638461914e+003;4.2644873047e+003;4.2711538086e+003;4.2705126953e+003;4.2710258789e+003;4.2556411133e+003;4.2548715820e+003;4.2703847656e+003;4.2639741211e+003;4.2593588867e+003;4.2696152344e+003;4.2655126953e+003;
2.0312500000e+000;4.2521796875e+003;4.2807690430e+003;4.2773076172e+003;4.2733334961e+003;4.2820512695e+003;4.2761538086e+003;4.2807690430e+003;4.2682050781e+003;4.2647436523e+003;4.2826923828e+003;4.2764101563e+003;4.2739741211e+003;4.2832050781e+003;4.2783334961e+003;
2.0390625000e+000;4.2142309570e+003;4.2408974609e+003;4.2398715820e+003;4.2447436523e+003;4.2310258789e+003;4.2342309570e+003;4.2398715820e+003;4.2429487305e+003;4.2247436523e+003;4.2515385742e+003;4.2428203125e+003;4.2421796875e+003;4.2394873047e+003;4.2388461914e+003;
2.0468750000e+000;4.2417949219e+003;4.2687177734e+003;4.2650000000e+003;4.2679487305e+003;4.2569228516e+003;4.2551284180e+003;4.2638461914e+003;4.2715385742e+003;4.2533334961e+003;4.2787177734e+003;4.2714101563e+003;4.2660258789e+003;4.2687177734e+003;4.2655126953e+003;
2.0546875000e+000;4.2162822266e+003;4.2387177734e+003;4.2420512695e+003;4.2335898438e+003;4.2217949219e+003;4.2171796875e+003;4.2335898438e+003;4.2541025391e+003;4.2335898438e+003;4.2511538086e+003;4.2467949219e+003;4.2489741211e+003;4.2448715820e+003;4.2434614258e+003;
2.0625000000e+000;4.2197436523e+003;4.2410258789e+003;4.2434614258e+003;4.2371796875e+003;4.2229487305e+003;4.2187177734e+003;4.2373076172e+003;4.2552563477e+003;4.2346152344e+003;4.2492309570e+003;4.2470512695e+003;4.2515385742e+003;4.2447436523e+003;4.2446152344e+003;
2.0703125000e+000;4.2746152344e+003;4.2978203125e+003;4.2951284180e+003;4.2923076172e+003;4.2771796875e+003;4.2750000000e+003;4.2944873047e+003;4.3112822266e+003;4.2926923828e+003;4.3025639648e+003;4.2992309570e+003;4.3015385742e+003;4.2976923828e+003;4.2951284180e+003;
2.0781250000e+000;4.2780771484e+003;4.2991025391e+003;4.3024360352e+003;4.2992309570e+003;4.2930771484e+003;4.2876923828e+003;4.3146152344e+003;4.3193588867e+003;4.2947436523e+003;4.3074360352e+003;4.2921796875e+003;4.2982050781e+003;4.2993588867e+003;4.2914101563e+003;
2.0859375000e+000;4.2923076172e+003;4.3171796875e+003;4.3174360352e+003;4.3173076172e+003;4.3200000000e+003;4.3062822266e+003;4.3312822266e+003;4.3341025391e+003;4.3098715820e+003;4.3251284180e+003;4.3083334961e+003;4.3130771484e+003;4.3134614258e+003;4.3066665039e+003;
2.0937500000e+000;4.2766665039e+003;4.3121796875e+003;4.2997436523e+003;4.3061538086e+003;4.3228203125e+003;4.3085898438e+003;4.3214101563e+003;4.3157690430e+003;4.2982050781e+003;4.3108974609e+003;4.2950000000e+003;4.2973076172e+003;4.2991025391e+003;4.2911538086e+003;
2.1015625000e+000;4.2921796875e+003;4.3312822266e+003;4.3101284180e+003;4.3175639648e+003;4.3385898438e+003;4.3283334961e+003;4.3364101563e+003;4.3253847656e+003;4.3128203125e+003;4.3243588867e+003;4.3097436523e+003;4.3105126953e+003;4.3155126953e+003;4.3042309570e+003;
2.1093750000e+000;4.3320512695e+003;4.3687177734e+003;4.3553847656e+003;4.3551284180e+003;4.3716665039e+003;4.3700000000e+003;4.3687177734e+003;4.3589741211e+003;4.3562822266e+003;4.3716665039e+003;4.3591025391e+003;4.3608974609e+003;4.3579487305e+003;4.3461538086e+003;
2.1171875000e+000;4.2914101563e+003;4.3246152344e+003;4.3215385742e+003;4.3196152344e+003;4.3344873047e+003;4.3317949219e+003;4.3282050781e+003;4.3176923828e+003;4.3165385742e+003;4.3298715820e+003;4.3198715820e+003;4.3225639648e+003;4.3150000000e+003;4.3055126953e+003;
2.1250000000e+000;4.2671796875e+003;4.2988461914e+003;4.2984614258e+003;4.2971796875e+003;4.3133334961e+003;4.3079487305e+003;4.3033334961e+003;4.2916665039e+003;4.2914101563e+003;4.3030771484e+003;4.2948715820e+003;4.2956411133e+003;4.2892309570e+003;4.2803847656e+003;
2.1328125000e+000;4.2723076172e+003;4.3053847656e+003;4.2991025391e+003;4.3001284180e+003;4.3176923828e+003;4.3115385742e+003;4.3064101563e+003;4.2962822266e+003;4.2957690430e+003;4.3080771484e+003;4.2996152344e+003;4.2962822266e+003;4.2960258789e+003;4.2858974609e+003;
2.1406250000e+000;4.2470512695e+003;4.2835898438e+003;4.2671796875e+003;4.2760258789e+003;4.2820512695e+003;4.2794873047e+003;4.2746152344e+003;4.2707690430e+003;4.2612822266e+003;4.2747436523e+003;4.2760258789e+003;4.2773076172e+003;4.2785898438e+003;4.2683334961e+003;
2.1484375000e+000;4.2820512695e+003;4.3182050781e+003;4.3047436523e+003;4.3088461914e+003;4.3197436523e+003;4.3032050781e+003;4.3007690430e+003;4.3010258789e+003;4.2894873047e+003;4.3050000000e+003;4.3092309570e+003;4.3124360352e+003;4.3108974609e+003;4.3010258789e+003;
2.1562500000e+000;4.3520512695e+003;4.3878203125e+003;4.3791025391e+003;4.3682050781e+003;4.3814101563e+003;4.3508974609e+003;4.3623076172e+003;4.3788461914e+003;4.3593588867e+003;4.3847436523e+003;4.3851284180e+003;4.3880771484e+003;4.3858974609e+003;4.3758974609e+003;
2.1640625000e+000;4.4275639648e+003;4.4701284180e+003;4.4496152344e+003;4.4420512695e+003;4.4615385742e+003;4.4211538086e+003;4.4417949219e+003;4.4658974609e+003;4.4493588867e+003;4.4660258789e+003;4.4694873047e+003;4.4683334961e+003;4.4719228516e+003;4.4594873047e+003;
2.1718750000e+000;4.4326923828e+003;4.4783334961e+003;4.4573076172e+003;4.4461538086e+003;4.4707690430e+003;4.4294873047e+003;4.4493588867e+003;4.4756411133e+003;4.4606411133e+003;4.4741025391e+003;4.4775639648e+003;4.4765385742e+003;4.4788461914e+003;4.4674360352e+003;
2.1796875000e+000;4.4732050781e+003;4.5198715820e+003;4.5071796875e+003;4.4866665039e+003;4.5078203125e+003;4.4843588867e+003;4.5112822266e+003;4.5185898438e+003;4.5064101563e+003;4.5270512695e+003;4.5200000000e+003;4.5150000000e+003;4.5191025391e+003;4.5055126953e+003;
2.1875000000e+000;4.5010258789e+003;4.5612822266e+003;4.5444873047e+003;4.5307690430e+003;4.5506411133e+003;4.5306411133e+003;4.5524360352e+003;4.5597436523e+003;4.5543588867e+003;4.5726923828e+003;4.5508974609e+003;4.5501284180e+003;4.5519228516e+003;4.5398715820e+003;
2.1953125000e+000;4.4711538086e+003;4.5382050781e+003;4.5173076172e+003;4.5046152344e+003;4.5321796875e+003;4.5120512695e+003;4.5301284180e+003;4.5332050781e+003;4.5297436523e+003;4.5429487305e+003;4.5232050781e+003;4.5206411133e+003;4.5271796875e+003;4.5126923828e+003;
2.2031250000e+000;4.4657690430e+003;4.5435898438e+003;4.5151284180e+003;4.5056411133e+003;4.5400000000e+003;4.5262822266e+003;4.5339741211e+003;4.5267949219e+003;4.5339741211e+003;4.5538461914e+003;4.5264101563e+003;4.5152563477e+003;4.5397436523e+003;4.5125639648e+003;
2.2109375000e+000;4.4514101563e+003;4.5279487305e+003;4.5001284180e+003;4.4934614258e+003;4.5196152344e+003;4.5138461914e+003;4.5171796875e+003;4.5078203125e+003;4.5167949219e+003;4.5396152344e+003;4.5093588867e+003;4.5012822266e+003;4.5234614258e+003;4.4987177734e+003;
2.2187500000e+000;4.4634614258e+003;4.5392309570e+003;4.5097436523e+003;4.5023076172e+003;4.5343588867e+003;4.5238461914e+003;4.5232050781e+003;4.5119228516e+003;4.5217949219e+003;4.5434614258e+003;4.5167949219e+003;4.5124360352e+003;4.5293588867e+003;4.5120512695e+003;
2.2265625000e+000;4.4850000000e+003;4.5632050781e+003;4.5329487305e+003;4.5226923828e+003;4.5675639648e+003;4.5448715820e+003;4.5438461914e+003;4.5365385742e+003;4.5456411133e+003;4.5666665039e+003;4.5419228516e+003;4.5371796875e+003;4.5526923828e+003;4.5360258789e+003;
2.2343750000e+000;4.4780771484e+003;4.5512822266e+003;4.5266665039e+003;4.5233334961e+003;4.5573076172e+003;4.5364101563e+003;4.5341025391e+003;4.5323076172e+003;4.5296152344e+003;4.5555126953e+003;4.5358974609e+003;4.5324360352e+003;4.5410258789e+003;4.5248715820e+003;
2.2421875000e+000;4.5069228516e+003;4.5787177734e+003;4.5532050781e+003;4.5507690430e+003;4.5747436523e+003;4.5583334961e+003;4.5583334961e+003;4.5582050781e+003;4.5502563477e+003;4.5789741211e+003;4.5614101563e+003;4.5570512695e+003;4.5658974609e+003;4.5521796875e+003;
2.2500000000e+000;4.5425639648e+003;4.6167949219e+003;4.5898715820e+003;4.5830771484e+003;4.6060258789e+003;4.5864101563e+003;4.5901284180e+003;4.5960258789e+003;4.5837177734e+003;4.6143588867e+003;4.5979487305e+003;4.5916665039e+003;4.6020512695e+003;4.5906411133e+003;
2.2578125000e+000;4.5528203125e+003;4.6319228516e+003;4.6056411133e+003;4.5912822266e+003;4.6202563477e+003;4.5921796875e+003;4.5998715820e+003;4.6132050781e+003;4.5984614258e+003;4.6283334961e+003;4.6132050781e+003;4.6055126953e+003;4.6161538086e+003;4.6062822266e+003;
2.2656250000e+000;4.5892309570e+003;4.6802563477e+003;4.6547436523e+003;4.6294873047e+003;4.6621796875e+003;4.6269228516e+003;4.6443588867e+003;4.6653847656e+003;4.6516665039e+003;4.6724360352e+003;4.6662822266e+003;4.6579487305e+003;4.6646152344e+003;4.6506411133e+003;
2.2734375000e+000;4.6070512695e+003;4.6975639648e+003;4.6734614258e+003;4.6492309570e+003;4.6771796875e+003;4.6442309570e+003;4.6630771484e+003;4.6889741211e+003;4.6737177734e+003;4.6978203125e+003;4.6869228516e+003;4.6803847656e+003;4.6866665039e+003;4.6732050781e+003;
2.2812500000e+000;4.5376923828e+003;4.6284614258e+003;4.6121796875e+003;4.5911538086e+003;4.6234614258e+003;4.5811538086e+003;4.6071796875e+003;4.6260258789e+003;4.6098715820e+003;4.6283334961e+003;4.6144873047e+003;4.6116665039e+003;4.6152563477e+003;4.6085898438e+003;
2.2890625000e+000;4.5274360352e+003;4.6225639648e+003;4.6084614258e+003;4.5853847656e+003;4.6111538086e+003;4.5884614258e+003;4.6093588867e+003;4.6242309570e+003;4.6110258789e+003;4.6206411133e+003;4.6129487305e+003;4.6070512695e+003;4.6087177734e+003;4.6014101563e+003;
2.2968750000e+000;4.4948715820e+003;4.5916665039e+003;4.5769228516e+003;4.5571796875e+003;4.5789741211e+003;4.5637177734e+003;4.5825639648e+003;4.5942309570e+003;4.5808974609e+003;4.5902563477e+003;4.5816665039e+003;4.5746152344e+003;4.5794873047e+003;4.5708974609e+003;
2.3046875000e+000;4.4744873047e+003;4.5820512695e+003;4.5510258789e+003;4.5452563477e+003;4.5657690430e+003;4.5573076172e+003;4.5679487305e+003;4.5696152344e+003;4.5661538086e+003;4.5720512695e+003;4.5566665039e+003;4.5466665039e+003;4.5560258789e+003;4.5489741211e+003;
2.3125000000e+000;4.4621796875e+003;4.5653847656e+003;4.5352563477e+003;4.5310258789e+003;4.5646152344e+003;4.5551284180e+003;4.5524360352e+003;4.5384614258e+003;4.5539741211e+003;4.5528203125e+003;4.5423076172e+003;4.5289741211e+003;4.5448715820e+003;4.5369228516e+003;
2.3203125000e+000;4.4803847656e+003;4.5834614258e+003;4.5533334961e+003;4.5470512695e+003;4.5862822266e+003;4.5698715820e+003;4.5657690430e+003;4.5511538086e+003;4.5706411133e+003;4.5761538086e+003;4.5630771484e+003;4.5456411133e+003;4.5665385742e+003;4.5576923828e+003;
2.3281250000e+000;4.4733334961e+003;4.5753847656e+003;4.5484614258e+003;4.5402563477e+003;4.5771796875e+003;4.5603847656e+003;4.5543588867e+003;4.5428203125e+003;4.5628203125e+003;4.5757690430e+003;4.5585898438e+003;4.5405126953e+003;4.5603847656e+003;4.5534614258e+003;
2.3359375000e+000;4.3958974609e+003;4.4892309570e+003;4.4752563477e+003;4.4661538086e+003;4.4814101563e+003;4.4835898438e+003;4.4752563477e+003;4.4642309570e+003;4.4764101563e+003;4.4917949219e+003;4.4741025391e+003;4.4664101563e+003;4.4743588867e+003;4.4733334961e+003;
2.3437500000e+000;4.5041025391e+003;4.5951284180e+003;4.5767949219e+003;4.5656411133e+003;4.5876923828e+003;4.5743588867e+003;4.5748715820e+003;4.5673076172e+003;4.5717949219e+003;4.5821796875e+003;4.5716665039e+003;4.5675639648e+003;4.5798715820e+003;4.5758974609e+003;
2.3515625000e+000;4.5146152344e+003;4.6079487305e+003;4.5884614258e+003;4.5752563477e+003;4.6039741211e+003;4.5806411133e+003;4.5838461914e+003;4.5838461914e+003;4.5837177734e+003;4.5932050781e+003;4.5856411133e+003;4.5798715820e+003;4.5897436523e+003;4.5889741211e+003;
2.3593750000e+000;4.4896152344e+003;4.5833334961e+003;4.5660258789e+003;4.5500000000e+003;4.5803847656e+003;4.5534614258e+003;4.5588461914e+003;4.5647436523e+003;4.5576923828e+003;4.5652563477e+003;4.5624360352e+003;4.5556411133e+003;4.5616665039e+003;4.5639741211e+003;
2.3671875000e+000;4.4543588867e+003;4.5457690430e+003;4.5362822266e+003;4.5151284180e+003;4.5343588867e+003;4.5142309570e+003;4.5225639648e+003;4.5358974609e+003;4.5182050781e+003;4.5238461914e+003;4.5252563477e+003;4.5188461914e+003;4.5219228516e+003;4.5234614258e+003;
2.3750000000e+000;4.4515385742e+003;4.5407690430e+003;4.5356411133e+003;4.5152563477e+003;4.5255126953e+003;4.5101284180e+003;4.5179487305e+003;4.5355126953e+003;4.5171796875e+003;4.5241025391e+003;4.5208974609e+003;4.5161538086e+003;4.5176923828e+003;4.5193588867e+003;
2.3828125000e+000;4.4367949219e+003;4.5225639648e+003;4.5208974609e+003;4.5044873047e+003;4.5083334961e+003;4.4948715820e+003;4.5021796875e+003;4.5221796875e+003;4.5056411133e+003;4.5129487305e+003;4.5042309570e+003;4.5011538086e+003;4.4996152344e+003;4.5046152344e+003;
2.3906250000e+000;4.4211538086e+003;4.4966665039e+003;4.5042309570e+003;4.4839741211e+003;4.4901284180e+003;4.4771796875e+003;4.4916665039e+003;4.5097436523e+003;4.5032050781e+003;4.4917949219e+003;4.4898715820e+003;4.4928203125e+003;4.4883334961e+003;4.4962822266e+003;
2.3984375000e+000;4.3997436523e+003;4.4739741211e+003;4.4851284180e+003;4.4673076172e+003;4.4689741211e+003;4.4591025391e+003;4.4735898438e+003;4.4857690430e+003;4.4797436523e+003;4.4705126953e+003;4.4652563477e+003;4.4730771484e+003;4.4673076172e+003;4.4755126953e+003;
2.4062500000e+000;4.4112822266e+003;4.4857690430e+003;4.4848715820e+003;4.4761538086e+003;4.4783334961e+003;4.4732050781e+003;4.4865385742e+003;4.4855126953e+003;4.4816665039e+003;4.4797436523e+003;4.4742309570e+003;4.4744873047e+003;4.4729487305e+003;4.4811538086e+003;
2.4140625000e+000;4.3332050781e+003;4.4037177734e+003;4.4079487305e+003;4.4026923828e+003;4.4048715820e+003;4.4170512695e+003;4.4178203125e+003;4.3993588867e+003;4.4053847656e+003;4.3933334961e+003;4.3987177734e+003;4.3970512695e+003;4.3967949219e+003;4.4048715820e+003;
2.4218750000e+000;4.3537177734e+003;4.4252563477e+003;4.4260258789e+003;4.4235898438e+003;4.4355126953e+003;4.4365385742e+003;4.4329487305e+003;4.4112822266e+003;4.4229487305e+003;4.4112822266e+003;4.4138461914e+003;4.4153847656e+003;4.4142309570e+003;4.4233334961e+003;
2.4296875000e+000;4.3542309570e+003;4.4291025391e+003;4.4198715820e+003;4.4162822266e+003;4.4388461914e+003;4.4301284180e+003;4.4161538086e+003;4.4023076172e+003;4.4192309570e+003;4.4138461914e+003;4.4042309570e+003;4.4042309570e+003;4.4058974609e+003;4.4137177734e+003;
2.4375000000e+000;4.3980771484e+003;4.4685898438e+003;4.4620512695e+003;4.4598715820e+003;4.4739741211e+003;4.4660258789e+003;4.4547436523e+003;4.4416665039e+003;4.4497436523e+003;4.4457690430e+003;4.4466665039e+003;4.4414101563e+003;4.4448715820e+003;4.4541025391e+003;
2.4453125000e+000;4.4080771484e+003;4.4765385742e+003;4.4725639648e+003;4.4710258789e+003;4.4832050781e+003;4.4743588867e+003;4.4630771484e+003;4.4555126953e+003;4.4603847656e+003;4.4565385742e+003;4.4566665039e+003;4.4557690430e+003;4.4516665039e+003;4.4662822266e+003;
2.4531250000e+000;4.3896152344e+003;4.4566665039e+003;4.4539741211e+003;4.4530771484e+003;4.4619228516e+003;4.4561538086e+003;4.4458974609e+003;4.4421796875e+003;4.4430771484e+003;4.4391025391e+003;4.4376923828e+003;4.4400000000e+003;4.4310258789e+003;4.4484614258e+003;
2.4609375000e+000;4.3792309570e+003;4.4461538086e+003;4.4408974609e+003;4.4380771484e+003;4.4442309570e+003;4.4408974609e+003;4.4388461914e+003;4.4393588867e+003;4.4289741211e+003;4.4307690430e+003;4.4285898438e+003;4.4241025391e+003;4.4266665039e+003;4.4361538086e+003;
2.4687500000e+000;4.3932050781e+003;4.4512822266e+003;4.4579487305e+003;4.4446152344e+003;4.4464101563e+003;4.4373076172e+003;4.4385898438e+003;4.4514101563e+003;4.4258974609e+003;4.4330771484e+003;4.4411538086e+003;4.4406411133e+003;4.4426923828e+003;4.4485898438e+003;
2.4765625000e+000;4.3878203125e+003;4.4432050781e+003;4.4515385742e+003;4.4383334961e+003;4.4350000000e+003;4.4274360352e+003;4.4297436523e+003;4.4405126953e+003;4.4164101563e+003;4.4194873047e+003;4.4320512695e+003;4.4382050781e+003;4.4319228516e+003;4.4419228516e+003;
2.4843750000e+000;4.4073076172e+003;4.4639741211e+003;4.4693588867e+003;4.4574360352e+003;4.4510258789e+003;4.4420512695e+003;4.4474360352e+003;4.4567949219e+003;4.4370512695e+003;4.4379487305e+003;4.4511538086e+003;4.4601284180e+003;4.4502563477e+003;4.4632050781e+003;
2.4921875000e+000;4.4512822266e+003;4.5152563477e+003;4.5147436523e+003;4.5034614258e+003;4.4973076172e+003;4.4789741211e+003;4.4902563477e+003;4.5051284180e+003;4.4907690430e+003;4.4979487305e+003;4.5025639648e+003;4.5091025391e+003;4.5034614258e+003;4.5167949219e+003;
2.5000000000e+000;4.4437177734e+003;4.5085898438e+003;4.5089741211e+003;4.4980771484e+003;4.4921796875e+003;4.4715385742e+003;4.4825639648e+003;4.4988461914e+003;4.4833334961e+003;4.4929487305e+003;4.4951284180e+003;4.5014101563e+003;4.4970512695e+003;4.5082050781e+003;
2.5078125000e+000;4.4394873047e+003;4.5037177734e+003;4.5046152344e+003;4.4955126953e+003;4.4906411133e+003;4.4688461914e+003;4.4784614258e+003;4.4923076172e+003;4.4758974609e+003;4.4842309570e+003;4.4871796875e+003;4.4934614258e+003;4.4893588867e+003;4.4974360352e+003;
2.5156250000e+000;4.4564101563e+003;4.5211538086e+003;4.5200000000e+003;4.5135898438e+003;4.5117949219e+003;4.4883334961e+003;4.4961538086e+003;4.5067949219e+003;4.4914101563e+003;4.4962822266e+003;4.5011538086e+003;4.5062822266e+003;4.5021796875e+003;4.5079487305e+003;
2.5234375000e+000;4.4553847656e+003;4.5301284180e+003;4.5229487305e+003;4.5142309570e+003;4.5212822266e+003;4.5038461914e+003;4.5115385742e+003;4.5041025391e+003;4.5056411133e+003;4.5075639648e+003;4.5098715820e+003;4.5129487305e+003;4.5076923828e+003;4.5198715820e+003;
2.5312500000e+000;4.5162822266e+003;4.5973076172e+003;4.5834614258e+003;4.5878203125e+003;4.5969228516e+003;4.5861538086e+003;4.5793588867e+003;4.5680771484e+003;4.5752563477e+003;4.5789741211e+003;4.5764101563e+003;4.5701284180e+003;4.5835898438e+003;4.5755126953e+003;
2.5390625000e+000;4.4938461914e+003;4.5762822266e+003;4.5612822266e+003;4.5656411133e+003;4.5765385742e+003;4.5700000000e+003;4.5626923828e+003;4.5496152344e+003;4.5574360352e+003;4.5608974609e+003;4.5530771484e+003;4.5458974609e+003;4.5619228516e+003;4.5541025391e+003;
2.5468750000e+000;4.5462822266e+003;4.6332050781e+003;4.6126923828e+003;4.6088461914e+003;4.6234614258e+003;4.6215385742e+003;4.6187177734e+003;4.6076923828e+003;4.6160258789e+003;4.6229487305e+003;4.6055126953e+003;4.5970512695e+003;4.6167949219e+003;4.6096152344e+003;
2.5546875000e+000;4.5923076172e+003;4.6807690430e+003;4.6607690430e+003;4.6580771484e+003;4.6823076172e+003;4.6651284180e+003;4.6679487305e+003;4.6683334961e+003;4.6521796875e+003;4.6648715820e+003;4.6582050781e+003;4.6506411133e+003;4.6700000000e+003;4.6637177734e+003;
2.5625000000e+000;4.6029487305e+003;4.6941025391e+003;4.6738461914e+003;4.6647436523e+003;4.7015385742e+003;4.6685898438e+003;4.6746152344e+003;4.6807690430e+003;4.6591025391e+003;4.6758974609e+003;4.6719228516e+003;4.6641025391e+003;4.6806411133e+003;4.6760258789e+003;
2.5703125000e+000;4.5751284180e+003;4.6712822266e+003;4.6548715820e+003;4.6391025391e+003;4.6750000000e+003;4.6353847656e+003;4.6410258789e+003;4.6576923828e+003;4.6338461914e+003;4.6542309570e+003;4.6521796875e+003;4.6491025391e+003;4.6560258789e+003;4.6565385742e+003;
2.5781250000e+000;4.5539741211e+003;4.6488461914e+003;4.6347436523e+003;4.6232050781e+003;4.6484614258e+003;4.6144873047e+003;4.6203847656e+003;4.6339741211e+003;4.6124360352e+003;4.6296152344e+003;4.6298715820e+003;4.6293588867e+003;4.6370512695e+003;4.6374360352e+003;
2.5859375000e+000;4.6061538086e+003;4.6982050781e+003;4.6760258789e+003;4.6734614258e+003;4.6982050781e+003;4.6534614258e+003;4.6679487305e+003;4.6832050781e+003;4.6679487305e+003;4.6801284180e+003;4.6817949219e+003;4.6757690430e+003;4.6946152344e+003;4.6892309570e+003;
2.5937500000e+000;4.5891025391e+003;4.6838461914e+003;4.6594873047e+003;4.6551284180e+003;4.6847436523e+003;4.6356411133e+003;4.6488461914e+003;4.6711538086e+003;4.6564101563e+003;4.6698715820e+003;4.6703847656e+003;4.6626923828e+003;4.6782050781e+003;4.6743588867e+003;
2.6015625000e+000;4.5493588867e+003;4.6496152344e+003;4.6257690430e+003;4.6185898438e+003;4.6476923828e+003;4.6008974609e+003;4.6083334961e+003;4.6338461914e+003;4.6226923828e+003;4.6376923828e+003;4.6362822266e+003;4.6275639648e+003;4.6417949219e+003;4.6384614258e+003;
2.6093750000e+000;4.5603847656e+003;4.6615385742e+003;4.6394873047e+003;4.6305126953e+003;4.6553847656e+003;4.6142309570e+003;4.6200000000e+003;4.6439741211e+003;4.6362822266e+003;4.6511538086e+003;4.6473076172e+003;4.6380771484e+003;4.6569228516e+003;4.6511538086e+003;
2.6171875000e+000;4.5092309570e+003;4.6017949219e+003;4.5892309570e+003;4.5750000000e+003;4.5953847656e+003;4.5737177734e+003;4.5807690430e+003;4.5853847656e+003;4.5875639648e+003;4.5939741211e+003;4.5916665039e+003;4.5837177734e+003;4.6098715820e+003;4.6029487305e+003;
2.6250000000e+000;4.4961538086e+003;4.5883334961e+003;4.5750000000e+003;4.5624360352e+003;4.5905126953e+003;4.5651284180e+003;4.5712822266e+003;4.5661538086e+003;4.5694873047e+003;4.5757690430e+003;4.5782050781e+003;4.5682050781e+003;4.5952563477e+003;4.5887177734e+003;
2.6328125000e+000;4.5061538086e+003;4.6011538086e+003;4.5852563477e+003;4.5760258789e+003;4.6119228516e+003;4.5797436523e+003;4.5826923828e+003;4.5720512695e+003;4.5758974609e+003;4.5848715820e+003;4.5894873047e+003;4.5770512695e+003;4.6043588867e+003;4.5974360352e+003;
2.6406250000e+000;4.5116665039e+003;4.6101284180e+003;4.5932050781e+003;4.5873076172e+003;4.6258974609e+003;4.5902563477e+003;4.5888461914e+003;4.5766665039e+003;4.5812822266e+003;4.5926923828e+003;4.5957690430e+003;4.5838461914e+003;4.6091025391e+003;4.6016665039e+003;
2.6484375000e+000;4.4621796875e+003;4.5543588867e+003;4.5394873047e+003;4.5384614258e+003;4.5610258789e+003;4.5434614258e+003;4.5412822266e+003;4.5293588867e+003;4.5324360352e+003;4.5315385742e+003;4.5347436523e+003;4.5288461914e+003;4.5462822266e+003;4.5493588867e+003;
2.6562500000e+000;4.4402563477e+003;4.5326923828e+003;4.5225639648e+003;4.5211538086e+003;4.5552563477e+003;4.5476923828e+003;4.5403847656e+003;4.5443588867e+003;4.5285898438e+003;4.5289741211e+003;4.5261538086e+003;4.5180771484e+003;4.5296152344e+003;4.5291025391e+003;
2.6640625000e+000;4.4670512695e+003;4.5587177734e+003;4.5471796875e+003;4.5442309570e+003;4.5829487305e+003;4.5701284180e+003;4.5683334961e+003;4.5732050781e+003;4.5583334961e+003;4.5553847656e+003;4.5502563477e+003;4.5447436523e+003;4.5541025391e+003;4.5564101563e+003;
2.6718750000e+000;4.5158974609e+003;4.6056411133e+003;4.5930771484e+003;4.5830771484e+003;4.6205126953e+003;4.6008974609e+003;4.6071796875e+003;4.6226923828e+003;4.6069228516e+003;4.6033334961e+003;4.5982050781e+003;4.5929487305e+003;4.6010258789e+003;4.6106411133e+003;
2.6796875000e+000;4.5156411133e+003;4.6053847656e+003;4.5984614258e+003;4.5805126953e+003;4.6017949219e+003;4.5788461914e+003;4.5891025391e+003;4.6029487305e+003;4.5857690430e+003;4.5862822266e+003;4.5934614258e+003;4.5874360352e+003;4.6023076172e+003;4.6029487305e+003;
2.6875000000e+000;4.5125639648e+003;4.6006411133e+003;4.5933334961e+003;4.5788461914e+003;4.5985898438e+003;4.5671796875e+003;4.5797436523e+003;4.5944873047e+003;4.5810258789e+003;4.5800000000e+003;4.5866665039e+003;4.5855126953e+003;4.5960258789e+003;4.6000000000e+003;
2.6953125000e+000;4.4987177734e+003;4.5824360352e+003;4.5766665039e+003;4.5685898438e+003;4.5851284180e+003;4.5433334961e+003;4.5557690430e+003;4.5714101563e+003;4.5573076172e+003;4.5575639648e+003;4.5687177734e+003;4.5705126953e+003;4.5744873047e+003;4.5871796875e+003;
2.7031250000e+000;4.5208974609e+003;4.6046152344e+003;4.5991025391e+003;4.5906411133e+003;4.6044873047e+003;4.5632050781e+003;4.5752563477e+003;4.5914101563e+003;4.5744873047e+003;4.5775639648e+003;4.5920512695e+003;4.5908974609e+003;4.5958974609e+003;4.6096152344e+003;
2.7109375000e+000;4.5038461914e+003;4.5871796875e+003;4.5867949219e+003;4.5720512695e+003;4.5688461914e+003;4.5547436523e+003;4.5646152344e+003;4.5720512695e+003;4.5578203125e+003;4.5611538086e+003;4.5720512695e+003;4.5755126953e+003;4.5801284180e+003;4.5917949219e+003;
2.7187500000e+000;4.4784614258e+003;4.5623076172e+003;4.5608974609e+003;4.5460258789e+003;4.5465385742e+003;4.5342309570e+003;4.5424360352e+003;4.5415385742e+003;4.5320512695e+003;4.5324360352e+003;4.5421796875e+003;4.5491025391e+003;4.5534614258e+003;4.5643588867e+003;
2.7265625000e+000;4.4811538086e+003;4.5688461914e+003;4.5605126953e+003;4.5491025391e+003;4.5724360352e+003;4.5455126953e+003;4.5470512695e+003;4.5378203125e+003;4.5362822266e+003;4.5342309570e+003;4.5465385742e+003;4.5525639648e+003;4.5574360352e+003;4.5696152344e+003;
2.7343750000e+000;4.4620512695e+003;4.5491025391e+003;4.5406411133e+003;4.5323076172e+003;4.5614101563e+003;4.5333334961e+003;4.5300000000e+003;4.5188461914e+003;4.5192309570e+003;4.5166665039e+003;4.5307690430e+003;4.5353847656e+003;4.5383334961e+003;4.5534614258e+003;
2.7421875000e+000;4.3920512695e+003;4.4715385742e+003;4.4714101563e+003;4.4625639648e+003;4.4807690430e+003;4.4776923828e+003;4.4673076172e+003;4.4437177734e+003;4.4496152344e+003;4.4439741211e+003;4.4561538086e+003;4.4571796875e+003;4.4612822266e+003;4.4764101563e+003;
2.7500000000e+000;4.4096152344e+003;4.4898715820e+003;4.4906411133e+003;4.4806411133e+003;4.4961538086e+003;4.4951284180e+003;4.4839741211e+003;4.4651284180e+003;4.4711538086e+003;4.4652563477e+003;4.4751284180e+003;4.4738461914e+003;4.4802563477e+003;4.4930771484e+003;
2.7578125000e+000;4.4060258789e+003;4.4861538086e+003;4.4882050781e+003;4.4808974609e+003;4.4934614258e+003;4.4923076172e+003;4.4802563477e+003;4.4684614258e+003;4.4724360352e+003;4.4647436523e+003;4.4746152344e+003;4.4721796875e+003;4.4779487305e+003;4.4908974609e+003;
2.7656250000e+000;4.3725639648e+003;4.4497436523e+003;4.4530771484e+003;4.4511538086e+003;4.4608974609e+003;4.4596152344e+003;4.4473076172e+003;4.4398715820e+003;4.4398715820e+003;4.4283334961e+003;4.4417949219e+003;4.4392309570e+003;4.4416665039e+003;4.4574360352e+003;
2.7734375000e+000;4.3708974609e+003;4.4362822266e+003;4.4425639648e+003;4.4302563477e+003;4.4524360352e+003;4.4444873047e+003;4.4415385742e+003;4.4423076172e+003;4.4293588867e+003;4.4196152344e+003;4.4298715820e+003;4.4297436523e+003;4.4270512695e+003;4.4474360352e+003;
2.7812500000e+000;4.3635898438e+003;4.4182050781e+003;4.4183334961e+003;4.4333334961e+003;4.4265385742e+003;4.4196152344e+003;4.4207690430e+003;4.4283334961e+003;4.4239741211e+003;4.3984614258e+003;4.4115385742e+003;4.4058974609e+003;4.4126923828e+003;4.4282050781e+003;
2.7890625000e+000;4.3602563477e+003;4.4182050781e+003;4.4156411133e+003;4.4283334961e+003;4.4246152344e+003;4.4146152344e+003;4.4152563477e+003;4.4297436523e+003;4.4252563477e+003;4.3983334961e+003;4.4098715820e+003;4.4057690430e+003;4.4091025391e+003;4.4235898438e+003;
2.7968750000e+000;4.3201284180e+003;4.3823076172e+003;4.3838461914e+003;4.3824360352e+003;4.3916665039e+003;4.3753847656e+003;4.3765385742e+003;4.3946152344e+003;4.3866665039e+003;4.3634614258e+003;4.3724360352e+003;4.3720512695e+003;4.3667949219e+003;4.3852563477e+003;
2.8046875000e+000;4.3300000000e+003;4.3908974609e+003;4.3923076172e+003;4.3898715820e+003;4.4012822266e+003;4.3803847656e+003;4.3829487305e+003;4.3976923828e+003;4.3906411133e+003;4.3702563477e+003;4.3808974609e+003;4.3780771484e+003;4.3750000000e+003;4.3950000000e+003;
2.8125000000e+000;4.3511538086e+003;4.4073076172e+003;4.4025639648e+003;4.4137177734e+003;4.4065385742e+003;4.3888461914e+003;4.3885898438e+003;4.3948715820e+003;4.3953847656e+003;4.3757690430e+003;4.3946152344e+003;4.3891025391e+003;4.3929487305e+003;4.4089741211e+003;
2.8203125000e+000;4.3508974609e+003;4.4082050781e+003;4.4042309570e+003;4.4075639648e+003;4.4124360352e+003;4.3946152344e+003;4.3948715820e+003;4.3856411133e+003;4.3848715820e+003;4.3707690430e+003;4.3914101563e+003;4.3875639648e+003;4.3912822266e+003;4.4039741211e+003;
2.8281250000e+000;4.3591025391e+003;4.4142309570e+003;4.4130771484e+003;4.4152563477e+003;4.4256411133e+003;4.4051284180e+003;4.4028203125e+003;4.3917949219e+003;4.3924360352e+003;4.3823076172e+003;4.3987177734e+003;4.3946152344e+003;4.3998715820e+003;4.4128203125e+003;
2.8359375000e+000;4.3384614258e+003;4.3900000000e+003;4.3926923828e+003;4.3973076172e+003;4.4062822266e+003;4.3888461914e+003;4.3828203125e+003;4.3678203125e+003;4.3700000000e+003;4.3600000000e+003;4.3746152344e+003;4.3717949219e+003;4.3770512695e+003;4.3911538086e+003;
2.8437500000e+000;4.2967949219e+003;4.3464101563e+003;4.3476923828e+003;4.3593588867e+003;4.3620512695e+003;4.3558974609e+003;4.3467949219e+003;4.3191025391e+003;4.3219228516e+003;4.3047436523e+003;4.3270512695e+003;4.3269228516e+003;4.3294873047e+003;4.3448715820e+003;
2.8515625000e+000;4.3066665039e+003;4.3574360352e+003;4.3558974609e+003;4.3683334961e+003;4.3721796875e+003;4.3676923828e+003;4.3582050781e+003;4.3302563477e+003;4.3333334961e+003;4.3129487305e+003;4.3398715820e+003;4.3394873047e+003;4.3401284180e+003;4.3557690430e+003;
2.8593750000e+000;4.3111538086e+003;4.3598715820e+003;4.3605126953e+003;4.3714101563e+003;4.3766665039e+003;4.3735898438e+003;4.3624360352e+003;4.3394873047e+003;4.3425639648e+003;4.3200000000e+003;4.3488461914e+003;4.3484614258e+003;4.3470512695e+003;4.3629487305e+003;
2.8671875000e+000;4.2808974609e+003;4.3121796875e+003;4.3235898438e+003;4.3257690430e+003;4.3366665039e+003;4.3405126953e+003;4.3314101563e+003;4.3229487305e+003;4.3143588867e+003;4.2861538086e+003;4.3110258789e+003;4.3096152344e+003;4.3089741211e+003;4.3137177734e+003;
2.8750000000e+000;4.2616665039e+003;4.2951284180e+003;4.3021796875e+003;4.3074360352e+003;4.3180771484e+003;4.3192309570e+003;4.3124360352e+003;4.3070512695e+003;4.2975639648e+003;4.2664101563e+003;4.2920512695e+003;4.2924360352e+003;4.2882050781e+003;4.2960258789e+003;
2.8828125000e+000;4.2500000000e+003;4.2724360352e+003;4.2887177734e+003;4.2960258789e+003;4.3006411133e+003;4.2862822266e+003;4.2875639648e+003;4.2900000000e+003;4.2808974609e+003;4.2476923828e+003;4.2748715820e+003;4.2779487305e+003;4.2744873047e+003;4.2829487305e+003;
2.8906250000e+000;4.2732050781e+003;4.2903847656e+003;4.3055126953e+003;4.3055126953e+003;4.2932050781e+003;4.3007690430e+003;4.3060258789e+003;4.3194873047e+003;4.3070512695e+003;4.2720512695e+003;4.3010258789e+003;4.3039741211e+003;4.3011538086e+003;4.3087177734e+003;
2.8984375000e+000;4.2800000000e+003;4.2983334961e+003;4.3079487305e+003;4.3117949219e+003;4.3005126953e+003;4.3044873047e+003;4.3121796875e+003;4.3237177734e+003;4.3124360352e+003;4.2735898438e+003;4.3075639648e+003;4.3102563477e+003;4.3083334961e+003;4.3173076172e+003;
2.9062500000e+000;4.3339741211e+003;4.3584614258e+003;4.3664101563e+003;4.3739741211e+003;4.3716665039e+003;4.3419228516e+003;4.3506411133e+003;4.3674360352e+003;4.3615385742e+003;4.3371796875e+003;4.3611538086e+003;4.3634614258e+003;4.3606411133e+003;4.3724360352e+003;
2.9140625000e+000;4.3348715820e+003;4.3589741211e+003;4.3694873047e+003;4.3650000000e+003;4.3503847656e+003;4.3544873047e+003;4.3625639648e+003;4.3624360352e+003;4.3583334961e+003;4.3357690430e+003;4.3580771484e+003;4.3576923828e+003;4.3606411133e+003;4.3664101563e+003;
2.9218750000e+000;4.3544873047e+003;4.3796152344e+003;4.3862822266e+003;4.3839741211e+003;4.3733334961e+003;4.3780771484e+003;4.3857690430e+003;4.3825639648e+003;4.3794873047e+003;4.3557690430e+003;4.3778203125e+003;4.3756411133e+003;4.3811538086e+003;4.3856411133e+003;
2.9296875000e+000;4.3465385742e+003;4.3744873047e+003;4.3773076172e+003;4.3810258789e+003;4.3779487305e+003;4.3756411133e+003;4.3816665039e+003;4.3766665039e+003;4.3729487305e+003;4.3500000000e+003;4.3708974609e+003;4.3678203125e+003;4.3733334961e+003;4.3784614258e+003;
2.9375000000e+000;4.3097436523e+003;4.3465385742e+003;4.3406411133e+003;4.3565385742e+003;4.3701284180e+003;4.3503847656e+003;4.3515385742e+003;4.3398715820e+003;4.3321796875e+003;4.3124360352e+003;4.3356411133e+003;4.3302563477e+003;4.3348715820e+003;4.3424360352e+003;
2.9453125000e+000;4.3282050781e+003;4.3669228516e+003;4.3573076172e+003;4.3742309570e+003;4.3917949219e+003;4.3712822266e+003;4.3701284180e+003;4.3569228516e+003;4.3487177734e+003;4.3293588867e+003;4.3547436523e+003;4.3474360352e+003;4.3532050781e+003;4.3610258789e+003;
2.9531250000e+000;4.3473076172e+003;4.3771796875e+003;4.3720512695e+003;4.3842309570e+003;4.3955126953e+003;4.3934614258e+003;4.3878203125e+003;4.3752563477e+003;4.3675639648e+003;4.3471796875e+003;4.3724360352e+003;4.3658974609e+003;4.3694873047e+003;4.3792309570e+003;
2.9609375000e+000;4.3224360352e+003;4.3452563477e+003;4.3450000000e+003;4.3569228516e+003;4.3634614258e+003;4.3705126953e+003;4.3637177734e+003;4.3475639648e+003;4.3389741211e+003;4.3179487305e+003;4.3433334961e+003;4.3384614258e+003;4.3397436523e+003;4.3510258789e+003;
2.9687500000e+000;4.3539741211e+003;4.3780771484e+003;4.3720512695e+003;4.3850000000e+003;4.4017949219e+003;4.3991025391e+003;4.3901284180e+003;4.3750000000e+003;4.3630771484e+003;4.3438461914e+003;4.3720512695e+003;4.3632050781e+003;4.3705126953e+003;4.3770512695e+003;
2.9765625000e+000;4.3593588867e+003;4.3838461914e+003;4.3780771484e+003;4.3870512695e+003;4.4074360352e+003;4.4016665039e+003;4.3924360352e+003;4.3847436523e+003;4.3721796875e+003;4.3532050781e+003;4.3796152344e+003;4.3724360352e+003;4.3782050781e+003;4.3843588867e+003;
2.9843750000e+000;4.3405126953e+003;4.3616665039e+003;4.3596152344e+003;4.3648715820e+003;4.3846152344e+003;4.3797436523e+003;4.3719228516e+003;4.3678203125e+003;4.3551284180e+003;4.3355126953e+003;4.3594873047e+003;4.3569228516e+003;4.3565385742e+003;4.3653847656e+003;
2.9921875000e+000;4.3382050781e+003;4.3514101563e+003;4.3615385742e+003;4.3669228516e+003;4.3597436523e+003;4.3700000000e+003;4.3684614258e+003;4.3748715820e+003;4.3658974609e+003;4.3310258789e+003;4.3583334961e+003;4.3534614258e+003;4.3469228516e+003;4.3557690430e+003;
3.0000000000e+000;4.3396152344e+003;4.3529487305e+003;4.3641025391e+003;4.3675639648e+003;4.3638461914e+003;4.3656411133e+003;4.3675639648e+003;4.3758974609e+003;4.3674360352e+003;4.3297436523e+003;4.3565385742e+003;4.3521796875e+003;4.3492309570e+003;4.3570512695e+003;
3.0078125000e+000;4.3747436523e+003;4.3900000000e+003;4.3978203125e+003;4.4033334961e+003;4.4060258789e+003;4.3862822266e+003;4.3879487305e+003;4.4133334961e+003;4.4056411133e+003;4.3758974609e+003;4.3957690430e+003;4.3912822266e+003;4.3908974609e+003;4.3957690430e+003;
3.0156250000e+000;4.3530771484e+003;4.3733334961e+003;4.3706411133e+003;4.3819228516e+003;4.3708974609e+003;4.3556411133e+003;4.3597436523e+003;4.3729487305e+003;4.3742309570e+003;4.3397436523e+003;4.3710258789e+003;4.3662822266e+003;4.3687177734e+003;4.3705126953e+003;
3.0234375000e+000;4.4197436523e+003;4.4425639648e+003;4.4347436523e+003;4.4438461914e+003;4.4364101563e+003;4.4150000000e+003;4.4228203125e+003;4.4347436523e+003;4.4388461914e+003;4.4074360352e+003;4.4366665039e+003;4.4310258789e+003;4.4369228516e+003;4.4378203125e+003;
3.0312500000e+000;4.4230771484e+003;4.4419228516e+003;4.4467949219e+003;4.4491025391e+003;4.4485898438e+003;4.4385898438e+003;4.4403847656e+003;4.4474360352e+003;4.4519228516e+003;4.4279487305e+003;4.4487177734e+003;4.4452563477e+003;4.4465385742e+003;4.4500000000e+003;
3.0390625000e+000;4.3964101563e+003;4.4156411133e+003;4.4220512695e+003;4.4253847656e+003;4.4250000000e+003;4.4221796875e+003;4.4210258789e+003;4.4203847656e+003;4.4252563477e+003;4.3984614258e+003;4.4224360352e+003;4.4200000000e+003;4.4192309570e+003;4.4234614258e+003;
3.0468750000e+000;4.3892309570e+003;4.4156411133e+003;4.4157690430e+003;4.4228203125e+003;4.4225639648e+003;4.4252563477e+003;4.4219228516e+003;4.4112822266e+003;4.4139741211e+003;4.3820512695e+003;4.4143588867e+003;4.4152563477e+003;4.4093588867e+003;4.4185898438e+003;
3.0546875000e+000;4.3800000000e+003;4.4075639648e+003;4.4060258789e+003;4.4156411133e+003;4.4157690430e+003;4.4188461914e+003;4.4162822266e+003;4.4016665039e+003;4.4002563477e+003;4.3685898438e+003;4.4044873047e+003;4.4060258789e+003;4.3988461914e+003;4.4102563477e+003;
3.0625000000e+000;4.4087177734e+003;4.4280771484e+003;4.4300000000e+003;4.4415385742e+003;4.4498715820e+003;4.4508974609e+003;4.4484614258e+003;4.4303847656e+003;4.4216665039e+003;4.4052563477e+003;4.4334614258e+003;4.4264101563e+003;4.4320512695e+003;4.4355126953e+003;
3.0703125000e+000;4.4105126953e+003;4.4293588867e+003;4.4332050781e+003;4.4439741211e+003;4.4503847656e+003;4.4557690430e+003;4.4492309570e+003;4.4379487305e+003;4.4285898438e+003;4.4157690430e+003;4.4371796875e+003;4.4302563477e+003;4.4356411133e+003;4.4394873047e+003;
3.0781250000e+000;4.3493588867e+003;4.3666665039e+003;4.3748715820e+003;4.3852563477e+003;4.3812822266e+003;4.4016665039e+003;4.3915385742e+003;4.3871796875e+003;4.3750000000e+003;4.3551284180e+003;4.3765385742e+003;4.3735898438e+003;4.3701284180e+003;4.3814101563e+003;
3.0859375000e+000;4.3396152344e+003;4.3537177734e+003;4.3633334961e+003;4.3714101563e+003;4.3673076172e+003;4.3902563477e+003;4.3830771484e+003;4.3783334961e+003;4.3664101563e+003;4.3394873047e+003;4.3653847656e+003;4.3617949219e+003;4.3569228516e+003;4.3697436523e+003;
3.0937500000e+000;4.3533334961e+003;4.3601284180e+003;4.3723076172e+003;4.3760258789e+003;4.3764101563e+003;4.3956411133e+003;4.3905126953e+003;4.3957690430e+003;4.3889741211e+003;4.3529487305e+003;4.3793588867e+003;4.3735898438e+003;4.3716665039e+003;4.3824360352e+003;
3.1015625000e+000;4.3283334961e+003;4.3348715820e+003;4.3457690430e+003;4.3546152344e+003;4.3506411133e+003;4.3701284180e+003;4.3623076172e+003;4.3714101563e+003;4.3623076172e+003;4.3274360352e+003;4.3529487305e+003;4.3483334961e+003;4.3473076172e+003;4.3579487305e+003;
3.1093750000e+000;4.3205126953e+003;4.3271796875e+003;4.3348715820e+003;4.3476923828e+003;4.3410258789e+003;4.3587177734e+003;4.3500000000e+003;4.3620512695e+003;4.3485898438e+003;4.3166665039e+003;4.3421796875e+003;4.3376923828e+003;4.3389741211e+003;4.3484614258e+003;
3.1171875000e+000;4.3421796875e+003;4.3482050781e+003;4.3537177734e+003;4.3656411133e+003;4.3589741211e+003;4.3733334961e+003;4.3661538086e+003;4.3811538086e+003;4.3635898438e+003;4.3353847656e+003;4.3610258789e+003;4.3553847656e+003;4.3593588867e+003;4.3667949219e+003;
3.1250000000e+000;4.5260258789e+003;4.5271796875e+003;4.5406411133e+003;4.5325639648e+003;4.5339741211e+003;4.5269228516e+003;4.5307690430e+003;4.5438461914e+003;4.5347436523e+003;4.5117949219e+003;4.5392309570e+003;4.5302563477e+003;4.5335898438e+003;4.5412822266e+003;
3.1328125000e+000;4.4820512695e+003;4.4969228516e+003;4.4957690430e+003;4.4937177734e+003;4.4848715820e+003;4.4770512695e+003;4.4803847656e+003;4.4966665039e+003;4.4937177734e+003;4.4771796875e+003;4.4976923828e+003;4.4929487305e+003;4.5078203125e+003;4.5053847656e+003;
3.1406250000e+000;4.5060258789e+003;4.5212822266e+003;4.5193588867e+003;4.5174360352e+003;4.5078203125e+003;4.5067949219e+003;4.5073076172e+003;4.5132050781e+003;4.5124360352e+003;4.4944873047e+003;4.5188461914e+003;4.5126923828e+003;4.5275639648e+003;4.5258974609e+003;
3.1484375000e+000;4.6519228516e+003;4.6755126953e+003;4.6719228516e+003;4.6648715820e+003;4.6756411133e+003;4.6626923828e+003;4.6558974609e+003;4.6569228516e+003;4.6567949219e+003;4.6502563477e+003;4.6701284180e+003;4.6584614258e+003;4.6700000000e+003;4.6735898438e+003;
3.1562500000e+000;4.6579487305e+003;4.6865385742e+003;4.6838461914e+003;4.6751284180e+003;4.6950000000e+003;4.6752563477e+003;4.6657690430e+003;4.6698715820e+003;4.6664101563e+003;4.6673076172e+003;4.6810258789e+003;4.6702563477e+003;4.6793588867e+003;4.6847436523e+003;
3.1640625000e+000;4.4869228516e+003;4.5184614258e+003;4.5134614258e+003;4.5105126953e+003;4.5261538086e+003;4.5167949219e+003;4.5091025391e+003;4.5043588867e+003;4.4901284180e+003;4.4893588867e+003;4.5082050781e+003;4.5043588867e+003;4.5175639648e+003;4.5193588867e+003;
3.1718750000e+000;4.4258974609e+003;4.4457690430e+003;4.4560258789e+003;4.4539741211e+003;4.4557690430e+003;4.4694873047e+003;4.4589741211e+003;4.4465385742e+003;4.4285898438e+003;4.4214101563e+003;4.4496152344e+003;4.4471796875e+003;4.4523076172e+003;4.4591025391e+003;
3.1796875000e+000;4.4184614258e+003;4.4355126953e+003;4.4492309570e+003;4.4474360352e+003;4.4491025391e+003;4.4641025391e+003;4.4546152344e+003;4.4442309570e+003;4.4264101563e+003;4.4164101563e+003;4.4441025391e+003;4.4394873047e+003;4.4428203125e+003;4.4503847656e+003;
3.1875000000e+000;4.3920512695e+003;4.4120512695e+003;4.4189741211e+003;4.4205126953e+003;4.4264101563e+003;4.4316665039e+003;4.4246152344e+003;4.4402563477e+003;4.4278203125e+003;4.4012822266e+003;4.4239741211e+003;4.4152563477e+003;4.4161538086e+003;4.4282050781e+003;
3.1953125000e+000;4.3596152344e+003;4.3778203125e+003;4.3864101563e+003;4.3902563477e+003;4.3892309570e+003;4.4005126953e+003;4.3942309570e+003;4.4089741211e+003;4.3964101563e+003;4.3639741211e+003;4.3889741211e+003;4.3823076172e+003;4.3803847656e+003;4.3957690430e+003;
3.2031250000e+000;4.4061538086e+003;4.4174360352e+003;4.4325639648e+003;4.4355126953e+003;4.4226923828e+003;4.4443588867e+003;4.4424360352e+003;4.4505126953e+003;4.4367949219e+003;4.4011538086e+003;4.4323076172e+003;4.4247436523e+003;4.4250000000e+003;4.4393588867e+003;
3.2109375000e+000;4.4625639648e+003;4.4720512695e+003;4.4901284180e+003;4.4887177734e+003;4.4773076172e+003;4.4947436523e+003;4.4939741211e+003;4.5076923828e+003;4.4938461914e+003;4.4597436523e+003;4.4920512695e+003;4.4824360352e+003;4.4853847656e+003;4.4974360352e+003;
3.2187500000e+000;4.4789741211e+003;4.4982050781e+003;4.5151284180e+003;4.5037177734e+003;4.5115385742e+003;4.4951284180e+003;4.4965385742e+003;4.5258974609e+003;4.5110258789e+003;4.4791025391e+003;4.5164101563e+003;4.5078203125e+003;4.5084614258e+003;4.5197436523e+003;
3.2265625000e+000;4.4970512695e+003;4.5212822266e+003;4.5334614258e+003;4.5235898438e+003;4.5325639648e+003;4.5098715820e+003;4.5133334961e+003;4.5411538086e+003;4.5285898438e+003;4.5005126953e+003;4.5348715820e+003;4.5251284180e+003;4.5276923828e+003;4.5370512695e+003;
3.2343750000e+000;4.5244873047e+003;4.5510258789e+003;4.5602563477e+003;4.5535898438e+003;4.5575639648e+003;4.5365385742e+003;4.5398715820e+003;4.5676923828e+003;4.5587177734e+003;4.5360258789e+003;4.5637177734e+003;4.5521796875e+003;4.5574360352e+003;4.5642309570e+003;
3.2421875000e+000;4.5305126953e+003;4.5558974609e+003;4.5655126953e+003;4.5615385742e+003;4.5579487305e+003;4.5452563477e+003;4.5451284180e+003;4.5743588867e+003;4.5683334961e+003;4.5493588867e+003;4.5703847656e+003;4.5585898438e+003;4.5647436523e+003;4.5696152344e+003;
3.2500000000e+000;4.4600000000e+003;4.4892309570e+003;4.4975639648e+003;4.4889741211e+003;4.4982050781e+003;4.4976923828e+003;4.4812822266e+003;4.4943588867e+003;4.4889741211e+003;4.4706411133e+003;4.4964101563e+003;4.4850000000e+003;4.4917949219e+003;4.4946152344e+003;
3.2578125000e+000;4.4412822266e+003;4.4632050781e+003;4.4778203125e+003;4.4791025391e+003;4.4839741211e+003;4.4892309570e+003;4.4717949219e+003;4.4589741211e+003;4.4484614258e+003;4.4397436523e+003;4.4684614258e+003;4.4570512695e+003;4.4688461914e+003;4.4738461914e+003;
3.2656250000e+000;4.4475639648e+003;4.4755126953e+003;4.4838461914e+003;4.4847436523e+003;4.4893588867e+003;4.4965385742e+003;4.4792309570e+003;4.4707690430e+003;4.4571796875e+003;4.4487177734e+003;4.4801284180e+003;4.4675639648e+003;4.4785898438e+003;4.4833334961e+003;
3.2734375000e+000;4.3685898438e+003;4.4033334961e+003;4.4098715820e+003;4.4074360352e+003;4.4014101563e+003;4.4307690430e+003;4.4096152344e+003;4.4080771484e+003;4.3843588867e+003;4.3746152344e+003;4.4094873047e+003;4.3994873047e+003;4.4042309570e+003;4.4120512695e+003;
3.2812500000e+000;4.4360258789e+003;4.4476923828e+003;4.4653847656e+003;4.4738461914e+003;4.4729487305e+003;4.4769228516e+003;4.4666665039e+003;4.4719228516e+003;4.4530771484e+003;4.4360258789e+003;4.4705126953e+003;4.4530771484e+003;4.4665385742e+003;4.4739741211e+003;
3.2890625000e+000;4.4338461914e+003;4.4467949219e+003;4.4642309570e+003;4.4711538086e+003;4.4733334961e+003;4.4726923828e+003;4.4639741211e+003;4.4776923828e+003;4.4608974609e+003;4.4391025391e+003;4.4701284180e+003;4.4537177734e+003;4.4650000000e+003;4.4721796875e+003;
3.2968750000e+000;4.4167949219e+003;4.4317949219e+003;4.4473076172e+003;4.4474360352e+003;4.4496152344e+003;4.4503847656e+003;4.4450000000e+003;4.4697436523e+003;4.4541025391e+003;4.4205126953e+003;4.4460258789e+003;4.4337177734e+003;4.4460258789e+003;4.4498715820e+003;
3.3046875000e+000;4.4266665039e+003;4.4401284180e+003;4.4566665039e+003;4.4535898438e+003;4.4528203125e+003;4.4541025391e+003;4.4511538086e+003;4.4814101563e+003;4.4664101563e+003;4.4291025391e+003;4.4529487305e+003;4.4407690430e+003;4.4556411133e+003;4.4576923828e+003;
3.3125000000e+000;4.3514101563e+003;4.3635898438e+003;4.3884614258e+003;4.3853847656e+003;4.3705126953e+003;4.3783334961e+003;4.3746152344e+003;4.4137177734e+003;4.4003847656e+003;4.3587177734e+003;4.3878203125e+003;4.3744873047e+003;4.3838461914e+003;4.3928203125e+003;
3.3203125000e+000;4.3433334961e+003;4.3576923828e+003;4.3802563477e+003;4.3780771484e+003;4.3637177734e+003;4.3702563477e+003;4.3653847656e+003;4.4037177734e+003;4.3900000000e+003;4.3500000000e+003;4.3797436523e+003;4.3678203125e+003;4.3758974609e+003;4.3860258789e+003;
3.3281250000e+000;4.3641025391e+003;4.3816665039e+003;4.3979487305e+003;4.3961538086e+003;4.3823076172e+003;4.3842309570e+003;4.3793588867e+003;4.4180771484e+003;4.4050000000e+003;4.3694873047e+003;4.3923076172e+003;4.3851284180e+003;4.3957690430e+003;4.4000000000e+003;
3.3359375000e+000;4.3444873047e+003;4.3612822266e+003;4.3770512695e+003;4.3771796875e+003;4.3580771484e+003;4.3639741211e+003;4.3587177734e+003;4.3935898438e+003;4.3838461914e+003;4.3467949219e+003;4.3685898438e+003;4.3608974609e+003;4.3732050781e+003;4.3744873047e+003;
3.3437500000e+000;4.3178203125e+003;4.3343588867e+003;4.3410258789e+003;4.3493588867e+003;4.3285898438e+003;4.3519228516e+003;4.3382050781e+003;4.3506411133e+003;4.3525639648e+003;4.3153847656e+003;4.3452563477e+003;4.3171796875e+003;4.3382050781e+003;4.3388461914e+003;
3.3515625000e+000;4.3225639648e+003;4.3385898438e+003;4.3428203125e+003;4.3538461914e+003;4.3398715820e+003;4.3628203125e+003;4.3444873047e+003;4.3546152344e+003;4.3551284180e+003;4.3247436523e+003;4.3508974609e+003;4.3217949219e+003;4.3434614258e+003;4.3456411133e+003;
3.3593750000e+000;4.3094873047e+003;4.3230771484e+003;4.3279487305e+003;4.3437177734e+003;4.3330771484e+003;4.3537177734e+003;4.3330771484e+003;4.3397436523e+003;4.3367949219e+003;4.3121796875e+003;4.3333334961e+003;4.3089741211e+003;4.3298715820e+003;4.3332050781e+003;
3.3671875000e+000;4.2970512695e+003;4.3076923828e+003;4.3137177734e+003;4.3350000000e+003;4.3235898438e+003;4.3406411133e+003;4.3212822266e+003;4.3214101563e+003;4.3152563477e+003;4.2932050781e+003;4.3120512695e+003;4.2934614258e+003;4.3146152344e+003;4.3175639648e+003;
3.3750000000e+000;4.3483334961e+003;4.3629487305e+003;4.3616665039e+003;4.3714101563e+003;4.3615385742e+003;4.3858974609e+003;4.3689741211e+003;4.3580771484e+003;4.3478203125e+003;4.3306411133e+003;4.3620512695e+003;4.3416665039e+003;4.3592309570e+003;4.3693588867e+003;
3.3828125000e+000;4.3330771484e+003;4.3441025391e+003;4.3460258789e+003;4.3517949219e+003;4.3433334961e+003;4.3733334961e+003;4.3556411133e+003;4.3424360352e+003;4.3288461914e+003;4.3166665039e+003;4.3502563477e+003;4.3306411133e+003;4.3439741211e+003;4.3566665039e+003;
3.3906250000e+000;4.4014101563e+003;4.4150000000e+003;4.4170512695e+003;4.4253847656e+003;4.4212822266e+003;4.4315385742e+003;4.4252563477e+003;4.4215385742e+003;4.3991025391e+003;4.3915385742e+003;4.4234614258e+003;4.4053847656e+003;4.4179487305e+003;4.4265385742e+003;
3.3984375000e+000;4.3558974609e+003;4.3666665039e+003;4.3755126953e+003;4.3760258789e+003;4.3694873047e+003;4.3910258789e+003;4.3905126953e+003;4.3967949219e+003;4.3767949219e+003;4.3493588867e+003;4.3784614258e+003;4.3600000000e+003;4.3691025391e+003;4.3853847656e+003;
3.4062500000e+000;4.3717949219e+003;4.3716665039e+003;4.3892309570e+003;4.3838461914e+003;4.3771796875e+003;4.4053847656e+003;4.4046152344e+003;4.4148715820e+003;4.3991025391e+003;4.3706411133e+003;4.3939741211e+003;4.3750000000e+003;4.3850000000e+003;4.3987177734e+003;
3.4140625000e+000;4.3151284180e+003;4.3038461914e+003;4.3373076172e+003;4.3293588867e+003;4.3155126953e+003;4.3462822266e+003;4.3446152344e+003;4.3755126953e+003;4.3697436523e+003;4.3367949219e+003;4.3475639648e+003;4.3352563477e+003;4.3391025391e+003;4.3474360352e+003;
3.4218750000e+000;4.2798715820e+003;4.2734614258e+003;4.3000000000e+003;4.2907690430e+003;4.2761538086e+003;4.2862822266e+003;4.2925639648e+003;4.3296152344e+003;4.3248715820e+003;4.2878203125e+003;4.3153847656e+003;4.2956411133e+003;4.3073076172e+003;4.3184614258e+003;
3.4296875000e+000;4.2882050781e+003;4.2766665039e+003;4.3073076172e+003;4.2987177734e+003;4.2776923828e+003;4.2887177734e+003;4.2930771484e+003;4.3298715820e+003;4.3258974609e+003;4.2907690430e+003;4.3207690430e+003;4.3006411133e+003;4.3121796875e+003;4.3239741211e+003;
