Time (s);AF3;F7;F3;FC5;T7;P7;O1;O2;P8;T8;FC6;F4;F8;AF4;Sampling Rate
0.0000000000e+000;4.3938461914e+003;3.7369230957e+003;3.7344870605e+003;3.7585898438e+003;3.7026923828e+003;3.7412819824e+003;3.7353845215e+003;3.7302563477e+003;3.7194870605e+003;3.6814101563e+003;3.7192307129e+003;3.7311538086e+003;3.7142307129e+003;3.7523076172e+003;128
7.8125000000e-003;4.3674360352e+003;3.7185898438e+003;3.7191025391e+003;3.7415385742e+003;3.6855129395e+003;3.7265385742e+003;3.7198718262e+003;3.7123076172e+003;3.7038461914e+003;3.6648718262e+003;3.7041025391e+003;3.7183332520e+003;3.6988461914e+003;3.7405129395e+003;
1.5625000000e-002;4.3591025391e+003;3.7211538086e+003;3.7216667480e+003;3.7420512695e+003;3.6864101563e+003;3.7289743652e+003;3.7215385742e+003;3.7126923828e+003;3.7046154785e+003;3.6665385742e+003;3.7071794434e+003;3.7230769043e+003;3.7026923828e+003;3.7451281738e+003;
2.3437500000e-002;4.3334614258e+003;3.7356411133e+003;3.7335898438e+003;3.7523076172e+003;3.6980769043e+003;3.7410256348e+003;3.7239743652e+003;3.7219230957e+003;3.7183332520e+003;3.6826923828e+003;3.7208974609e+003;3.7344870605e+003;3.7196154785e+003;3.7535898438e+003;
3.1250000000e-002;4.3525639648e+003;3.7478205566e+003;3.7439743652e+003;3.7664101563e+003;3.7153845215e+003;3.7547436523e+003;3.7388461914e+003;3.7301281738e+003;3.7303845215e+003;3.6937180176e+003;3.7317949219e+003;3.7421794434e+003;3.7311538086e+003;3.7628205566e+003;
3.9062500000e-002;4.5071796875e+003;3.8703845215e+003;3.8548718262e+003;3.8791025391e+003;3.8364101563e+003;3.8670512695e+003;3.8505129395e+003;3.8483332520e+003;3.8507692871e+003;3.8226923828e+003;3.8520512695e+003;3.8497436523e+003;3.8485898438e+003;3.8730769043e+003;
4.6875000000e-002;4.4526923828e+003;3.7953845215e+003;3.7712819824e+003;3.8034614258e+003;3.7556411133e+003;3.7943588867e+003;3.7717949219e+003;3.7675642090e+003;3.7685898438e+003;3.7382050781e+003;3.7671794434e+003;3.7687180176e+003;3.7687180176e+003;3.7976923828e+003;
5.4687500000e-002;4.4669228516e+003;3.8128205566e+003;3.7870512695e+003;3.8217949219e+003;3.7741025391e+003;3.8085898438e+003;3.7883332520e+003;3.7834614258e+003;3.7848718262e+003;3.7565385742e+003;3.7830769043e+003;3.7864101563e+003;3.7864101563e+003;3.8146154785e+003;
6.2500000000e-002;4.4151284180e+003;3.7751281738e+003;3.7578205566e+003;3.7960256348e+003;3.7417949219e+003;3.7753845215e+003;3.7597436523e+003;3.7574357910e+003;3.7524357910e+003;3.7256411133e+003;3.7489743652e+003;3.7560256348e+003;3.7487180176e+003;3.7738461914e+003;
7.0312500000e-002;4.3984614258e+003;3.7329487305e+003;3.7207692871e+003;3.7526923828e+003;3.7028205566e+003;3.7407692871e+003;3.7269230957e+003;3.7241025391e+003;3.7165385742e+003;3.6843588867e+003;3.7080769043e+003;3.7191025391e+003;3.7117949219e+003;3.7403845215e+003;
7.8125000000e-002;4.4024360352e+003;3.7020512695e+003;3.6955129395e+003;3.7242307129e+003;3.6703845215e+003;3.7106411133e+003;3.6991025391e+003;3.6962819824e+003;3.6876923828e+003;3.6544870605e+003;3.6794870605e+003;3.6932050781e+003;3.6833332520e+003;3.7130769043e+003;
8.5937500000e-002;4.4248715820e+003;3.6825642090e+003;3.6807692871e+003;3.7073076172e+003;3.6491025391e+003;3.6892307129e+003;3.6811538086e+003;3.6774357910e+003;3.6679487305e+003;3.6338461914e+003;3.6620512695e+003;3.6767949219e+003;3.6652563477e+003;3.6950000000e+003;
9.3750000000e-002;4.5094873047e+003;3.7103845215e+003;3.7100000000e+003;3.7341025391e+003;3.6750000000e+003;3.7091025391e+003;3.7075642090e+003;3.7043588867e+003;3.6957692871e+003;3.6612819824e+003;3.6950000000e+003;3.7093588867e+003;3.6964101563e+003;3.7244870605e+003;
1.0156250000e-001;4.4882050781e+003;3.6853845215e+003;3.6884614258e+003;3.7144870605e+003;3.6510256348e+003;3.6939743652e+003;3.6948718262e+003;3.6865385742e+003;3.6762819824e+003;3.6410256348e+003;3.6791025391e+003;3.6944870605e+003;3.6765385742e+003;3.7048718262e+003;
1.0937500000e-001;4.5148715820e+003;3.7069230957e+003;3.7102563477e+003;3.7361538086e+003;3.6729487305e+003;3.7144870605e+003;3.7148718262e+003;3.7051281738e+003;3.6962819824e+003;3.6619230957e+003;3.6988461914e+003;3.7119230957e+003;3.6957692871e+003;3.7216667480e+003;
1.1718750000e-001;4.5642309570e+003;3.7482050781e+003;3.7505129395e+003;3.7756411133e+003;3.7148718262e+003;3.7520512695e+003;3.7503845215e+003;3.7425642090e+003;3.7371794434e+003;3.7035898438e+003;3.7370512695e+003;3.7480769043e+003;3.7337180176e+003;3.7570512695e+003;
1.2500000000e-001;4.6020512695e+003;3.7769230957e+003;3.7747436523e+003;3.8011538086e+003;3.7466667480e+003;3.7806411133e+003;3.7711538086e+003;3.7653845215e+003;3.7689743652e+003;3.7314101563e+003;3.7591025391e+003;3.7705129395e+003;3.7574357910e+003;3.7791025391e+003;
1.3281250000e-001;4.5993588867e+003;3.7747436523e+003;3.7667949219e+003;3.7961538086e+003;3.7453845215e+003;3.7792307129e+003;3.7675642090e+003;3.7574357910e+003;3.7641025391e+003;3.7246154785e+003;3.7525642090e+003;3.7641025391e+003;3.7534614258e+003;3.7744870605e+003;
1.4062500000e-001;4.6175639648e+003;3.7923076172e+003;3.7773076172e+003;3.8089743652e+003;3.7632050781e+003;3.7941025391e+003;3.7821794434e+003;3.7687180176e+003;3.7765385742e+003;3.7385898438e+003;3.7669230957e+003;3.7771794434e+003;3.7703845215e+003;3.7896154785e+003;
1.4843750000e-001;4.5617949219e+003;3.7710256348e+003;3.7558974609e+003;3.7841025391e+003;3.7434614258e+003;3.7779487305e+003;3.7573076172e+003;3.7561538086e+003;3.7648718262e+003;3.7266667480e+003;3.7516667480e+003;3.7615385742e+003;3.7491025391e+003;3.7738461914e+003;
1.5625000000e-001;4.5515385742e+003;3.7837180176e+003;3.7638461914e+003;3.7930769043e+003;3.7532050781e+003;3.7880769043e+003;3.7675642090e+003;3.7647436523e+003;3.7751281738e+003;3.7383332520e+003;3.7611538086e+003;3.7691025391e+003;3.7607692871e+003;3.7850000000e+003;
1.6406250000e-001;4.4387177734e+003;3.7191025391e+003;3.6978205566e+003;3.7387180176e+003;3.6926923828e+003;3.7294870605e+003;3.7126923828e+003;3.7058974609e+003;3.7125642090e+003;3.6758974609e+003;3.6958974609e+003;3.7003845215e+003;3.6997436523e+003;3.7148718262e+003;
1.7187500000e-001;4.4102563477e+003;3.7792307129e+003;3.7528205566e+003;3.7907692871e+003;3.7471794434e+003;3.7775642090e+003;3.7684614258e+003;3.7655129395e+003;3.7652563477e+003;3.7291025391e+003;3.7475642090e+003;3.7501281738e+003;3.7466667480e+003;3.7647436523e+003;
1.7968750000e-001;4.4101284180e+003;3.7707692871e+003;3.7443588867e+003;3.7814101563e+003;3.7339743652e+003;3.7683332520e+003;3.7596154785e+003;3.7584614258e+003;3.7541025391e+003;3.7220512695e+003;3.7385898438e+003;3.7435898438e+003;3.7389743652e+003;3.7594870605e+003;
1.8750000000e-001;4.6300000000e+003;3.7724357910e+003;3.7544870605e+003;3.7916667480e+003;3.7414101563e+003;3.7692307129e+003;3.7717949219e+003;3.7623076172e+003;3.7569230957e+003;3.7289743652e+003;3.7493588867e+003;3.7578205566e+003;3.7552563477e+003;3.7770512695e+003;
1.9531250000e-001;4.7292309570e+003;3.8005129395e+003;3.7847436523e+003;3.8187180176e+003;3.7703845215e+003;3.7920512695e+003;3.7962819824e+003;3.7916667480e+003;3.7900000000e+003;3.7614101563e+003;3.7821794434e+003;3.7911538086e+003;3.7851281738e+003;3.8103845215e+003;
2.0312500000e-001;4.7274360352e+003;3.7844870605e+003;3.7692307129e+003;3.7966667480e+003;3.7462819824e+003;3.7667949219e+003;3.7694870605e+003;3.7735898438e+003;3.7758974609e+003;3.7448718262e+003;3.7674357910e+003;3.7792307129e+003;3.7661538086e+003;3.7969230957e+003;
2.1093750000e-001;4.6691025391e+003;3.7750000000e+003;3.7603845215e+003;3.7838461914e+003;3.7338461914e+003;3.7548718262e+003;3.7584614258e+003;3.7624357910e+003;3.7643588867e+003;3.7328205566e+003;3.7562819824e+003;3.7688461914e+003;3.7562819824e+003;3.7847436523e+003;
2.1875000000e-001;4.6214101563e+003;3.7829487305e+003;3.7717949219e+003;3.7901281738e+003;3.7416667480e+003;3.7634614258e+003;3.7687180176e+003;3.7721794434e+003;3.7734614258e+003;3.7421794434e+003;3.7648718262e+003;3.7780769043e+003;3.7667949219e+003;3.7915385742e+003;
2.2656250000e-001;4.5924360352e+003;3.7912819824e+003;3.7864101563e+003;3.8000000000e+003;3.7517949219e+003;3.7764101563e+003;3.7825642090e+003;3.7856411133e+003;3.7873076172e+003;3.7556411133e+003;3.7765385742e+003;3.7908974609e+003;3.7792307129e+003;3.8017949219e+003;
2.3437500000e-001;4.7220512695e+003;3.8643588867e+003;3.8460256348e+003;3.8683332520e+003;3.8289743652e+003;3.8524357910e+003;3.8548718262e+003;3.8429487305e+003;3.8546154785e+003;3.8205129395e+003;3.8379487305e+003;3.8519230957e+003;3.8447436523e+003;3.8635898438e+003;
2.4218750000e-001;4.7493588867e+003;3.8479487305e+003;3.8307692871e+003;3.8484614258e+003;3.8132050781e+003;3.8379487305e+003;3.8219230957e+003;3.8244870605e+003;3.8379487305e+003;3.8062819824e+003;3.8175642090e+003;3.8337180176e+003;3.8250000000e+003;3.8471794434e+003;
2.5000000000e-001;4.7896152344e+003;3.8511538086e+003;3.8307692871e+003;3.8496154785e+003;3.8146154785e+003;3.8384614258e+003;3.8229487305e+003;3.8226923828e+003;3.8405129395e+003;3.8064101563e+003;3.8194870605e+003;3.8337180176e+003;3.8267949219e+003;3.8503845215e+003;
2.5781250000e-001;4.8537177734e+003;3.8414101563e+003;3.8167949219e+003;3.8412819824e+003;3.8060256348e+003;3.8317949219e+003;3.8158974609e+003;3.8126923828e+003;3.8343588867e+003;3.8034614258e+003;3.8115385742e+003;3.8244870605e+003;3.8196154785e+003;3.8397436523e+003;
2.6562500000e-001;4.8775639648e+003;3.8158974609e+003;3.7924357910e+003;3.8193588867e+003;3.7834614258e+003;3.8128205566e+003;3.7960256348e+003;3.7916667480e+003;3.8106411133e+003;3.7829487305e+003;3.7880769043e+003;3.8012819824e+003;3.7964101563e+003;3.8132050781e+003;
2.7343750000e-001;5.2315385742e+003;3.8714101563e+003;3.8410256348e+003;3.8626923828e+003;3.8320512695e+003;3.8550000000e+003;3.8450000000e+003;3.8446154785e+003;3.8526923828e+003;3.8265385742e+003;3.8383332520e+003;3.8462819824e+003;3.8396154785e+003;3.8561538086e+003;
2.8125000000e-001;5.3167949219e+003;3.8641025391e+003;3.8339743652e+003;3.8550000000e+003;3.8214101563e+003;3.8443588867e+003;3.8370512695e+003;3.8369230957e+003;3.8420512695e+003;3.8147436523e+003;3.8294870605e+003;3.8384614258e+003;3.8273076172e+003;3.8492307129e+003;
2.8906250000e-001;5.2979487305e+003;3.7628205566e+003;3.7488461914e+003;3.7721794434e+003;3.7252563477e+003;3.7566667480e+003;3.7541025391e+003;3.7421794434e+003;3.7419230957e+003;3.7202563477e+003;3.7371794434e+003;3.7489743652e+003;3.7366667480e+003;3.7597436523e+003;
2.9687500000e-001;5.3810258789e+003;3.7739743652e+003;3.7601281738e+003;3.7819230957e+003;3.7341025391e+003;3.7630769043e+003;3.7624357910e+003;3.7517949219e+003;3.7517949219e+003;3.7329487305e+003;3.7510256348e+003;3.7619230957e+003;3.7516667480e+003;3.7712819824e+003;
3.0468750000e-001;5.7420512695e+003;3.8001281738e+003;3.7788461914e+003;3.8000000000e+003;3.7516667480e+003;3.7751281738e+003;3.7797436523e+003;3.7712819824e+003;3.7689743652e+003;3.7525642090e+003;3.7755129395e+003;3.7880769043e+003;3.7752563477e+003;3.7948718262e+003;
3.1250000000e-001;5.9480771484e+003;3.8258974609e+003;3.8001281738e+003;3.8224357910e+003;3.7748718262e+003;3.7948718262e+003;3.8024357910e+003;3.7930769043e+003;3.7883332520e+003;3.7738461914e+003;3.7984614258e+003;3.8117949219e+003;3.7980769043e+003;3.8194870605e+003;
3.2031250000e-001;6.1128203125e+003;3.8691025391e+003;3.8400000000e+003;3.8624357910e+003;3.8162819824e+003;3.8319230957e+003;3.8407692871e+003;3.8330769043e+003;3.8273076172e+003;3.8160256348e+003;3.8396154785e+003;3.8529487305e+003;3.8400000000e+003;3.8624357910e+003;
3.2812500000e-001;6.2074360352e+003;3.9061538086e+003;3.8760256348e+003;3.8969230957e+003;3.8514101563e+003;3.8635898438e+003;3.8710256348e+003;3.8689743652e+003;3.8646154785e+003;3.8561538086e+003;3.8756411133e+003;3.8894870605e+003;3.8770512695e+003;3.8996154785e+003;
3.3593750000e-001;6.3852563477e+003;3.8874357910e+003;3.8582050781e+003;3.8748718262e+003;3.8312819824e+003;3.8358974609e+003;3.8452563477e+003;3.8446154785e+003;3.8519230957e+003;3.8387180176e+003;3.8511538086e+003;3.8628205566e+003;3.8492307129e+003;3.8658974609e+003;
3.4375000000e-001;6.5461538086e+003;3.8888461914e+003;3.8500000000e+003;3.8766667480e+003;3.8435898438e+003;3.8556411133e+003;3.8488461914e+003;3.8534614258e+003;3.8620512695e+003;3.8537180176e+003;3.8594870605e+003;3.8657692871e+003;3.8606411133e+003;3.8685898438e+003;
3.5156250000e-001;6.5914101563e+003;3.9139743652e+003;3.8703845215e+003;3.8975642090e+003;3.8674357910e+003;3.8785898438e+003;3.8698718262e+003;3.8734614258e+003;3.8834614258e+003;3.8739743652e+003;3.8794870605e+003;3.8830769043e+003;3.8812819824e+003;3.8893588867e+003;
3.5937500000e-001;6.6191025391e+003;3.9660256348e+003;3.9206411133e+003;3.9444870605e+003;3.9166667480e+003;3.9279487305e+003;3.9203845215e+003;3.9279487305e+003;3.9383332520e+003;3.9308974609e+003;3.9308974609e+003;3.9306411133e+003;3.9300000000e+003;3.9397436523e+003;
3.6718750000e-001;6.7479487305e+003;4.0216667480e+003;3.9670512695e+003;3.9921794434e+003;3.9734614258e+003;3.9783332520e+003;3.9787180176e+003;3.9798718262e+003;3.9921794434e+003;3.9856411133e+003;3.9852563477e+003;3.9778205566e+003;3.9824357910e+003;3.9850000000e+003;
3.7500000000e-001;6.7797436523e+003;4.0461538086e+003;3.9878205566e+003;4.0119230957e+003;3.9948718262e+003;3.9987180176e+003;3.9967949219e+003;4.0003845215e+003;4.0114101563e+003;4.0079487305e+003;4.0055129395e+003;3.9974357910e+003;4.0021794434e+003;4.0046154785e+003;
3.8281250000e-001;6.7738461914e+003;4.0000000000e+003;3.9493588867e+003;3.9697436523e+003;3.9476923828e+003;3.9612819824e+003;3.9546154785e+003;3.9530769043e+003;3.9580769043e+003;3.9607692871e+003;3.9575642090e+003;3.9543588867e+003;3.9524357910e+003;3.9573076172e+003;
3.9062500000e-001;6.7955126953e+003;3.9846154785e+003;3.9398718262e+003;3.9576923828e+003;3.9355129395e+003;3.9501281738e+003;3.9455129395e+003;3.9382050781e+003;3.9412819824e+003;3.9456411133e+003;3.9434614258e+003;3.9429487305e+003;3.9391025391e+003;3.9438461914e+003;
3.9843750000e-001;6.8057690430e+003;3.9658974609e+003;3.9212819824e+003;3.9384614258e+003;3.9132050781e+003;3.9237180176e+003;3.9261538086e+003;3.9164101563e+003;3.9169230957e+003;3.9226923828e+003;3.9225642090e+003;3.9287180176e+003;3.9242307129e+003;3.9276923828e+003;
4.0625000000e-001;6.8071796875e+003;3.9462819824e+003;3.8983332520e+003;3.9170512695e+003;3.8874357910e+003;3.9003845215e+003;3.9034614258e+003;3.8928205566e+003;3.8914101563e+003;3.8973076172e+003;3.9002563477e+003;3.9078205566e+003;3.9023076172e+003;3.9051281738e+003;
4.1406250000e-001;6.9021796875e+003;3.9739743652e+003;3.9352563477e+003;3.9476923828e+003;3.9183332520e+003;3.9229487305e+003;3.9347436523e+003;3.9301281738e+003;3.9276923828e+003;3.9365385742e+003;3.9394870605e+003;3.9439743652e+003;3.9310256348e+003;3.9351281738e+003;
4.2187500000e-001;6.8239741211e+003;3.9602563477e+003;3.9278205566e+003;3.9389743652e+003;3.9082050781e+003;3.9094870605e+003;3.9223076172e+003;3.9225642090e+003;3.9211538086e+003;3.9274357910e+003;3.9289743652e+003;3.9341025391e+003;3.9179487305e+003;3.9252563477e+003;
4.2968750000e-001;6.6328203125e+003;3.9643588867e+003;3.9265385742e+003;3.9378205566e+003;3.9051281738e+003;3.8996154785e+003;3.9100000000e+003;3.9182050781e+003;3.9194870605e+003;3.9191025391e+003;3.9223076172e+003;3.9297436523e+003;3.9142307129e+003;3.9250000000e+003;
4.3750000000e-001;6.6211538086e+003;3.9994870605e+003;3.9538461914e+003;3.9638461914e+003;3.9330769043e+003;3.9246154785e+003;3.9326923828e+003;3.9458974609e+003;3.9489743652e+003;3.9479487305e+003;3.9508974609e+003;3.9583332520e+003;3.9448718262e+003;3.9555129395e+003;
4.4531250000e-001;6.6450000000e+003;4.0191025391e+003;3.9692307129e+003;3.9778205566e+003;3.9493588867e+003;3.9411538086e+003;3.9470512695e+003;3.9642307129e+003;3.9688461914e+003;3.9680769043e+003;3.9689743652e+003;3.9760256348e+003;3.9629487305e+003;3.9734614258e+003;
4.5312500000e-001;6.6524360352e+003;4.0046154785e+003;3.9557692871e+003;3.9642307129e+003;3.9379487305e+003;3.9339743652e+003;3.9380769043e+003;3.9544870605e+003;3.9603845215e+003;3.9585898438e+003;3.9573076172e+003;3.9639743652e+003;3.9501281738e+003;3.9606411133e+003;
4.6093750000e-001;6.4797436523e+003;4.0001281738e+003;3.9557692871e+003;3.9642307129e+003;3.9458974609e+003;3.9512819824e+003;3.9437180176e+003;3.9503845215e+003;3.9620512695e+003;3.9566667480e+003;3.9541025391e+003;3.9620512695e+003;3.9466667480e+003;3.9532050781e+003;
4.6875000000e-001;6.1678203125e+003;3.9897436523e+003;3.9324357910e+003;3.9524357910e+003;3.9283332520e+003;3.9361538086e+003;3.9271794434e+003;3.9196154785e+003;3.9373076172e+003;3.9302563477e+003;3.9217949219e+003;3.9232050781e+003;3.9221794434e+003;3.9220512695e+003;
4.7656250000e-001;6.1306411133e+003;4.0034614258e+003;3.9473076172e+003;3.9683332520e+003;3.9492307129e+003;3.9561538086e+003;3.9480769043e+003;3.9417949219e+003;3.9555129395e+003;3.9507692871e+003;3.9419230957e+003;3.9400000000e+003;3.9398718262e+003;3.9370512695e+003;
4.8437500000e-001;6.0187177734e+003;3.9584614258e+003;3.9083332520e+003;3.9302563477e+003;3.9094870605e+003;3.9251281738e+003;3.9151281738e+003;3.9107692871e+003;3.9173076172e+003;3.9155129395e+003;3.9048718262e+003;3.9089743652e+003;3.9014101563e+003;3.8976923828e+003;
4.9218750000e-001;5.9570512695e+003;3.9470512695e+003;3.8942307129e+003;3.9180769043e+003;3.8935898438e+003;3.9112819824e+003;3.9015385742e+003;3.8944870605e+003;3.9015385742e+003;3.9007692871e+003;3.8891025391e+003;3.8969230957e+003;3.8880769043e+003;3.8839743652e+003;
5.0000000000e-001;5.8561538086e+003;3.9675642090e+003;3.9066667480e+003;3.9334614258e+003;3.9085898438e+003;3.9160256348e+003;3.9117949219e+003;3.9005129395e+003;3.9117949219e+003;3.9110256348e+003;3.9021794434e+003;3.9078205566e+003;3.9023076172e+003;3.8973076172e+003;
5.0781250000e-001;5.7973076172e+003;3.9833332520e+003;3.9298718262e+003;3.9541025391e+003;3.9282050781e+003;3.9325642090e+003;3.9356411133e+003;3.9192307129e+003;3.9220512695e+003;3.9248718262e+003;3.9234614258e+003;3.9261538086e+003;3.9239743652e+003;3.9202563477e+003;
5.1562500000e-001;5.8038461914e+003;4.0216667480e+003;3.9673076172e+003;3.9898718262e+003;3.9628205566e+003;3.9642307129e+003;3.9701281738e+003;3.9583332520e+003;3.9594870605e+003;3.9666667480e+003;3.9658974609e+003;3.9684614258e+003;3.9660256348e+003;3.9624357910e+003;
5.2343750000e-001;5.8152563477e+003;4.1275639648e+003;4.0683332520e+003;4.0880769043e+003;4.0648718262e+003;4.0493588867e+003;4.0642307129e+003;4.0620512695e+003;4.0614101563e+003;4.0719230957e+003;4.0784614258e+003;4.0808974609e+003;4.0734614258e+003;4.0702563477e+003;
5.3125000000e-001;5.8476923828e+003;4.1978203125e+003;4.1328203125e+003;4.1507690430e+003;4.1315385742e+003;4.1076923828e+003;4.1235898438e+003;4.1278203125e+003;4.1282050781e+003;4.1419228516e+003;4.1441025391e+003;4.1446152344e+003;4.1407690430e+003;4.1346152344e+003;
5.3906250000e-001;5.8661538086e+003;4.2470512695e+003;4.1770512695e+003;4.1919228516e+003;4.1750000000e+003;4.1476923828e+003;4.1614101563e+003;4.1753847656e+003;4.1775639648e+003;4.1956411133e+003;4.1889741211e+003;4.1885898438e+003;4.1880771484e+003;4.1787177734e+003;
5.4687500000e-001;5.7929487305e+003;4.1962822266e+003;4.1274360352e+003;4.1396152344e+003;4.1210258789e+003;4.1041025391e+003;4.1103847656e+003;4.1324360352e+003;4.1373076172e+003;4.1555126953e+003;4.1400000000e+003;4.1410258789e+003;4.1393588867e+003;4.1278203125e+003;
5.5468750000e-001;5.7425639648e+003;4.1758974609e+003;4.1112822266e+003;4.1297436523e+003;4.1157690430e+003;4.1010258789e+003;4.1074360352e+003;4.1176923828e+003;4.1225639648e+003;4.1333334961e+003;4.1224360352e+003;4.1238461914e+003;4.1183334961e+003;4.1056411133e+003;
5.6250000000e-001;5.7225639648e+003;4.1784614258e+003;4.1121796875e+003;4.1312822266e+003;4.1165385742e+003;4.1041025391e+003;4.1069228516e+003;4.1182050781e+003;4.1238461914e+003;4.1338461914e+003;4.1189741211e+003;4.1220512695e+003;4.1176923828e+003;4.1033334961e+003;
5.7031250000e-001;5.6838461914e+003;4.1601284180e+003;4.0916667480e+003;4.1103847656e+003;4.0947436523e+003;4.0874357910e+003;4.0850000000e+003;4.0956411133e+003;4.1024360352e+003;4.1108974609e+003;4.0935898438e+003;4.0980771484e+003;4.0958974609e+003;4.0805129395e+003;
5.7812500000e-001;5.6562822266e+003;4.1483334961e+003;4.0782050781e+003;4.0951281738e+003;4.0815385742e+003;4.0782050781e+003;4.0716667480e+003;4.0789743652e+003;4.0867949219e+003;4.0943588867e+003;4.0779487305e+003;4.0815385742e+003;4.0824357910e+003;4.0674357910e+003;
5.8593750000e-001;5.5748715820e+003;4.1885898438e+003;4.1284614258e+003;4.1332050781e+003;4.1347436523e+003;4.1325639648e+003;4.1294873047e+003;4.1289741211e+003;4.1352563477e+003;4.1503847656e+003;4.1319228516e+003;4.1307690430e+003;4.1357690430e+003;4.1244873047e+003;
5.9375000000e-001;5.5173076172e+003;4.1701284180e+003;4.1105126953e+003;4.1155126953e+003;4.1178203125e+003;4.1176923828e+003;4.1170512695e+003;4.1143588867e+003;4.1188461914e+003;4.1329487305e+003;4.1111538086e+003;4.1102563477e+003;4.1175639648e+003;4.1020512695e+003;
6.0156250000e-001;5.4875639648e+003;4.1750000000e+003;4.1076923828e+003;4.1198715820e+003;4.1274360352e+003;4.1284614258e+003;4.1329487305e+003;4.1330771484e+003;4.1334614258e+003;4.1448715820e+003;4.1141025391e+003;4.1134614258e+003;4.1119228516e+003;4.0953845215e+003;
6.0937500000e-001;5.4419228516e+003;4.1996152344e+003;4.1360258789e+003;4.1462822266e+003;4.1460258789e+003;4.1462822266e+003;4.1535898438e+003;4.1519228516e+003;4.1570512695e+003;4.1679487305e+003;4.1396152344e+003;4.1405126953e+003;4.1341025391e+003;4.1205126953e+003;
6.1718750000e-001;5.4264101563e+003;4.2294873047e+003;4.1675639648e+003;4.1729487305e+003;4.1720512695e+003;4.1667949219e+003;4.1761538086e+003;4.1789741211e+003;4.1858974609e+003;4.2008974609e+003;4.1725639648e+003;4.1720512695e+003;4.1694873047e+003;4.1528203125e+003;
6.2500000000e-001;5.2952563477e+003;4.2091025391e+003;4.1456411133e+003;4.1521796875e+003;4.1429487305e+003;4.1300000000e+003;4.1430771484e+003;4.1520512695e+003;4.1553847656e+003;4.1789741211e+003;4.1576923828e+003;4.1596152344e+003;4.1571796875e+003;4.1401284180e+003;
6.3281250000e-001;5.3324360352e+003;4.3414101563e+003;4.2694873047e+003;4.2703847656e+003;4.2652563477e+003;4.2391025391e+003;4.2519228516e+003;4.2684614258e+003;4.2751284180e+003;4.3020512695e+003;4.2806411133e+003;4.2848715820e+003;4.2816665039e+003;4.2673076172e+003;
6.4062500000e-001;5.3178203125e+003;4.3456411133e+003;4.2750000000e+003;4.2739741211e+003;4.2702563477e+003;4.2412822266e+003;4.2534614258e+003;4.2747436523e+003;4.2812822266e+003;4.3093588867e+003;4.2857690430e+003;4.2896152344e+003;4.2870512695e+003;4.2729487305e+003;
6.4843750000e-001;5.3008974609e+003;4.3410258789e+003;4.2707690430e+003;4.2691025391e+003;4.2673076172e+003;4.2346152344e+003;4.2480771484e+003;4.2705126953e+003;4.2771796875e+003;4.3051284180e+003;4.2807690430e+003;4.2833334961e+003;4.2824360352e+003;4.2679487305e+003;
6.5625000000e-001;5.3165385742e+003;4.3812822266e+003;4.3080771484e+003;4.3046152344e+003;4.3050000000e+003;4.2665385742e+003;4.2834614258e+003;4.3058974609e+003;4.3179487305e+003;4.3429487305e+003;4.3180771484e+003;4.3158974609e+003;4.3182050781e+003;4.3016665039e+003;
6.6406250000e-001;5.3023076172e+003;4.3837177734e+003;4.3120512695e+003;4.3075639648e+003;4.3050000000e+003;4.2715385742e+003;4.2861538086e+003;4.3101284180e+003;4.3251284180e+003;4.3482050781e+003;4.3212822266e+003;4.3184614258e+003;4.3189741211e+003;4.3026923828e+003;
6.7187500000e-001;5.1473076172e+003;4.2780771484e+003;4.2150000000e+003;4.2121796875e+003;4.2141025391e+003;4.1993588867e+003;4.2042309570e+003;4.2185898438e+003;4.2321796875e+003;4.2496152344e+003;4.2193588867e+003;4.2175639648e+003;4.2184614258e+003;4.2001284180e+003;
6.7968750000e-001;5.1367949219e+003;4.2817949219e+003;4.2153847656e+003;4.2153847656e+003;4.2234614258e+003;4.2074360352e+003;4.2120512695e+003;4.2217949219e+003;4.2348715820e+003;4.2526923828e+003;4.2221796875e+003;4.2187177734e+003;4.2235898438e+003;4.2033334961e+003;
6.8750000000e-001;5.0957690430e+003;4.2651284180e+003;4.1910258789e+003;4.2008974609e+003;4.2074360352e+003;4.1960258789e+003;4.1980771484e+003;4.2017949219e+003;4.2144873047e+003;4.2330771484e+003;4.2014101563e+003;4.1970512695e+003;4.2033334961e+003;4.1846152344e+003;
6.9531250000e-001;5.0593588867e+003;4.2371796875e+003;4.1606411133e+003;4.1753847656e+003;4.1782050781e+003;4.1721796875e+003;4.1732050781e+003;4.1730771484e+003;4.1847436523e+003;4.2017949219e+003;4.1697436523e+003;4.1665385742e+003;4.1708974609e+003;4.1542309570e+003;
7.0312500000e-001;5.0438461914e+003;4.2256411133e+003;4.1479487305e+003;4.1642309570e+003;4.1676923828e+003;4.1644873047e+003;4.1662822266e+003;4.1633334961e+003;4.1728203125e+003;4.1883334961e+003;4.1551284180e+003;4.1535898438e+003;4.1561538086e+003;4.1406411133e+003;
7.1093750000e-001;5.0785898438e+003;4.2979487305e+003;4.2244873047e+003;4.2333334961e+003;4.2421796875e+003;4.2346152344e+003;4.2441025391e+003;4.2375639648e+003;4.2374360352e+003;4.2543588867e+003;4.2297436523e+003;4.2335898438e+003;4.2335898438e+003;4.2241025391e+003;
7.1875000000e-001;5.0887177734e+003;4.3346152344e+003;4.2547436523e+003;4.2648715820e+003;4.2737177734e+003;4.2603847656e+003;4.2701284180e+003;4.2646152344e+003;4.2669228516e+003;4.2873076172e+003;4.2638461914e+003;4.2650000000e+003;4.2665385742e+003;4.2567949219e+003;
7.2656250000e-001;4.9205126953e+003;4.2284614258e+003;4.1557690430e+003;4.1653847656e+003;4.1641025391e+003;4.1583334961e+003;4.1617949219e+003;4.1656411133e+003;4.1706411133e+003;4.1932050781e+003;4.1610258789e+003;4.1730771484e+003;4.1651284180e+003;4.1542309570e+003;
7.3437500000e-001;4.8979487305e+003;4.2625639648e+003;4.1960258789e+003;4.2005126953e+003;4.1917949219e+003;4.1784614258e+003;4.1871796875e+003;4.1948715820e+003;4.2030771484e+003;4.2206411133e+003;4.1987177734e+003;4.2076923828e+003;4.2065385742e+003;4.1914101563e+003;
7.4218750000e-001;4.9083334961e+003;4.2771796875e+003;4.2133334961e+003;4.2155126953e+003;4.2056411133e+003;4.1893588867e+003;4.1970512695e+003;4.2091025391e+003;4.2171796875e+003;4.2339741211e+003;4.2134614258e+003;4.2243588867e+003;4.2202563477e+003;4.2074360352e+003;
7.5000000000e-001;4.9255126953e+003;4.2591025391e+003;4.1943588867e+003;4.2008974609e+003;4.1897436523e+003;4.1691025391e+003;4.1761538086e+003;4.1896152344e+003;4.1992309570e+003;4.2160258789e+003;4.1942309570e+003;4.2085898438e+003;4.2007690430e+003;4.1924360352e+003;
7.5781250000e-001;4.8289741211e+003;4.1915385742e+003;4.1193588867e+003;4.1303847656e+003;4.1183334961e+003;4.0996152344e+003;4.1037177734e+003;4.1170512695e+003;4.1296152344e+003;4.1401284180e+003;4.1167949219e+003;4.1288461914e+003;4.1276923828e+003;4.1160258789e+003;
7.6562500000e-001;4.8198715820e+003;4.1898715820e+003;4.1174360352e+003;4.1305126953e+003;4.1207690430e+003;4.1015385742e+003;4.1048715820e+003;4.1148715820e+003;4.1262822266e+003;4.1347436523e+003;4.1120512695e+003;4.1211538086e+003;4.1239741211e+003;4.1112822266e+003;
7.7343750000e-001;4.9228203125e+003;4.2633334961e+003;4.1878203125e+003;4.2047436523e+003;4.2056411133e+003;4.1841025391e+003;4.1879487305e+003;4.1953847656e+003;4.2073076172e+003;4.2152563477e+003;4.1896152344e+003;4.1938461914e+003;4.1975639648e+003;4.1870512695e+003;
7.8125000000e-001;4.9169228516e+003;4.2524360352e+003;4.1773076172e+003;4.1921796875e+003;4.1947436523e+003;4.1782050781e+003;4.1819228516e+003;4.1861538086e+003;4.1991025391e+003;4.2039741211e+003;4.1796152344e+003;4.1852563477e+003;4.1860258789e+003;4.1756411133e+003;
7.8906250000e-001;4.9107690430e+003;4.2515385742e+003;4.1765385742e+003;4.1880771484e+003;4.1935898438e+003;4.1798715820e+003;4.1835898438e+003;4.1852563477e+003;4.1976923828e+003;4.1997436523e+003;4.1773076172e+003;4.1834614258e+003;4.1832050781e+003;4.1715385742e+003;
7.9687500000e-001;4.9229487305e+003;4.2815385742e+003;4.2102563477e+003;4.2160258789e+003;4.2279487305e+003;4.2115385742e+003;4.2148715820e+003;4.2223076172e+003;4.2273076172e+003;4.2293588867e+003;4.2082050781e+003;4.2119228516e+003;4.2114101563e+003;4.1983334961e+003;
8.0468750000e-001;4.8598715820e+003;4.2128203125e+003;4.1487177734e+003;4.1571796875e+003;4.1678203125e+003;4.1600000000e+003;4.1641025391e+003;4.1651284180e+003;4.1660258789e+003;4.1662822266e+003;4.1442309570e+003;4.1493588867e+003;4.1428203125e+003;4.1328203125e+003;
8.1250000000e-001;4.8766665039e+003;4.2307690430e+003;4.1630771484e+003;4.1712822266e+003;4.1846152344e+003;4.1774360352e+003;4.1826923828e+003;4.1812822266e+003;4.1837177734e+003;4.1837177734e+003;4.1610258789e+003;4.1656411133e+003;4.1619228516e+003;4.1488461914e+003;
8.2031250000e-001;4.8997436523e+003;4.2580771484e+003;4.1875639648e+003;4.1950000000e+003;4.2098715820e+003;4.2020512695e+003;4.2071796875e+003;4.2078203125e+003;4.2112822266e+003;4.2125639648e+003;4.1885898438e+003;4.1928203125e+003;4.1925639648e+003;4.1762822266e+003;
8.2812500000e-001;4.9005126953e+003;4.2625639648e+003;4.1920512695e+003;4.1996152344e+003;4.2130771484e+003;4.2047436523e+003;4.2085898438e+003;4.2124360352e+003;4.2161538086e+003;4.2185898438e+003;4.1942309570e+003;4.1994873047e+003;4.2007690430e+003;4.1833334961e+003;
8.3593750000e-001;4.9608974609e+003;4.3185898438e+003;4.2460258789e+003;4.2467949219e+003;4.2647436523e+003;4.2452563477e+003;4.2537177734e+003;4.2517949219e+003;4.2567949219e+003;4.2621796875e+003;4.2403847656e+003;4.2523076172e+003;4.2487177734e+003;4.2328203125e+003;
8.4375000000e-001;4.9871796875e+003;4.3480771484e+003;4.2751284180e+003;4.2717949219e+003;4.2907690430e+003;4.2706411133e+003;4.2789741211e+003;4.2801284180e+003;4.2848715820e+003;4.2924360352e+003;4.2682050781e+003;4.2806411133e+003;4.2769228516e+003;4.2606411133e+003;
8.5156250000e-001;5.0044873047e+003;4.3747436523e+003;4.3020512695e+003;4.3002563477e+003;4.3138461914e+003;4.2864101563e+003;4.2970512695e+003;4.3021796875e+003;4.3087177734e+003;4.3185898438e+003;4.2938461914e+003;4.3064101563e+003;4.3052563477e+003;4.2887177734e+003;
8.5937500000e-001;4.9826923828e+003;4.3564101563e+003;4.2852563477e+003;4.2835898438e+003;4.2951284180e+003;4.2653847656e+003;4.2712822266e+003;4.2912822266e+003;4.3001284180e+003;4.3030771484e+003;4.2767949219e+003;4.2925639648e+003;4.2846152344e+003;4.2761538086e+003;
8.6718750000e-001;4.9647436523e+003;4.3492309570e+003;4.2775639648e+003;4.2737177734e+003;4.2860258789e+003;4.2569228516e+003;4.2628203125e+003;4.2814101563e+003;4.2883334961e+003;4.2892309570e+003;4.2651284180e+003;4.2823076172e+003;4.2739741211e+003;4.2685898438e+003;
8.7500000000e-001;5.0020512695e+003;4.4188461914e+003;4.3487177734e+003;4.3351284180e+003;4.3524360352e+003;4.3185898438e+003;4.3317949219e+003;4.3484614258e+003;4.3542309570e+003;4.3597436523e+003;4.3321796875e+003;4.3517949219e+003;4.3429487305e+003;4.3396152344e+003;
8.8281250000e-001;4.9969228516e+003;4.4341025391e+003;4.3625639648e+003;4.3503847656e+003;4.3748715820e+003;4.3448715820e+003;4.3571796875e+003;4.3615385742e+003;4.3641025391e+003;4.3689741211e+003;4.3476923828e+003;4.3641025391e+003;4.3578203125e+003;4.3501284180e+003;
8.9062500000e-001;5.0453847656e+003;4.5017949219e+003;4.4243588867e+003;4.4108974609e+003;4.4410258789e+003;4.4075639648e+003;4.4194873047e+003;4.4246152344e+003;4.4258974609e+003;4.4330771484e+003;4.4115385742e+003;4.4270512695e+003;4.4235898438e+003;4.4141025391e+003;
8.9843750000e-001;5.0687177734e+003;4.5452563477e+003;4.4641025391e+003;4.4489741211e+003;4.4821796875e+003;4.4483334961e+003;4.4592309570e+003;4.4689741211e+003;4.4693588867e+003;4.4789741211e+003;4.4546152344e+003;4.4701284180e+003;4.4673076172e+003;4.4574360352e+003;
9.0625000000e-001;4.9938461914e+003;4.4926923828e+003;4.4119228516e+003;4.3983334961e+003;4.4306411133e+003;4.4057690430e+003;4.4157690430e+003;4.4278203125e+003;4.4282050781e+003;4.4360258789e+003;4.4101284180e+003;4.4232050781e+003;4.4188461914e+003;4.4102563477e+003;
9.1406250000e-001;4.9584614258e+003;4.4607690430e+003;4.3798715820e+003;4.3694873047e+003;4.4016665039e+003;4.3791025391e+003;4.3893588867e+003;4.3976923828e+003;4.3993588867e+003;4.4048715820e+003;4.3815385742e+003;4.3912822266e+003;4.3879487305e+003;4.3794873047e+003;
9.2187500000e-001;4.9933334961e+003;4.5138461914e+003;4.4303847656e+003;4.4243588867e+003;4.4570512695e+003;4.4300000000e+003;4.4387177734e+003;4.4402563477e+003;4.4406411133e+003;4.4523076172e+003;4.4319228516e+003;4.4401284180e+003;4.4393588867e+003;4.4321796875e+003;
9.2968750000e-001;5.0180771484e+003;4.5482050781e+003;4.4641025391e+003;4.4574360352e+003;4.4901284180e+003;4.4598715820e+003;4.4694873047e+003;4.4706411133e+003;4.4693588867e+003;4.4835898438e+003;4.4642309570e+003;4.4726923828e+003;4.4733334961e+003;4.4643588867e+003;
9.3750000000e-001;5.0401284180e+003;4.5887177734e+003;4.5046152344e+003;4.4958974609e+003;4.5288461914e+003;4.4898715820e+003;4.5017949219e+003;4.5088461914e+003;4.5069228516e+003;4.5221796875e+003;4.5044873047e+003;4.5115385742e+003;4.5137177734e+003;4.4989741211e+003;
9.4531250000e-001;4.9975639648e+003;4.5520512695e+003;4.4712822266e+003;4.4621796875e+003;4.4911538086e+003;4.4533334961e+003;4.4638461914e+003;4.4741025391e+003;4.4723076172e+003;4.4862822266e+003;4.4693588867e+003;4.4778203125e+003;4.4773076172e+003;4.4628203125e+003;
9.5312500000e-001;4.9250000000e+003;4.4815385742e+003;4.4064101563e+003;4.3971796875e+003;4.4196152344e+003;4.3878203125e+003;4.3955126953e+003;4.4047436523e+003;4.4035898438e+003;4.4144873047e+003;4.4002563477e+003;4.4120512695e+003;4.4075639648e+003;4.3956411133e+003;
9.6093750000e-001;4.8544873047e+003;4.4176923828e+003;4.3619228516e+003;4.3444873047e+003;4.3585898438e+003;4.3247436523e+003;4.3335898438e+003;4.3407690430e+003;4.3442309570e+003;4.3487177734e+003;4.3410258789e+003;4.3667949219e+003;4.3484614258e+003;4.3530771484e+003;
9.6875000000e-001;4.8332050781e+003;4.4002563477e+003;4.3457690430e+003;4.3285898438e+003;4.3389741211e+003;4.3083334961e+003;4.3167949219e+003;4.3219228516e+003;4.3270512695e+003;4.3279487305e+003;4.3208974609e+003;4.3485898438e+003;4.3276923828e+003;4.3365385742e+003;
9.7656250000e-001;4.9361538086e+003;4.4983334961e+003;4.4356411133e+003;4.4150000000e+003;4.4273076172e+003;4.3929487305e+003;4.4008974609e+003;4.4126923828e+003;4.4216665039e+003;4.4251284180e+003;4.4165385742e+003;4.4401284180e+003;4.4276923828e+003;4.4282050781e+003;
9.8437500000e-001;4.9287177734e+003;4.4930771484e+003;4.4291025391e+003;4.4080771484e+003;4.4261538086e+003;4.3912822266e+003;4.4067949219e+003;4.4176923828e+003;4.4232050781e+003;4.4279487305e+003;4.4196152344e+003;4.4325639648e+003;4.4267949219e+003;4.4207690430e+003;
9.9218750000e-001;4.9452563477e+003;4.5182050781e+003;4.4520512695e+003;4.4307690430e+003;4.4546152344e+003;4.4171796875e+003;4.4346152344e+003;4.4442309570e+003;4.4516665039e+003;4.4543588867e+003;4.4475639648e+003;4.4564101563e+003;4.4526923828e+003;4.4471796875e+003;
1.0000000000e+000;5.0119228516e+003;4.6069228516e+003;4.5389741211e+003;4.5142309570e+003;4.5420512695e+003;4.5078203125e+003;4.5226923828e+003;4.5353847656e+003;4.5402563477e+003;4.5479487305e+003;4.5387177734e+003;4.5465385742e+003;4.5444873047e+003;4.5365385742e+003;
1.0078125000e+000;5.0529487305e+003;4.6575639648e+003;4.5874360352e+003;4.5597436523e+003;4.5894873047e+003;4.5548715820e+003;4.5714101563e+003;4.5810258789e+003;4.5823076172e+003;4.5947436523e+003;4.5824360352e+003;4.5905126953e+003;4.5910258789e+003;4.5802563477e+003;
1.0156250000e+000;5.1016665039e+003;4.7337177734e+003;4.6621796875e+003;4.6274360352e+003;4.6652563477e+003;4.6293588867e+003;4.6478203125e+003;4.6575639648e+003;4.6553847656e+003;4.6760258789e+003;4.6539741211e+003;4.6623076172e+003;4.6629487305e+003;4.6512822266e+003;
1.0234375000e+000;5.0556411133e+003;4.6992309570e+003;4.6317949219e+003;4.5970512695e+003;4.6350000000e+003;4.6032050781e+003;4.6193588867e+003;4.6316665039e+003;4.6296152344e+003;4.6500000000e+003;4.6257690430e+003;4.6351284180e+003;4.6316665039e+003;4.6232050781e+003;
1.0312500000e+000;4.9323076172e+003;4.5851284180e+003;4.5234614258e+003;4.4938461914e+003;4.5283334961e+003;4.5033334961e+003;4.5138461914e+003;4.5270512695e+003;4.5273076172e+003;4.5387177734e+003;4.5232050781e+003;4.5273076172e+003;4.5276923828e+003;4.5221796875e+003;
1.0390625000e+000;4.9398715820e+003;4.5921796875e+003;4.5302563477e+003;4.4980771484e+003;4.5326923828e+003;4.5064101563e+003;4.5160258789e+003;4.5307690430e+003;4.5308974609e+003;4.5432050781e+003;4.5279487305e+003;4.5305126953e+003;4.5352563477e+003;4.5284614258e+003;
1.0468750000e+000;4.9005126953e+003;4.5643588867e+003;4.5044873047e+003;4.4691025391e+003;4.4992309570e+003;4.4685898438e+003;4.4835898438e+003;4.4897436523e+003;4.4898715820e+003;4.5062822266e+003;4.4907690430e+003;4.5021796875e+003;4.5034614258e+003;4.4988461914e+003;
1.0546875000e+000;4.9144873047e+003;4.5852563477e+003;4.5251284180e+003;4.4893588867e+003;4.5208974609e+003;4.4861538086e+003;4.5053847656e+003;4.5096152344e+003;4.5112822266e+003;4.5266665039e+003;4.5139741211e+003;4.5250000000e+003;4.5246152344e+003;4.5208974609e+003;
1.0625000000e+000;4.9212822266e+003;4.6025639648e+003;4.5465385742e+003;4.5092309570e+003;4.5410258789e+003;4.5078203125e+003;4.5261538086e+003;4.5389741211e+003;4.5417949219e+003;4.5505126953e+003;4.5439741211e+003;4.5516665039e+003;4.5458974609e+003;4.5452563477e+003;
1.0703125000e+000;4.8926923828e+003;4.5805126953e+003;4.5261538086e+003;4.4905126953e+003;4.5201284180e+003;4.4905126953e+003;4.5047436523e+003;4.5216665039e+003;4.5230771484e+003;4.5282050781e+003;4.5242309570e+003;4.5315385742e+003;4.5243588867e+003;4.5243588867e+003;
1.0781250000e+000;4.8694873047e+003;4.5694873047e+003;4.5128203125e+003;4.4803847656e+003;4.5084614258e+003;4.4794873047e+003;4.4905126953e+003;4.5091025391e+003;4.5092309570e+003;4.5128203125e+003;4.5100000000e+003;4.5166665039e+003;4.5116665039e+003;4.5105126953e+003;
1.0859375000e+000;4.6784614258e+003;4.5030771484e+003;4.4551284180e+003;4.4178203125e+003;4.4460258789e+003;4.4234614258e+003;4.4321796875e+003;4.4455126953e+003;4.4456411133e+003;4.4512822266e+003;4.4514101563e+003;4.4565385742e+003;4.4528203125e+003;4.4511538086e+003;
1.0937500000e+000;4.6560258789e+003;4.5073076172e+003;4.4606411133e+003;4.4242309570e+003;4.4511538086e+003;4.4269228516e+003;4.4376923828e+003;4.4493588867e+003;4.4497436523e+003;4.4550000000e+003;4.4583334961e+003;4.4617949219e+003;4.4564101563e+003;4.4551284180e+003;
1.1015625000e+000;4.6064101563e+003;4.5047436523e+003;4.4496152344e+003;4.4276923828e+003;4.4488461914e+003;4.4241025391e+003;4.4347436523e+003;4.4488461914e+003;4.4533334961e+003;4.4535898438e+003;4.4492309570e+003;4.4515385742e+003;4.4496152344e+003;4.4471796875e+003;
1.1093750000e+000;4.6044873047e+003;4.5087177734e+003;4.4514101563e+003;4.4293588867e+003;4.4646152344e+003;4.4398715820e+003;4.4484614258e+003;4.4589741211e+003;4.4605126953e+003;4.4639741211e+003;4.4561538086e+003;4.4475639648e+003;4.4585898438e+003;4.4523076172e+003;
1.1171875000e+000;4.5892309570e+003;4.5020512695e+003;4.4451284180e+003;4.4226923828e+003;4.4546152344e+003;4.4317949219e+003;4.4387177734e+003;4.4508974609e+003;4.4521796875e+003;4.4578203125e+003;4.4489741211e+003;4.4392309570e+003;4.4517949219e+003;4.4465385742e+003;
1.1250000000e+000;4.5232050781e+003;4.4670512695e+003;4.4111538086e+003;4.3937177734e+003;4.4114101563e+003;4.3966665039e+003;4.4017949219e+003;4.4044873047e+003;4.4042309570e+003;4.4050000000e+003;4.3987177734e+003;4.3980771484e+003;4.4083334961e+003;4.4042309570e+003;
1.1328125000e+000;4.5416665039e+003;4.4923076172e+003;4.4374360352e+003;4.4187177734e+003;4.4400000000e+003;4.4215385742e+003;4.4273076172e+003;4.4312822266e+003;4.4289741211e+003;4.4307690430e+003;4.4235898438e+003;4.4253847656e+003;4.4333334961e+003;4.4298715820e+003;
1.1406250000e+000;4.5328203125e+003;4.4935898438e+003;4.4438461914e+003;4.4232050781e+003;4.4487177734e+003;4.4244873047e+003;4.4307690430e+003;4.4393588867e+003;4.4333334961e+003;4.4403847656e+003;4.4307690430e+003;4.4341025391e+003;4.4366665039e+003;4.4387177734e+003;
1.1484375000e+000;4.5274360352e+003;4.4898715820e+003;4.4406411133e+003;4.4207690430e+003;4.4461538086e+003;4.4201284180e+003;4.4275639648e+003;4.4347436523e+003;4.4287177734e+003;4.4373076172e+003;4.4287177734e+003;4.4303847656e+003;4.4333334961e+003;4.4360258789e+003;
1.1562500000e+000;4.5773076172e+003;4.5448715820e+003;4.4933334961e+003;4.4706411133e+003;4.4988461914e+003;4.4726923828e+003;4.4785898438e+003;4.4920512695e+003;4.4876923828e+003;4.4955126953e+003;4.4924360352e+003;4.4911538086e+003;4.4956411133e+003;4.4862822266e+003;
1.1640625000e+000;4.5411538086e+003;4.5189741211e+003;4.4694873047e+003;4.4462822266e+003;4.4737177734e+003;4.4510258789e+003;4.4548715820e+003;4.4700000000e+003;4.4652563477e+003;4.4717949219e+003;4.4715385742e+003;4.4706411133e+003;4.4735898438e+003;4.4633334961e+003;
1.1718750000e+000;4.5864101563e+003;4.4962822266e+003;4.4425639648e+003;4.4243588867e+003;4.4512822266e+003;4.4225639648e+003;4.4317949219e+003;4.4420512695e+003;4.4402563477e+003;4.4532050781e+003;4.4571796875e+003;4.4471796875e+003;4.4553847656e+003;4.4514101563e+003;
1.1796875000e+000;4.6864101563e+003;4.5033334961e+003;4.4493588867e+003;4.4310258789e+003;4.4574360352e+003;4.4278203125e+003;4.4375639648e+003;4.4489741211e+003;4.4491025391e+003;4.4641025391e+003;4.4660258789e+003;4.4546152344e+003;4.4630771484e+003;4.4605126953e+003;
1.1875000000e+000;4.7907690430e+003;4.4964101563e+003;4.4438461914e+003;4.4246152344e+003;4.4498715820e+003;4.4228203125e+003;4.4317949219e+003;4.4430771484e+003;4.4446152344e+003;4.4579487305e+003;4.4587177734e+003;4.4478203125e+003;4.4560258789e+003;4.4535898438e+003;
1.1953125000e+000;4.8926923828e+003;4.4952563477e+003;4.4430771484e+003;4.4230771484e+003;4.4479487305e+003;4.4229487305e+003;4.4321796875e+003;4.4410258789e+003;4.4434614258e+003;4.4529487305e+003;4.4541025391e+003;4.4438461914e+003;4.4529487305e+003;4.4497436523e+003;
1.2031250000e+000;5.1132050781e+003;4.5293588867e+003;4.4707690430e+003;4.4583334961e+003;4.4837177734e+003;4.4553847656e+003;4.4667949219e+003;4.4797436523e+003;4.4762822266e+003;4.4891025391e+003;4.4782050781e+003;4.4689741211e+003;4.4796152344e+003;4.4715385742e+003;
1.2109375000e+000;5.0442309570e+003;4.5489741211e+003;4.4900000000e+003;4.4785898438e+003;4.5062822266e+003;4.4756411133e+003;4.4885898438e+003;4.4941025391e+003;4.4944873047e+003;4.5011538086e+003;4.4928203125e+003;4.4846152344e+003;4.4957690430e+003;4.4887177734e+003;
1.2187500000e+000;4.9771796875e+003;4.5628203125e+003;4.5044873047e+003;4.4914101563e+003;4.5184614258e+003;4.4870512695e+003;4.4989741211e+003;4.5064101563e+003;4.5050000000e+003;4.5111538086e+003;4.5042309570e+003;4.4975639648e+003;4.5055126953e+003;4.5034614258e+003;
1.2265625000e+000;4.7289741211e+003;4.4744873047e+003;4.4253847656e+003;4.4157690430e+003;4.4400000000e+003;4.4160258789e+003;4.4225639648e+003;4.4275639648e+003;4.4116665039e+003;4.4169228516e+003;4.4173076172e+003;4.4125639648e+003;4.4171796875e+003;4.4200000000e+003;
1.2343750000e+000;4.6476923828e+003;4.5005126953e+003;4.4450000000e+003;4.4366665039e+003;4.4607690430e+003;4.4382050781e+003;4.4451284180e+003;4.4541025391e+003;4.4392309570e+003;4.4500000000e+003;4.4503847656e+003;4.4396152344e+003;4.4483334961e+003;4.4471796875e+003;
1.2421875000e+000;4.5864101563e+003;4.4801284180e+003;4.4224360352e+003;4.4142309570e+003;4.4361538086e+003;4.4165385742e+003;4.4239741211e+003;4.4321796875e+003;4.4175639648e+003;4.4273076172e+003;4.4312822266e+003;4.4192309570e+003;4.4253847656e+003;4.4251284180e+003;
1.2500000000e+000;4.5447436523e+003;4.4889741211e+003;4.4353847656e+003;4.4207690430e+003;4.4460258789e+003;4.4233334961e+003;4.4329487305e+003;4.4437177734e+003;4.4283334961e+003;4.4365385742e+003;4.4425639648e+003;4.4339741211e+003;4.4371796875e+003;4.4324360352e+003;
1.2578125000e+000;4.5371796875e+003;4.4893588867e+003;4.4392309570e+003;4.4233334961e+003;4.4458974609e+003;4.4229487305e+003;4.4316665039e+003;4.4438461914e+003;4.4293588867e+003;4.4382050781e+003;4.4434614258e+003;4.4374360352e+003;4.4394873047e+003;4.4350000000e+003;
1.2656250000e+000;4.5082050781e+003;4.4994873047e+003;4.4464101563e+003;4.4324360352e+003;4.4469228516e+003;4.4215385742e+003;4.4301284180e+003;4.4373076172e+003;4.4276923828e+003;4.4400000000e+003;4.4489741211e+003;4.4396152344e+003;4.4434614258e+003;4.4425639648e+003;
1.2734375000e+000;4.4987177734e+003;4.5132050781e+003;4.4571796875e+003;4.4437177734e+003;4.4562822266e+003;4.4291025391e+003;4.4378203125e+003;4.4447436523e+003;4.4371796875e+003;4.4519228516e+003;4.4621796875e+003;4.4492309570e+003;4.4550000000e+003;4.4548715820e+003;
1.2812500000e+000;4.4689741211e+003;4.4965385742e+003;4.4424360352e+003;4.4289741211e+003;4.4389741211e+003;4.4137177734e+003;4.4214101563e+003;4.4314101563e+003;4.4242309570e+003;4.4392309570e+003;4.4491025391e+003;4.4364101563e+003;4.4416665039e+003;4.4415385742e+003;
1.2890625000e+000;4.4091025391e+003;4.4343588867e+003;4.3873076172e+003;4.3743588867e+003;4.3798715820e+003;4.3610258789e+003;4.3666665039e+003;4.3792309570e+003;4.3717949219e+003;4.3833334961e+003;4.3921796875e+003;4.3846152344e+003;4.3864101563e+003;4.3869228516e+003;
1.2968750000e+000;4.3417949219e+003;4.3530771484e+003;4.3141025391e+003;4.3028203125e+003;4.3029487305e+003;4.2908974609e+003;4.2953847656e+003;4.3066665039e+003;4.2996152344e+003;4.3050000000e+003;4.3142309570e+003;4.3133334961e+003;4.3112822266e+003;4.3133334961e+003;
1.3046875000e+000;4.2317949219e+003;4.2533334961e+003;4.2137177734e+003;4.2125639648e+003;4.2024360352e+003;4.1951284180e+003;4.1964101563e+003;4.2024360352e+003;4.1957690430e+003;4.1934614258e+003;4.2061538086e+003;4.2070512695e+003;4.2014101563e+003;4.2137177734e+003;
1.3125000000e+000;4.1324360352e+003;4.1800000000e+003;4.1408974609e+003;4.1501284180e+003;4.1406411133e+003;4.1366665039e+003;4.1344873047e+003;4.1415385742e+003;4.1282050781e+003;4.1224360352e+003;4.1333334961e+003;4.1350000000e+003;4.1320512695e+003;4.1447436523e+003;
1.3203125000e+000;4.1179487305e+003;4.1660258789e+003;4.1248715820e+003;4.1385898438e+003;4.1283334961e+003;4.1234614258e+003;4.1212822266e+003;4.1296152344e+003;4.1187177734e+003;4.1096152344e+003;4.1194873047e+003;4.1198715820e+003;4.1169228516e+003;4.1311538086e+003;
1.3281250000e+000;4.1105126953e+003;4.1853847656e+003;4.1369228516e+003;4.1573076172e+003;4.1470512695e+003;4.1506411133e+003;4.1484614258e+003;4.1424360352e+003;4.1342309570e+003;4.1191025391e+003;4.1285898438e+003;4.1291025391e+003;4.1243588867e+003;4.1400000000e+003;
1.3359375000e+000;4.2920512695e+003;4.3819228516e+003;4.3375639648e+003;4.3392309570e+003;4.3470512695e+003;4.3419228516e+003;4.3458974609e+003;4.3471796875e+003;4.3401284180e+003;4.3350000000e+003;4.3341025391e+003;4.3302563477e+003;4.3256411133e+003;4.3326923828e+003;
1.3437500000e+000;4.2900000000e+003;4.3776923828e+003;4.3343588867e+003;4.3329487305e+003;4.3424360352e+003;4.3374360352e+003;4.3423076172e+003;4.3446152344e+003;4.3375639648e+003;4.3332050781e+003;4.3323076172e+003;4.3278203125e+003;4.3224360352e+003;4.3296152344e+003;
1.3515625000e+000;4.4010258789e+003;4.5028203125e+003;4.4498715820e+003;4.4437177734e+003;4.4619228516e+003;4.4443588867e+003;4.4576923828e+003;4.4579487305e+003;4.4444873047e+003;4.4530771484e+003;4.4551284180e+003;4.4475639648e+003;4.4494873047e+003;4.4498715820e+003;
1.3593750000e+000;4.4294873047e+003;4.5380771484e+003;4.4862822266e+003;4.4773076172e+003;4.4941025391e+003;4.4743588867e+003;4.4879487305e+003;4.4926923828e+003;4.4789741211e+003;4.4932050781e+003;4.4923076172e+003;4.4856411133e+003;4.4861538086e+003;4.4864101563e+003;
1.3671875000e+000;4.3929487305e+003;4.5041025391e+003;4.4573076172e+003;4.4456411133e+003;4.4560258789e+003;4.4397436523e+003;4.4494873047e+003;4.4544873047e+003;4.4461538086e+003;4.4585898438e+003;4.4589741211e+003;4.4557690430e+003;4.4519228516e+003;4.4556411133e+003;
1.3750000000e+000;4.3867949219e+003;4.4962822266e+003;4.4489741211e+003;4.4362822266e+003;4.4488461914e+003;4.4305126953e+003;4.4384614258e+003;4.4421796875e+003;4.4361538086e+003;4.4453847656e+003;4.4484614258e+003;4.4471796875e+003;4.4434614258e+003;4.4485898438e+003;
1.3828125000e+000;4.3708974609e+003;4.4988461914e+003;4.4514101563e+003;4.4410258789e+003;4.4567949219e+003;4.4305126953e+003;4.4347436523e+003;4.4437177734e+003;4.4334614258e+003;4.4444873047e+003;4.4498715820e+003;4.4512822266e+003;4.4473076172e+003;4.4569228516e+003;
1.3906250000e+000;4.3521796875e+003;4.4966665039e+003;4.4474360352e+003;4.4408974609e+003;4.4546152344e+003;4.4280771484e+003;4.4333334961e+003;4.4406411133e+003;4.4305126953e+003;4.4408974609e+003;4.4489741211e+003;4.4457690430e+003;4.4444873047e+003;4.4524360352e+003;
1.3984375000e+000;4.3508974609e+003;4.5110258789e+003;4.4576923828e+003;4.4539741211e+003;4.4675639648e+003;4.4402563477e+003;4.4467949219e+003;4.4532050781e+003;4.4457690430e+003;4.4535898438e+003;4.4642309570e+003;4.4547436523e+003;4.4583334961e+003;4.4621796875e+003;
1.4062500000e+000;4.3569228516e+003;4.5248715820e+003;4.4682050781e+003;4.4651284180e+003;4.4794873047e+003;4.4523076172e+003;4.4587177734e+003;4.4679487305e+003;4.4630771484e+003;4.4679487305e+003;4.4791025391e+003;4.4656411133e+003;4.4726923828e+003;4.4728203125e+003;
1.4140625000e+000;4.3885898438e+003;4.5074360352e+003;4.4608974609e+003;4.4502563477e+003;4.4624360352e+003;4.4373076172e+003;4.4524360352e+003;4.4625639648e+003;4.4537177734e+003;4.4515385742e+003;4.4639741211e+003;4.4551284180e+003;4.4534614258e+003;4.4588461914e+003;
1.4218750000e+000;4.3970512695e+003;4.5494873047e+003;4.4935898438e+003;4.4860258789e+003;4.5070512695e+003;4.4838461914e+003;4.4952563477e+003;4.5128203125e+003;4.5029487305e+003;4.5075639648e+003;4.5064101563e+003;4.5007690430e+003;4.5103847656e+003;4.4976923828e+003;
1.4296875000e+000;4.3911538086e+003;4.5419228516e+003;4.4860258789e+003;4.4802563477e+003;4.5008974609e+003;4.4798715820e+003;4.4894873047e+003;4.5056411133e+003;4.4961538086e+003;4.5003847656e+003;4.4988461914e+003;4.4897436523e+003;4.5034614258e+003;4.4902563477e+003;
1.4375000000e+000;4.4498715820e+003;4.5694873047e+003;4.5157690430e+003;4.5053847656e+003;4.5274360352e+003;4.5070512695e+003;4.5146152344e+003;4.5312822266e+003;4.5217949219e+003;4.5284614258e+003;4.5288461914e+003;4.5091025391e+003;4.5256411133e+003;4.5176923828e+003;
1.4453125000e+000;4.5735898438e+003;4.6562822266e+003;4.6062822266e+003;4.5832050781e+003;4.6132050781e+003;4.5832050781e+003;4.5978203125e+003;4.6106411133e+003;4.6015385742e+003;4.6106411133e+003;4.6079487305e+003;4.6014101563e+003;4.6088461914e+003;4.6008974609e+003;
1.4531250000e+000;4.5921796875e+003;4.6574360352e+003;4.6097436523e+003;4.5841025391e+003;4.6123076172e+003;4.5833334961e+003;4.5970512695e+003;4.6108974609e+003;4.6021796875e+003;4.6135898438e+003;4.6101284180e+003;4.6061538086e+003;4.6108974609e+003;4.6053847656e+003;
1.4609375000e+000;4.5761538086e+003;4.5978203125e+003;4.5528203125e+003;4.5261538086e+003;4.5480771484e+003;4.5266665039e+003;4.5361538086e+003;4.5405126953e+003;4.5312822266e+003;4.5447436523e+003;4.5487177734e+003;4.5438461914e+003;4.5483334961e+003;4.5455126953e+003;
1.4687500000e+000;4.6019228516e+003;4.6120512695e+003;4.5655126953e+003;4.5383334961e+003;4.5610258789e+003;4.5375639648e+003;4.5484614258e+003;4.5465385742e+003;4.5367949219e+003;4.5514101563e+003;4.5600000000e+003;4.5525639648e+003;4.5600000000e+003;4.5553847656e+003;
1.4765625000e+000;4.7116665039e+003;4.6943588867e+003;4.6538461914e+003;4.6201284180e+003;4.6473076172e+003;4.6162822266e+003;4.6314101563e+003;4.6357690430e+003;4.6247436523e+003;4.6430771484e+003;4.6530771484e+003;4.6415385742e+003;4.6444873047e+003;4.6452563477e+003;
1.4843750000e+000;4.7074360352e+003;4.6764101563e+003;4.6375639648e+003;4.6037177734e+003;4.6323076172e+003;4.6015385742e+003;4.6153847656e+003;4.6214101563e+003;4.6115385742e+003;4.6267949219e+003;4.6378203125e+003;4.6257690430e+003;4.6262822266e+003;4.6317949219e+003;
1.4921875000e+000;4.7020512695e+003;4.6858974609e+003;4.6392309570e+003;4.6097436523e+003;4.6444873047e+003;4.6057690430e+003;4.6194873047e+003;4.6282050781e+003;4.6207690430e+003;4.6305126953e+003;4.6414101563e+003;4.6280771484e+003;4.6306411133e+003;4.6369228516e+003;
1.5000000000e+000;4.6788461914e+003;4.6908974609e+003;4.6415385742e+003;4.6150000000e+003;4.6502563477e+003;4.6098715820e+003;4.6243588867e+003;4.6362822266e+003;4.6283334961e+003;4.6360258789e+003;4.6446152344e+003;4.6320512695e+003;4.6342309570e+003;4.6383334961e+003;
1.5078125000e+000;4.5533334961e+003;4.6469228516e+003;4.6073076172e+003;4.5824360352e+003;4.6148715820e+003;4.5866665039e+003;4.6032050781e+003;4.6138461914e+003;4.6019228516e+003;4.6029487305e+003;4.6094873047e+003;4.5957690430e+003;4.5925639648e+003;4.5973076172e+003;
1.5156250000e+000;4.5326923828e+003;4.6680771484e+003;4.6288461914e+003;4.6017949219e+003;4.6370512695e+003;4.6078203125e+003;4.6252563477e+003;4.6360258789e+003;4.6247436523e+003;4.6257690430e+003;4.6324360352e+003;4.6164101563e+003;4.6138461914e+003;4.6211538086e+003;
1.5234375000e+000;4.4956411133e+003;4.6816665039e+003;4.6410258789e+003;4.6129487305e+003;4.6493588867e+003;4.6187177734e+003;4.6357690430e+003;4.6485898438e+003;4.6384614258e+003;4.6396152344e+003;4.6457690430e+003;4.6297436523e+003;4.6264101563e+003;4.6365385742e+003;
1.5312500000e+000;4.4414101563e+003;4.6691025391e+003;4.6269228516e+003;4.6006411133e+003;4.6347436523e+003;4.6046152344e+003;4.6203847656e+003;4.6339741211e+003;4.6246152344e+003;4.6251284180e+003;4.6308974609e+003;4.6176923828e+003;4.6123076172e+003;4.6237177734e+003;
1.5390625000e+000;4.4382050781e+003;4.6905126953e+003;4.6507690430e+003;4.6257690430e+003;4.6575639648e+003;4.6300000000e+003;4.6417949219e+003;4.6539741211e+003;4.6419228516e+003;4.6465385742e+003;4.6567949219e+003;4.6442309570e+003;4.6425639648e+003;4.6415385742e+003;
1.5468750000e+000;4.4851284180e+003;4.6842309570e+003;4.6479487305e+003;4.6208974609e+003;4.6528203125e+003;4.6267949219e+003;4.6392309570e+003;4.6507690430e+003;4.6385898438e+003;4.6438461914e+003;4.6556411133e+003;4.6430771484e+003;4.6415385742e+003;4.6398715820e+003;
1.5546875000e+000;5.4550000000e+003;4.6933334961e+003;4.6532050781e+003;4.6287177734e+003;4.6632050781e+003;4.6328203125e+003;4.6479487305e+003;4.6493588867e+003;4.6402563477e+003;4.6483334961e+003;4.6633334961e+003;4.6500000000e+003;4.6539741211e+003;4.6461538086e+003;
1.5625000000e+000;6.7453847656e+003;4.6467949219e+003;4.6042309570e+003;4.5823076172e+003;4.6130771484e+003;4.5864101563e+003;4.5930771484e+003;4.5998715820e+003;4.5888461914e+003;4.6006411133e+003;4.6133334961e+003;4.5980771484e+003;4.6012822266e+003;4.5920512695e+003;
1.5703125000e+000;6.9529487305e+003;4.6111538086e+003;4.5688461914e+003;4.5493588867e+003;4.5785898438e+003;4.5546152344e+003;4.5619228516e+003;4.5638461914e+003;4.5516665039e+003;4.5616665039e+003;4.5766665039e+003;4.5615385742e+003;4.5637177734e+003;4.5551284180e+003;
1.5781250000e+000;6.9230771484e+003;4.5992309570e+003;4.5550000000e+003;4.5412822266e+003;4.5700000000e+003;4.5462822266e+003;4.5517949219e+003;4.5533334961e+003;4.5398715820e+003;4.5500000000e+003;4.5642309570e+003;4.5519228516e+003;4.5480771484e+003;4.5430771484e+003;
1.5859375000e+000;7.3616665039e+003;4.5457690430e+003;4.4992309570e+003;4.4879487305e+003;4.5071796875e+003;4.4867949219e+003;4.4911538086e+003;4.4980771484e+003;4.4861538086e+003;4.4862822266e+003;4.4985898438e+003;4.4905126953e+003;4.4862822266e+003;4.4842309570e+003;
1.5937500000e+000;7.3828203125e+003;4.5411538086e+003;4.4938461914e+003;4.4838461914e+003;4.5012822266e+003;4.4817949219e+003;4.4878203125e+003;4.4976923828e+003;4.4888461914e+003;4.4830771484e+003;4.4939741211e+003;4.4871796875e+003;4.4826923828e+003;4.4811538086e+003;
1.6015625000e+000;7.2156411133e+003;4.5051284180e+003;4.4573076172e+003;4.4534614258e+003;4.4664101563e+003;4.4494873047e+003;4.4588461914e+003;4.4676923828e+003;4.4676923828e+003;4.4501284180e+003;4.4626923828e+003;4.4514101563e+003;4.4542309570e+003;4.4494873047e+003;
1.6093750000e+000;7.2983334961e+003;4.5314101563e+003;4.4816665039e+003;4.4766665039e+003;4.4903847656e+003;4.4697436523e+003;4.4796152344e+003;4.4892309570e+003;4.4901284180e+003;4.4750000000e+003;4.4870512695e+003;4.4714101563e+003;4.4812822266e+003;4.4730771484e+003;
1.6171875000e+000;7.3784614258e+003;4.5514101563e+003;4.5026923828e+003;4.4947436523e+003;4.5062822266e+003;4.4870512695e+003;4.4929487305e+003;4.5083334961e+003;4.5071796875e+003;4.4978203125e+003;4.5048715820e+003;4.4916665039e+003;4.5016665039e+003;4.4928203125e+003;
1.6250000000e+000;7.3589741211e+003;4.5306411133e+003;4.4829487305e+003;4.4761538086e+003;4.4858974609e+003;4.4702563477e+003;4.4748715820e+003;4.4885898438e+003;4.4860258789e+003;4.4752563477e+003;4.4832050781e+003;4.4743588867e+003;4.4793588867e+003;4.4738461914e+003;
1.6328125000e+000;7.3312822266e+003;4.5830771484e+003;4.5264101563e+003;4.5210258789e+003;4.5389741211e+003;4.5120512695e+003;4.5260258789e+003;4.5315385742e+003;4.5314101563e+003;4.5188461914e+003;4.5317949219e+003;4.5194873047e+003;4.5270512695e+003;4.5279487305e+003;
1.6406250000e+000;7.3007690430e+003;4.5852563477e+003;4.5298715820e+003;4.5228203125e+003;4.5400000000e+003;4.5141025391e+003;4.5276923828e+003;4.5344873047e+003;4.5352563477e+003;4.5250000000e+003;4.5346152344e+003;4.5226923828e+003;4.5321796875e+003;4.5332050781e+003;
1.6484375000e+000;7.2655126953e+003;4.5607690430e+003;4.5087177734e+003;4.5011538086e+003;4.5147436523e+003;4.4947436523e+003;4.5057690430e+003;4.5120512695e+003;4.5120512695e+003;4.5035898438e+003;4.5102563477e+003;4.5006411133e+003;4.5103847656e+003;4.5110258789e+003;
1.6562500000e+000;7.2461538086e+003;4.5424360352e+003;4.4917949219e+003;4.4851284180e+003;4.4956411133e+003;4.4810258789e+003;4.4896152344e+003;4.4943588867e+003;4.4924360352e+003;4.4848715820e+003;4.4902563477e+003;4.4824360352e+003;4.4924360352e+003;4.4915385742e+003;
1.6640625000e+000;7.2985898438e+003;4.5503847656e+003;4.5021796875e+003;4.4915385742e+003;4.5076923828e+003;4.4912822266e+003;4.4996152344e+003;4.5064101563e+003;4.4998715820e+003;4.4901284180e+003;4.4983334961e+003;4.4896152344e+003;4.4996152344e+003;4.4966665039e+003;
1.6718750000e+000;7.2869228516e+003;4.5496152344e+003;4.5025639648e+003;4.4908974609e+003;4.5074360352e+003;4.4910258789e+003;4.5005126953e+003;4.5024360352e+003;4.4958974609e+003;4.4839741211e+003;4.4967949219e+003;4.4876923828e+003;4.4982050781e+003;4.4962822266e+003;
1.6796875000e+000;7.2856411133e+003;4.6608974609e+003;4.6019228516e+003;4.5948715820e+003;4.6116665039e+003;4.5867949219e+003;4.5980771484e+003;4.6006411133e+003;4.5984614258e+003;4.5875639648e+003;4.5998715820e+003;4.5928203125e+003;4.6017949219e+003;4.6010258789e+003;
1.6875000000e+000;7.1623076172e+003;4.6284614258e+003;4.5732050781e+003;4.5623076172e+003;4.5791025391e+003;4.5601284180e+003;4.5694873047e+003;4.5741025391e+003;4.5673076172e+003;4.5557690430e+003;4.5719228516e+003;4.5616665039e+003;4.5753847656e+003;4.5725639648e+003;
1.6953125000e+000;7.1597436523e+003;4.6353847656e+003;4.5816665039e+003;4.5693588867e+003;4.5850000000e+003;4.5660258789e+003;4.5761538086e+003;4.5835898438e+003;4.5747436523e+003;4.5661538086e+003;4.5833334961e+003;4.5708974609e+003;4.5850000000e+003;4.5800000000e+003;
1.7031250000e+000;7.1569228516e+003;4.5175639648e+003;4.4650000000e+003;4.4600000000e+003;4.4638461914e+003;4.4543588867e+003;4.4619228516e+003;4.4720512695e+003;4.4703847656e+003;4.4560258789e+003;4.4729487305e+003;4.4658974609e+003;4.4651284180e+003;4.4653847656e+003;
1.7109375000e+000;7.1561538086e+003;4.5043588867e+003;4.4479487305e+003;4.4451284180e+003;4.4502563477e+003;4.4408974609e+003;4.4488461914e+003;4.4555126953e+003;4.4576923828e+003;4.4387177734e+003;4.4587177734e+003;4.4498715820e+003;4.4519228516e+003;4.4520512695e+003;
1.7187500000e+000;7.1924360352e+003;4.5302563477e+003;4.4692309570e+003;4.4655126953e+003;4.4712822266e+003;4.4616665039e+003;4.4685898438e+003;4.4785898438e+003;4.4816665039e+003;4.4614101563e+003;4.4848715820e+003;4.4682050781e+003;4.4812822266e+003;4.4780771484e+003;
1.7265625000e+000;7.1710258789e+003;4.5116665039e+003;4.4523076172e+003;4.4482050781e+003;4.4503847656e+003;4.4444873047e+003;4.4491025391e+003;4.4620512695e+003;4.4626923828e+003;4.4430771484e+003;4.4658974609e+003;4.4474360352e+003;4.4614101563e+003;4.4589741211e+003;
1.7343750000e+000;7.1167949219e+003;4.4871796875e+003;4.4294873047e+003;4.4260258789e+003;4.4260258789e+003;4.4232050781e+003;4.4266665039e+003;4.4396152344e+003;4.4378203125e+003;4.4179487305e+003;4.4392309570e+003;4.4207690430e+003;4.4325639648e+003;4.4325639648e+003;
1.7421875000e+000;7.0688461914e+003;4.4910258789e+003;4.4330771484e+003;4.4301284180e+003;4.4325639648e+003;4.4291025391e+003;4.4335898438e+003;4.4451284180e+003;4.4420512695e+003;4.4221796875e+003;4.4410258789e+003;4.4226923828e+003;4.4321796875e+003;4.4343588867e+003;
1.7500000000e+000;7.0960258789e+003;4.6089741211e+003;4.5442309570e+003;4.5407690430e+003;4.5511538086e+003;4.5380771484e+003;4.5491025391e+003;4.5597436523e+003;4.5523076172e+003;4.5456411133e+003;4.5615385742e+003;4.5384614258e+003;4.5546152344e+003;4.5503847656e+003;
1.7578125000e+000;7.1323076172e+003;4.6847436523e+003;4.6202563477e+003;4.6126923828e+003;4.6214101563e+003;4.6028203125e+003;4.6065385742e+003;4.6238461914e+003;4.6200000000e+003;4.6156411133e+003;4.6288461914e+003;4.6120512695e+003;4.6220512695e+003;4.6192309570e+003;
1.7656250000e+000;7.0221796875e+003;4.6765385742e+003;4.6123076172e+003;4.6055126953e+003;4.6160258789e+003;4.5978203125e+003;4.6016665039e+003;4.6128203125e+003;4.6096152344e+003;4.6047436523e+003;4.6216665039e+003;4.6048715820e+003;4.6146152344e+003;4.6115385742e+003;
1.7734375000e+000;6.8788461914e+003;4.7310258789e+003;4.6588461914e+003;4.6498715820e+003;4.6696152344e+003;4.6466665039e+003;4.6557690430e+003;4.6551284180e+003;4.6535898438e+003;4.6539741211e+003;4.6711538086e+003;4.6503847656e+003;4.6660258789e+003;4.6584614258e+003;
1.7812500000e+000;6.9067949219e+003;4.7516665039e+003;4.6779487305e+003;4.6660258789e+003;4.6865385742e+003;4.6653847656e+003;4.6748715820e+003;4.6752563477e+003;4.6743588867e+003;4.6769228516e+003;4.6891025391e+003;4.6680771484e+003;4.6843588867e+003;4.6767949219e+003;
1.7890625000e+000;6.9193588867e+003;4.7139741211e+003;4.6414101563e+003;4.6316665039e+003;4.6497436523e+003;4.6341025391e+003;4.6398715820e+003;4.6435898438e+003;4.6425639648e+003;4.6348715820e+003;4.6479487305e+003;4.6273076172e+003;4.6398715820e+003;4.6351284180e+003;
1.7968750000e+000;6.8773076172e+003;4.7376923828e+003;4.6607690430e+003;4.6525639648e+003;4.6761538086e+003;4.6552563477e+003;4.6611538086e+003;4.6648715820e+003;4.6648715820e+003;4.6566665039e+003;4.6721796875e+003;4.6488461914e+003;4.6623076172e+003;4.6556411133e+003;
1.8046875000e+000;6.7360258789e+003;4.7608974609e+003;4.6792309570e+003;4.6734614258e+003;4.6966665039e+003;4.6789741211e+003;4.6848715820e+003;4.6901284180e+003;4.6910258789e+003;4.6887177734e+003;4.6969228516e+003;4.6710258789e+003;4.6907690430e+003;4.6778203125e+003;
1.8125000000e+000;6.7476923828e+003;4.8058974609e+003;4.7265385742e+003;4.7137177734e+003;4.7421796875e+003;4.7165385742e+003;4.7232050781e+003;4.7414101563e+003;4.7437177734e+003;4.7378203125e+003;4.7462822266e+003;4.7107690430e+003;4.7430771484e+003;4.7300000000e+003;
1.8203125000e+000;6.7378203125e+003;4.7928203125e+003;4.7155126953e+003;4.7005126953e+003;4.7297436523e+003;4.7044873047e+003;4.7107690430e+003;4.7294873047e+003;4.7332050781e+003;4.7264101563e+003;4.7357690430e+003;4.6996152344e+003;4.7301284180e+003;4.7196152344e+003;
1.8281250000e+000;6.6712822266e+003;4.7767949219e+003;4.7014101563e+003;4.6857690430e+003;4.7137177734e+003;4.6911538086e+003;4.6987177734e+003;4.7137177734e+003;4.7176923828e+003;4.7111538086e+003;4.7211538086e+003;4.6855126953e+003;4.7142309570e+003;4.7039741211e+003;
1.8359375000e+000;6.5107690430e+003;4.8188461914e+003;4.7439741211e+003;4.7274360352e+003;4.7548715820e+003;4.7308974609e+003;4.7444873047e+003;4.7579487305e+003;4.7593588867e+003;4.7571796875e+003;4.7665385742e+003;4.7301284180e+003;4.7597436523e+003;4.7457690430e+003;
1.8437500000e+000;6.4162822266e+003;4.7776923828e+003;4.7088461914e+003;4.6869228516e+003;4.7133334961e+003;4.6901284180e+003;4.7010258789e+003;4.7250000000e+003;4.7203847656e+003;4.7155126953e+003;4.7294873047e+003;4.6985898438e+003;4.7198715820e+003;4.7134614258e+003;
1.8515625000e+000;6.3939741211e+003;4.7455126953e+003;4.6767949219e+003;4.6551284180e+003;4.6802563477e+003;4.6601284180e+003;4.6696152344e+003;4.6885898438e+003;4.6848715820e+003;4.6765385742e+003;4.6941025391e+003;4.6646152344e+003;4.6847436523e+003;4.6791025391e+003;
1.8593750000e+000;6.4021796875e+003;4.7383334961e+003;4.6683334961e+003;4.6479487305e+003;4.6721796875e+003;4.6541025391e+003;4.6632050781e+003;4.6771796875e+003;4.6755126953e+003;4.6658974609e+003;4.6847436523e+003;4.6548715820e+003;4.6757690430e+003;4.6685898438e+003;
1.8671875000e+000;6.4321796875e+003;4.7373076172e+003;4.6664101563e+003;4.6483334961e+003;4.6708974609e+003;4.6547436523e+003;4.6641025391e+003;4.6755126953e+003;4.6752563477e+003;4.6671796875e+003;4.6844873047e+003;4.6539741211e+003;4.6746152344e+003;4.6658974609e+003;
1.8750000000e+000;6.3843588867e+003;4.7139741211e+003;4.6387177734e+003;4.6332050781e+003;4.6469228516e+003;4.6341025391e+003;4.6453847656e+003;4.6473076172e+003;4.6424360352e+003;4.6434614258e+003;4.6615385742e+003;4.6306411133e+003;4.6520512695e+003;4.6407690430e+003;
1.8828125000e+000;6.3591025391e+003;4.7398715820e+003;4.6602563477e+003;4.6567949219e+003;4.6707690430e+003;4.6561538086e+003;4.6651284180e+003;4.6701284180e+003;4.6666665039e+003;4.6662822266e+003;4.6850000000e+003;4.6528203125e+003;4.6765385742e+003;4.6632050781e+003;
1.8906250000e+000;6.2362822266e+003;4.6991025391e+003;4.6212822266e+003;4.6197436523e+003;4.6317949219e+003;4.6201284180e+003;4.6246152344e+003;4.6303847656e+003;4.6278203125e+003;4.6239741211e+003;4.6416665039e+003;4.6092309570e+003;4.6343588867e+003;4.6183334961e+003;
1.8984375000e+000;6.2396152344e+003;4.7266665039e+003;4.6553847656e+003;4.6450000000e+003;4.6603847656e+003;4.6416665039e+003;4.6519228516e+003;4.6602563477e+003;4.6560258789e+003;4.6552563477e+003;4.6715385742e+003;4.6400000000e+003;4.6576923828e+003;4.6453847656e+003;
1.9062500000e+000;6.2148715820e+003;4.7143588867e+003;4.6429487305e+003;4.6344873047e+003;4.6461538086e+003;4.6308974609e+003;4.6394873047e+003;4.6502563477e+003;4.6456411133e+003;4.6412822266e+003;4.6597436523e+003;4.6280771484e+003;4.6439741211e+003;4.6332050781e+003;
1.9140625000e+000;6.2298715820e+003;4.7839741211e+003;4.7033334961e+003;4.7006411133e+003;4.7135898438e+003;4.6939741211e+003;4.7038461914e+003;4.7178203125e+003;4.7139741211e+003;4.7097436523e+003;4.7284614258e+003;4.6903847656e+003;4.7134614258e+003;4.7026923828e+003;
1.9218750000e+000;6.2211538086e+003;4.7839741211e+003;4.7065385742e+003;4.7006411133e+003;4.7151284180e+003;4.6938461914e+003;4.7041025391e+003;4.7216665039e+003;4.7171796875e+003;4.7152563477e+003;4.7321796875e+003;4.6953847656e+003;4.7157690430e+003;4.7064101563e+003;
1.9296875000e+000;6.1487177734e+003;4.7151284180e+003;4.6460258789e+003;4.6397436523e+003;4.6492309570e+003;4.6357690430e+003;4.6438461914e+003;4.6588461914e+003;4.6567949219e+003;4.6478203125e+003;4.6737177734e+003;4.6394873047e+003;4.6521796875e+003;4.6444873047e+003;
1.9375000000e+000;6.1802563477e+003;4.7391025391e+003;4.6683334961e+003;4.6626923828e+003;4.6714101563e+003;4.6588461914e+003;4.6667949219e+003;4.6811538086e+003;4.6810258789e+003;4.6716665039e+003;4.6984614258e+003;4.6625639648e+003;4.6771796875e+003;4.6674360352e+003;
1.9453125000e+000;6.1874360352e+003;4.7332050781e+003;4.6644873047e+003;4.6569228516e+003;4.6639741211e+003;4.6526923828e+003;4.6617949219e+003;4.6757690430e+003;4.6730771484e+003;4.6676923828e+003;4.6928203125e+003;4.6576923828e+003;4.6726923828e+003;4.6615385742e+003;
1.9531250000e+000;6.1534614258e+003;4.7067949219e+003;4.6394873047e+003;4.6306411133e+003;4.6385898438e+003;4.6252563477e+003;4.6370512695e+003;4.6496152344e+003;4.6432050781e+003;4.6401284180e+003;4.6664101563e+003;4.6316665039e+003;4.6461538086e+003;4.6351284180e+003;
1.9609375000e+000;6.1205126953e+003;4.6924360352e+003;4.6252563477e+003;4.6152563477e+003;4.6251284180e+003;4.6082050781e+003;4.6225639648e+003;4.6357690430e+003;4.6267949219e+003;4.6256411133e+003;4.6535898438e+003;4.6178203125e+003;4.6321796875e+003;4.6214101563e+003;
1.9687500000e+000;5.9533334961e+003;4.5907690430e+003;4.5300000000e+003;4.5334614258e+003;4.5310258789e+003;4.5306411133e+003;4.5367949219e+003;4.5467949219e+003;4.5433334961e+003;4.5229487305e+003;4.5596152344e+003;4.5246152344e+003;4.5311538086e+003;4.5323076172e+003;
1.9765625000e+000;5.9741025391e+003;4.6147436523e+003;4.5479487305e+003;4.5529487305e+003;4.5521796875e+003;4.5462822266e+003;4.5546152344e+003;4.5648715820e+003;4.5616665039e+003;4.5416665039e+003;4.5780771484e+003;4.5397436523e+003;4.5489741211e+003;4.5492309570e+003;
1.9843750000e+000;5.9383334961e+003;4.5474360352e+003;4.4873076172e+003;4.4871796875e+003;4.4792309570e+003;4.4757690430e+003;4.4842309570e+003;4.4906411133e+003;4.4874360352e+003;4.4653847656e+003;4.5038461914e+003;4.4680771484e+003;4.4766665039e+003;4.4770512695e+003;
1.9921875000e+000;6.0258974609e+003;4.6878203125e+003;4.6220512695e+003;4.6194873047e+003;4.6179487305e+003;4.6066665039e+003;4.6137177734e+003;4.6212822266e+003;4.6198715820e+003;4.6023076172e+003;4.6380771484e+003;4.5996152344e+003;4.6138461914e+003;4.6102563477e+003;
2.0000000000e+000;6.0148715820e+003;4.7074360352e+003;4.6370512695e+003;4.6367949219e+003;4.6370512695e+003;4.6225639648e+003;4.6305126953e+003;4.6414101563e+003;4.6405126953e+003;4.6270512695e+003;4.6584614258e+003;4.6162822266e+003;4.6335898438e+003;4.6282050781e+003;
2.0078125000e+000;5.9732050781e+003;4.6821796875e+003;4.6094873047e+003;4.6070512695e+003;4.6121796875e+003;4.5962822266e+003;4.6051284180e+003;4.6146152344e+003;4.6161538086e+003;4.6000000000e+003;4.6305126953e+003;4.5842309570e+003;4.6094873047e+003;4.5958974609e+003;
2.0156250000e+000;5.9789741211e+003;4.6919228516e+003;4.6208974609e+003;4.6157690430e+003;4.6207690430e+003;4.6061538086e+003;4.6124360352e+003;4.6250000000e+003;4.6266665039e+003;4.6080771484e+003;4.6375639648e+003;4.5944873047e+003;4.6182050781e+003;4.6030771484e+003;
2.0234375000e+000;5.9584614258e+003;4.7341025391e+003;4.6603847656e+003;4.6576923828e+003;4.6606411133e+003;4.6458974609e+003;4.6506411133e+003;4.6643588867e+003;4.6667949219e+003;4.6496152344e+003;4.6752563477e+003;4.6341025391e+003;4.6548715820e+003;4.6424360352e+003;
2.0312500000e+000;5.9584614258e+003;4.7852563477e+003;4.7060258789e+003;4.7055126953e+003;4.7107690430e+003;4.6914101563e+003;4.6985898438e+003;4.7103847656e+003;4.7143588867e+003;4.7015385742e+003;4.7260258789e+003;4.6805126953e+003;4.7041025391e+003;4.6937177734e+003;
2.0390625000e+000;5.9625639648e+003;4.8639741211e+003;4.7833334961e+003;4.7765385742e+003;4.7920512695e+003;4.7684614258e+003;4.7765385742e+003;4.7923076172e+003;4.7926923828e+003;4.7884614258e+003;4.8165385742e+003;4.7633334961e+003;4.7916665039e+003;4.7805126953e+003;
2.0468750000e+000;5.9535898438e+003;4.8517949219e+003;4.7751284180e+003;4.7643588867e+003;4.7814101563e+003;4.7596152344e+003;4.7675639648e+003;4.7824360352e+003;4.7794873047e+003;4.7747436523e+003;4.8053847656e+003;4.7535898438e+003;4.7807690430e+003;4.7671796875e+003;
2.0546875000e+000;5.9523076172e+003;4.8589741211e+003;4.7834614258e+003;4.7697436523e+003;4.7884614258e+003;4.7650000000e+003;4.7746152344e+003;4.7880771484e+003;4.7828203125e+003;4.7789741211e+003;4.8103847656e+003;4.7594873047e+003;4.7856411133e+003;4.7711538086e+003;
2.0625000000e+000;5.9371796875e+003;4.8770512695e+003;4.8002563477e+003;4.7848715820e+003;4.8043588867e+003;4.7774360352e+003;4.7888461914e+003;4.8026923828e+003;4.7965385742e+003;4.7955126953e+003;4.8251284180e+003;4.7750000000e+003;4.7992309570e+003;4.7871796875e+003;
2.0703125000e+000;5.6570512695e+003;4.7955126953e+003;4.7226923828e+003;4.7065385742e+003;4.7156411133e+003;4.6966665039e+003;4.7035898438e+003;4.7084614258e+003;4.7064101563e+003;4.7011538086e+003;4.7371796875e+003;4.6919228516e+003;4.7119228516e+003;4.7153847656e+003;
2.0781250000e+000;5.6644873047e+003;4.8235898438e+003;4.7532050781e+003;4.7343588867e+003;4.7458974609e+003;4.7247436523e+003;4.7321796875e+003;4.7393588867e+003;4.7365385742e+003;4.7321796875e+003;4.7688461914e+003;4.7226923828e+003;4.7460258789e+003;4.7475639648e+003;
2.0859375000e+000;5.4938461914e+003;4.7487177734e+003;4.6897436523e+003;4.6717949219e+003;4.6819228516e+003;4.6701284180e+003;4.6739741211e+003;4.6929487305e+003;4.6860258789e+003;4.6802563477e+003;4.7108974609e+003;4.6657690430e+003;4.6837177734e+003;4.6867949219e+003;
2.0937500000e+000;5.4051284180e+003;4.7184614258e+003;4.6510258789e+003;4.6389741211e+003;4.6515385742e+003;4.6438461914e+003;4.6511538086e+003;4.6623076172e+003;4.6582050781e+003;4.6412822266e+003;4.6741025391e+003;4.6296152344e+003;4.6451284180e+003;4.6453847656e+003;
2.1015625000e+000;5.4021796875e+003;4.7282050781e+003;4.6597436523e+003;4.6476923828e+003;4.6606411133e+003;4.6516665039e+003;4.6601284180e+003;4.6741025391e+003;4.6675639648e+003;4.6538461914e+003;4.6844873047e+003;4.6402563477e+003;4.6558974609e+003;4.6544873047e+003;
2.1093750000e+000;5.3115385742e+003;4.7269228516e+003;4.6605126953e+003;4.6510258789e+003;4.6587177734e+003;4.6457690430e+003;4.6578203125e+003;4.6720512695e+003;4.6611538086e+003;4.6533334961e+003;4.6830771484e+003;4.6357690430e+003;4.6587177734e+003;4.6576923828e+003;
2.1171875000e+000;5.2452563477e+003;4.7148715820e+003;4.6447436523e+003;4.6393588867e+003;4.6438461914e+003;4.6365385742e+003;4.6460258789e+003;4.6566665039e+003;4.6462822266e+003;4.6355126953e+003;4.6616665039e+003;4.6185898438e+003;4.6411538086e+003;4.6417949219e+003;
2.1250000000e+000;5.2408974609e+003;4.7428203125e+003;4.6660258789e+003;4.6632050781e+003;4.6721796875e+003;4.6620512695e+003;4.6721796875e+003;4.6798715820e+003;4.6691025391e+003;4.6612822266e+003;4.6855126953e+003;4.6417949219e+003;4.6667949219e+003;4.6646152344e+003;
2.1328125000e+000;5.2910258789e+003;4.8634614258e+003;4.7778203125e+003;4.7748715820e+003;4.7910258789e+003;4.7664101563e+003;4.7783334961e+003;4.7916665039e+003;4.7848715820e+003;4.7829487305e+003;4.8037177734e+003;4.7548715820e+003;4.7879487305e+003;4.7797436523e+003;
2.1406250000e+000;5.2687177734e+003;4.8466665039e+003;4.7647436523e+003;4.7610258789e+003;4.7737177734e+003;4.7517949219e+003;4.7625639648e+003;4.7739741211e+003;4.7665385742e+003;4.7625639648e+003;4.7843588867e+003;4.7389741211e+003;4.7697436523e+003;4.7632050781e+003;
2.1484375000e+000;5.2244873047e+003;4.8541025391e+003;4.7733334961e+003;4.7661538086e+003;4.7800000000e+003;4.7597436523e+003;4.7698715820e+003;4.7753847656e+003;4.7656411133e+003;4.7617949219e+003;4.7838461914e+003;4.7458974609e+003;4.7706411133e+003;4.7643588867e+003;
2.1562500000e+000;5.2253847656e+003;4.8696152344e+003;4.7880771484e+003;4.7779487305e+003;4.7934614258e+003;4.7724360352e+003;4.7815385742e+003;4.7897436523e+003;4.7817949219e+003;4.7797436523e+003;4.8001284180e+003;4.7644873047e+003;4.7857690430e+003;4.7797436523e+003;
2.1640625000e+000;5.2324360352e+003;4.8505126953e+003;4.7707690430e+003;4.7585898438e+003;4.7712822266e+003;4.7525639648e+003;4.7594873047e+003;4.7717949219e+003;4.7678203125e+003;4.7653847656e+003;4.7851284180e+003;4.7516665039e+003;4.7692309570e+003;4.7660258789e+003;
2.1718750000e+000;5.2114101563e+003;4.7511538086e+003;4.6796152344e+003;4.6685898438e+003;4.6702563477e+003;4.6592309570e+003;4.6642309570e+003;4.6760258789e+003;4.6769228516e+003;4.6670512695e+003;4.6935898438e+003;4.6610258789e+003;4.6779487305e+003;4.6829487305e+003;
2.1796875000e+000;5.1335898438e+003;4.7400000000e+003;4.6707690430e+003;4.6606411133e+003;4.6616665039e+003;4.6506411133e+003;4.6567949219e+003;4.6667949219e+003;4.6661538086e+003;4.6541025391e+003;4.6841025391e+003;4.6489741211e+003;4.6698715820e+003;4.6757690430e+003;
2.1875000000e+000;4.9643588867e+003;4.7532050781e+003;4.6848715820e+003;4.6753847656e+003;4.6784614258e+003;4.6658974609e+003;4.6733334961e+003;4.6847436523e+003;4.6803847656e+003;4.6688461914e+003;4.6987177734e+003;4.6619228516e+003;4.6856411133e+003;4.6902563477e+003;
2.1953125000e+000;3.9050000000e+003;4.6484614258e+003;4.5826923828e+003;4.5852563477e+003;4.5798715820e+003;4.5737177734e+003;4.5793588867e+003;4.5984614258e+003;4.5911538086e+003;4.5700000000e+003;4.5998715820e+003;4.5648715820e+003;4.5835898438e+003;4.5855126953e+003;
2.2031250000e+000;3.8397436523e+003;4.6351284180e+003;4.5691025391e+003;4.5724360352e+003;4.5647436523e+003;4.5624360352e+003;4.5644873047e+003;4.5856411133e+003;4.5770512695e+003;4.5542309570e+003;4.5871796875e+003;4.5498715820e+003;4.5698715820e+003;4.5738461914e+003;
2.2109375000e+000;3.6097436523e+003;4.5484614258e+003;4.4843588867e+003;4.4917949219e+003;4.4776923828e+003;4.4884614258e+003;4.4887177734e+003;4.5060258789e+003;4.4908974609e+003;4.4698715820e+003;4.5030771484e+003;4.4664101563e+003;4.4878203125e+003;4.4952563477e+003;
2.2187500000e+000;3.4885898438e+003;4.4716665039e+003;4.4157690430e+003;4.4261538086e+003;4.4071796875e+003;4.4208974609e+003;4.4223076172e+003;4.4342309570e+003;4.4232050781e+003;4.3971796875e+003;4.4282050781e+003;4.3948715820e+003;4.4115385742e+003;4.4242309570e+003;
2.2265625000e+000;3.4250000000e+003;4.4614101563e+003;4.4066665039e+003;4.4182050781e+003;4.3982050781e+003;4.4128203125e+003;4.4120512695e+003;4.4207690430e+003;4.4094873047e+003;4.3810258789e+003;4.4147436523e+003;4.3825639648e+003;4.3997436523e+003;4.4126923828e+003;
2.2343750000e+000;3.2555129395e+003;4.4928203125e+003;4.4396152344e+003;4.4515385742e+003;4.4289741211e+003;4.4388461914e+003;4.4365385742e+003;4.4520512695e+003;4.4376923828e+003;4.4155126953e+003;4.4491025391e+003;4.4205126953e+003;4.4369228516e+003;4.4537177734e+003;
2.2421875000e+000;3.1712819824e+003;4.4464101563e+003;4.3978203125e+003;4.4108974609e+003;4.3832050781e+003;4.3964101563e+003;4.3939741211e+003;4.4091025391e+003;4.3944873047e+003;4.3733334961e+003;4.4071796875e+003;4.3803847656e+003;4.3920512695e+003;4.4134614258e+003;
2.2500000000e+000;3.0521794434e+003;4.3792309570e+003;4.3375639648e+003;4.3519228516e+003;4.3216665039e+003;4.3355126953e+003;4.3355126953e+003;4.3385898438e+003;4.3270512695e+003;4.3026923828e+003;4.3411538086e+003;4.3146152344e+003;4.3241025391e+003;4.3482050781e+003;
2.2578125000e+000;3.0292307129e+003;4.3884614258e+003;4.3479487305e+003;4.3612822266e+003;4.3343588867e+003;4.3444873047e+003;4.3452563477e+003;4.3453847656e+003;4.3371796875e+003;4.3111538086e+003;4.3500000000e+003;4.3230771484e+003;4.3347436523e+003;4.3555126953e+003;
2.2656250000e+000;2.8534614258e+003;4.3583334961e+003;4.3174360352e+003;4.3343588867e+003;4.3052563477e+003;4.3216665039e+003;4.3164101563e+003;4.3188461914e+003;4.3166665039e+003;4.2843588867e+003;4.3257690430e+003;4.2980771484e+003;4.3100000000e+003;4.3230771484e+003;
2.2734375000e+000;2.8278205566e+003;4.4144873047e+003;4.3721796875e+003;4.3887177734e+003;4.3646152344e+003;4.3752563477e+003;4.3721796875e+003;4.3792309570e+003;4.3747436523e+003;4.3464101563e+003;4.3788461914e+003;4.3530771484e+003;4.3667949219e+003;4.3830771484e+003;
2.2812500000e+000;2.8153845215e+003;4.4220512695e+003;4.3817949219e+003;4.3974360352e+003;4.3748715820e+003;4.3850000000e+003;4.3823076172e+003;4.3898715820e+003;4.3835898438e+003;4.3555126953e+003;4.3861538086e+003;4.3621796875e+003;4.3760258789e+003;4.3920512695e+003;
2.2890625000e+000;2.7993588867e+003;4.4396152344e+003;4.3987177734e+003;4.4146152344e+003;4.3935898438e+003;4.4028203125e+003;4.4006411133e+003;4.4070512695e+003;4.3991025391e+003;4.3693588867e+003;4.4026923828e+003;4.3787177734e+003;4.3939741211e+003;4.4074360352e+003;
2.2968750000e+000;2.8224357910e+003;4.5550000000e+003;4.5051284180e+003;4.5210258789e+003;4.5044873047e+003;4.5053847656e+003;4.5050000000e+003;4.5150000000e+003;4.5076923828e+003;4.4779487305e+003;4.5146152344e+003;4.4882050781e+003;4.5076923828e+003;4.5137177734e+003;
2.3046875000e+000;2.8300000000e+003;4.5943588867e+003;4.5426923828e+003;4.5571796875e+003;4.5405126953e+003;4.5394873047e+003;4.5393588867e+003;4.5542309570e+003;4.5482050781e+003;4.5214101563e+003;4.5534614258e+003;4.5284614258e+003;4.5469228516e+003;4.5525639648e+003;
2.3125000000e+000;2.8134614258e+003;4.5865385742e+003;4.5369228516e+003;4.5494873047e+003;4.5315385742e+003;4.5321796875e+003;4.5323076172e+003;4.5488461914e+003;4.5433334961e+003;4.5191025391e+003;4.5455126953e+003;4.5233334961e+003;4.5398715820e+003;4.5476923828e+003;
2.3203125000e+000;2.8138461914e+003;4.5423076172e+003;4.5005126953e+003;4.5128203125e+003;4.4937177734e+003;4.4987177734e+003;4.4988461914e+003;4.5079487305e+003;4.5007690430e+003;4.4737177734e+003;4.5074360352e+003;4.4805126953e+003;4.5005126953e+003;4.5103847656e+003;
2.3281250000e+000;2.7958974609e+003;4.5215385742e+003;4.4828203125e+003;4.4962822266e+003;4.4744873047e+003;4.4800000000e+003;4.4812822266e+003;4.4875639648e+003;4.4807690430e+003;4.4526923828e+003;4.4860258789e+003;4.4616665039e+003;4.4812822266e+003;4.4900000000e+003;
2.3359375000e+000;2.9082050781e+003;4.5421796875e+003;4.4971796875e+003;4.5129487305e+003;4.4941025391e+003;4.4946152344e+003;4.4991025391e+003;4.5008974609e+003;4.4924360352e+003;4.4724360352e+003;4.5065385742e+003;4.4797436523e+003;4.5061538086e+003;4.5148715820e+003;
2.3437500000e+000;2.8139743652e+003;4.4510258789e+003;4.4107690430e+003;4.4307690430e+003;4.4020512695e+003;4.4142309570e+003;4.4114101563e+003;4.4092309570e+003;4.4002563477e+003;4.3812822266e+003;4.4203847656e+003;4.3944873047e+003;4.4135898438e+003;4.4235898438e+003;
2.3515625000e+000;2.7758974609e+003;4.4476923828e+003;4.4096152344e+003;4.4266665039e+003;4.3985898438e+003;4.4080771484e+003;4.4065385742e+003;4.4050000000e+003;4.3970512695e+003;4.3787177734e+003;4.4143588867e+003;4.3898715820e+003;4.4080771484e+003;4.4170512695e+003;
2.3593750000e+000;2.7717949219e+003;4.3834614258e+003;4.3505126953e+003;4.3706411133e+003;4.3358974609e+003;4.3487177734e+003;4.3483334961e+003;4.3507690430e+003;4.3380771484e+003;4.3166665039e+003;4.3498715820e+003;4.3287177734e+003;4.3479487305e+003;4.3550000000e+003;
2.3671875000e+000;2.8241025391e+003;4.3876923828e+003;4.3541025391e+003;4.3775639648e+003;4.3415385742e+003;4.3548715820e+003;4.3557690430e+003;4.3550000000e+003;4.3425639648e+003;4.3188461914e+003;4.3548715820e+003;4.3324360352e+003;4.3526923828e+003;4.3582050781e+003;
2.3750000000e+000;2.8624357910e+003;4.4516665039e+003;4.4175639648e+003;4.4364101563e+003;4.4064101563e+003;4.4135898438e+003;4.4175639648e+003;4.4224360352e+003;4.4120512695e+003;4.3884614258e+003;4.4212822266e+003;4.3976923828e+003;4.4143588867e+003;4.4212822266e+003;
2.3828125000e+000;2.7866667480e+003;4.4350000000e+003;4.4042309570e+003;4.4187177734e+003;4.3910258789e+003;4.3989741211e+003;4.4023076172e+003;4.4117949219e+003;4.4014101563e+003;4.3767949219e+003;4.4065385742e+003;4.3850000000e+003;4.3987177734e+003;4.4085898438e+003;
2.3906250000e+000;2.6791025391e+003;4.3446152344e+003;4.3207690430e+003;4.3367949219e+003;4.3070512695e+003;4.3250000000e+003;4.3219228516e+003;4.3230771484e+003;4.3170512695e+003;4.2852563477e+003;4.3167949219e+003;4.2952563477e+003;4.3164101563e+003;4.3278203125e+003;
2.3984375000e+000;2.7288461914e+003;4.3562822266e+003;4.3319228516e+003;4.3500000000e+003;4.3184614258e+003;4.3365385742e+003;4.3326923828e+003;4.3339741211e+003;4.3291025391e+003;4.2984614258e+003;4.3283334961e+003;4.3062822266e+003;4.3273076172e+003;4.3384614258e+003;
2.4062500000e+000;2.6893588867e+003;4.3001284180e+003;4.2761538086e+003;4.2982050781e+003;4.2611538086e+003;4.2842309570e+003;4.2801284180e+003;4.2847436523e+003;4.2762822266e+003;4.2460258789e+003;4.2725639648e+003;4.2571796875e+003;4.2678203125e+003;4.2806411133e+003;
2.4140625000e+000;2.6216667480e+003;4.2492309570e+003;4.2261538086e+003;4.2503847656e+003;4.2129487305e+003;4.2392309570e+003;4.2346152344e+003;4.2378203125e+003;4.2271796875e+003;4.1939741211e+003;4.2233334961e+003;4.2105126953e+003;4.2187177734e+003;4.2316665039e+003;
2.4218750000e+000;2.5355129395e+003;4.1700000000e+003;4.1516665039e+003;4.1808974609e+003;4.1466665039e+003;4.1757690430e+003;4.1635898438e+003;4.1592309570e+003;4.1556411133e+003;4.1143588867e+003;4.1524360352e+003;4.1337177734e+003;4.1489741211e+003;4.1603847656e+003;
2.4296875000e+000;2.5074357910e+003;4.1383334961e+003;4.1207690430e+003;4.1520512695e+003;4.1155126953e+003;4.1464101563e+003;4.1321796875e+003;4.1239741211e+003;4.1226923828e+003;4.0798718262e+003;4.1188461914e+003;4.0993588867e+003;4.1150000000e+003;4.1261538086e+003;
2.4375000000e+000;2.4794870605e+003;4.1187177734e+003;4.0992309570e+003;4.1328203125e+003;4.0939743652e+003;4.1250000000e+003;4.1111538086e+003;4.0989741211e+003;4.0975639648e+003;4.0538461914e+003;4.0947436523e+003;4.0760256348e+003;4.0910256348e+003;4.1015385742e+003;
2.4453125000e+000;2.4276923828e+003;4.0298718262e+003;4.0217949219e+003;4.0634614258e+003;4.0010256348e+003;4.0380769043e+003;4.0260256348e+003;4.0189743652e+003;4.0119230957e+003;3.9643588867e+003;4.0096154785e+003;4.0012819824e+003;4.0033332520e+003;4.0244870605e+003;
2.4531250000e+000;2.4508974609e+003;4.0353845215e+003;4.0282050781e+003;4.0700000000e+003;4.0073076172e+003;4.0415385742e+003;4.0337180176e+003;4.0266667480e+003;4.0182050781e+003;3.9700000000e+003;4.0134614258e+003;4.0046154785e+003;4.0070512695e+003;4.0284614258e+003;
2.4609375000e+000;2.3797436523e+003;3.9858974609e+003;3.9814101563e+003;4.0183332520e+003;3.9555129395e+003;3.9948718262e+003;3.9880769043e+003;3.9857692871e+003;3.9741025391e+003;3.9243588867e+003;3.9644870605e+003;3.9637180176e+003;3.9619230957e+003;3.9826923828e+003;
2.4687500000e+000;2.3105129395e+003;3.9291025391e+003;3.9262819824e+003;3.9660256348e+003;3.8996154785e+003;3.9443588867e+003;3.9338461914e+003;3.9306411133e+003;3.9202563477e+003;3.8680769043e+003;3.9102563477e+003;3.9106411133e+003;3.9079487305e+003;3.9306411133e+003;
2.4765625000e+000;2.2294870605e+003;3.8708974609e+003;3.8693588867e+003;3.9182050781e+003;3.8467949219e+003;3.8947436523e+003;3.8792307129e+003;3.8792307129e+003;3.8706411133e+003;3.8167949219e+003;3.8585898438e+003;3.8557692871e+003;3.8546154785e+003;3.8791025391e+003;
2.4843750000e+000;2.1685898438e+003;3.8024357910e+003;3.8067949219e+003;3.8560256348e+003;3.7884614258e+003;3.8414101563e+003;3.8278205566e+003;3.8202563477e+003;3.8103845215e+003;3.7497436523e+003;3.7919230957e+003;3.7961538086e+003;3.7892307129e+003;3.8174357910e+003;
2.4921875000e+000;2.1808974609e+003;3.8144870605e+003;3.8173076172e+003;3.8648718262e+003;3.8007692871e+003;3.8516667480e+003;3.8384614258e+003;3.8302563477e+003;3.8217949219e+003;3.7625642090e+003;3.8024357910e+003;3.8065385742e+003;3.8023076172e+003;3.8298718262e+003;
2.5000000000e+000;2.0965385742e+003;3.7526923828e+003;3.7593588867e+003;3.8117949219e+003;3.7411538086e+003;3.7970512695e+003;3.7829487305e+003;3.7767949219e+003;3.7650000000e+003;3.7092307129e+003;3.7435898438e+003;3.7482050781e+003;3.7456411133e+003;3.7721794434e+003;
2.5078125000e+000;2.0398718262e+003;3.7076923828e+003;3.7162819824e+003;3.7742307129e+003;3.6983332520e+003;3.7573076172e+003;3.7443588867e+003;3.7344870605e+003;3.7207692871e+003;3.6641025391e+003;3.6993588867e+003;3.7038461914e+003;3.7011538086e+003;3.7270512695e+003;
2.5156250000e+000;2.1430769043e+003;3.7312819824e+003;3.7338461914e+003;3.7955129395e+003;3.7192307129e+003;3.7760256348e+003;3.7573076172e+003;3.7469230957e+003;3.7392307129e+003;3.6789743652e+003;3.7183332520e+003;3.7214101563e+003;3.7196154785e+003;3.7484614258e+003;
2.5234375000e+000;2.1997436523e+003;3.7244870605e+003;3.7274357910e+003;3.7870512695e+003;3.7096154785e+003;3.7688461914e+003;3.7448718262e+003;3.7367949219e+003;3.7292307129e+003;3.6710256348e+003;3.7094870605e+003;3.7137180176e+003;3.7123076172e+003;3.7429487305e+003;
2.5312500000e+000;2.2456411133e+003;3.7155129395e+003;3.7193588867e+003;3.7779487305e+003;3.6984614258e+003;3.7592307129e+003;3.7334614258e+003;3.7239743652e+003;3.7150000000e+003;3.6603845215e+003;3.6975642090e+003;3.7021794434e+003;3.7033332520e+003;3.7333332520e+003;
2.5390625000e+000;2.2874357910e+003;3.7287180176e+003;3.7324357910e+003;3.7908974609e+003;3.7101281738e+003;3.7689743652e+003;3.7458974609e+003;3.7334614258e+003;3.7230769043e+003;3.6729487305e+003;3.7082050781e+003;3.7120512695e+003;3.7167949219e+003;3.7443588867e+003;
2.5468750000e+000;2.2323076172e+003;3.7108974609e+003;3.7225642090e+003;3.7769230957e+003;3.6934614258e+003;3.7500000000e+003;3.7339743652e+003;3.7247436523e+003;3.7135898438e+003;3.6592307129e+003;3.6947436523e+003;3.7041025391e+003;3.6988461914e+003;3.7362819824e+003;
2.5546875000e+000;2.2298718262e+003;3.7202563477e+003;3.7303845215e+003;3.7843588867e+003;3.7028205566e+003;3.7580769043e+003;3.7425642090e+003;3.7317949219e+003;3.7188461914e+003;3.6635898438e+003;3.7012819824e+003;3.7123076172e+003;3.7061538086e+003;3.7460256348e+003;
2.5625000000e+000;2.2156411133e+003;3.7612819824e+003;3.7714101563e+003;3.8261538086e+003;3.7441025391e+003;3.8008974609e+003;3.7850000000e+003;3.7816667480e+003;3.7642307129e+003;3.7179487305e+003;3.7505129395e+003;3.7624357910e+003;3.7611538086e+003;3.7947436523e+003;
2.5703125000e+000;2.0562819824e+003;3.5758974609e+003;3.5996154785e+003;3.6534614258e+003;3.5693588867e+003;3.6373076172e+003;3.6142307129e+003;3.6105129395e+003;3.5980769043e+003;3.5433332520e+003;3.5819230957e+003;3.5951281738e+003;3.5908974609e+003;3.6228205566e+003;
2.5781250000e+000;2.0029487305e+003;3.5380769043e+003;3.5610256348e+003;3.6171794434e+003;3.5330769043e+003;3.6025642090e+003;3.5780769043e+003;3.5730769043e+003;3.5625642090e+003;3.5064101563e+003;3.5461538086e+003;3.5607692871e+003;3.5515385742e+003;3.5865385742e+003;
2.5859375000e+000;1.8916666260e+003;3.4228205566e+003;3.4505129395e+003;3.5152563477e+003;3.4202563477e+003;3.5029487305e+003;3.4784614258e+003;3.4611538086e+003;3.4515385742e+003;3.3953845215e+003;3.4338461914e+003;3.4525642090e+003;3.4400000000e+003;3.4802563477e+003;
2.5937500000e+000;1.8421794434e+003;3.3092307129e+003;3.3511538086e+003;3.4156411133e+003;3.3082050781e+003;3.4014101563e+003;3.3756411133e+003;3.3617949219e+003;3.3564101563e+003;3.2932050781e+003;3.3312819824e+003;3.3533332520e+003;3.3430769043e+003;3.3787180176e+003;
2.6015625000e+000;1.8020512695e+003;3.2534614258e+003;3.2976923828e+003;3.3655129395e+003;3.2533332520e+003;3.3510256348e+003;3.3235898438e+003;3.3062819824e+003;3.3015385742e+003;3.2339743652e+003;3.2757692871e+003;3.2991025391e+003;3.2852563477e+003;3.3216667480e+003;
2.6093750000e+000;1.8017949219e+003;3.2794870605e+003;3.3238461914e+003;3.3911538086e+003;3.2824357910e+003;3.3684614258e+003;3.3493588867e+003;3.3284614258e+003;3.3183332520e+003;3.2501281738e+003;3.2948718262e+003;3.3164101563e+003;3.2998718262e+003;3.3364101563e+003;
2.6171875000e+000;1.7635897217e+003;3.2769230957e+003;3.3243588867e+003;3.3889743652e+003;3.2794870605e+003;3.3642307129e+003;3.3479487305e+003;3.3284614258e+003;3.3173076172e+003;3.2519230957e+003;3.2921794434e+003;3.3160256348e+003;3.2985898438e+003;3.3347436523e+003;
2.6250000000e+000;1.7001281738e+003;3.2460256348e+003;3.2937180176e+003;3.3592307129e+003;3.2450000000e+003;3.3341025391e+003;3.3165385742e+003;3.2930769043e+003;3.2835898438e+003;3.2237180176e+003;3.2588461914e+003;3.2866667480e+003;3.2688461914e+003;3.3061538086e+003;
2.6328125000e+000;1.7248718262e+003;3.2593588867e+003;3.3038461914e+003;3.3707692871e+003;3.2565385742e+003;3.3451281738e+003;3.3252563477e+003;3.3019230957e+003;3.2925642090e+003;3.2360256348e+003;3.2703845215e+003;3.2985898438e+003;3.2807692871e+003;3.3206411133e+003;
2.6406250000e+000;1.7607692871e+003;3.2761538086e+003;3.3184614258e+003;3.3860256348e+003;3.2728205566e+003;3.3593588867e+003;3.3375642090e+003;3.3176923828e+003;3.3064101563e+003;3.2526923828e+003;3.2860256348e+003;3.3152563477e+003;3.2958974609e+003;3.3392307129e+003;
2.6484375000e+000;1.7662821045e+003;3.2656411133e+003;3.3091025391e+003;3.3774357910e+003;3.2664101563e+003;3.3508974609e+003;3.3282050781e+003;3.3123076172e+003;3.2985898438e+003;3.2410256348e+003;3.2743588867e+003;3.3079487305e+003;3.2835898438e+003;3.3316667480e+003;
2.6562500000e+000;1.7525640869e+003;3.2683332520e+003;3.3103845215e+003;3.3798718262e+003;3.2717949219e+003;3.3537180176e+003;3.3330769043e+003;3.3150000000e+003;3.3042307129e+003;3.2429487305e+003;3.2770512695e+003;3.3102563477e+003;3.2867949219e+003;3.3330769043e+003;
2.6640625000e+000;1.7425640869e+003;3.2866667480e+003;3.3252563477e+003;3.3953845215e+003;3.2908974609e+003;3.3697436523e+003;3.3511538086e+003;3.3316667480e+003;3.3253845215e+003;3.2630769043e+003;3.2969230957e+003;3.3274357910e+003;3.3065385742e+003;3.3489743652e+003;
2.6718750000e+000;1.7897435303e+003;3.3641025391e+003;3.3967949219e+003;3.4682050781e+003;3.3723076172e+003;3.4478205566e+003;3.4302563477e+003;3.4144870605e+003;3.4055129395e+003;3.3476923828e+003;3.3746154785e+003;3.4006411133e+003;3.3847436523e+003;3.4157692871e+003;
2.6796875000e+000;1.8696153564e+003;3.4343588867e+003;3.4647436523e+003;3.5337180176e+003;3.4433332520e+003;3.5120512695e+003;3.4951281738e+003;3.4834614258e+003;3.4776923828e+003;3.4220512695e+003;3.4439743652e+003;3.4673076172e+003;3.4552563477e+003;3.4839743652e+003;
2.6875000000e+000;1.8430769043e+003;3.4632050781e+003;3.4914101563e+003;3.5596154785e+003;3.4702563477e+003;3.5365385742e+003;3.5235898438e+003;3.5082050781e+003;3.5107692871e+003;3.4601281738e+003;3.4753845215e+003;3.4947436523e+003;3.4858974609e+003;3.5096154785e+003;
2.6953125000e+000;1.8303846436e+003;3.5226923828e+003;3.5442307129e+003;3.6123076172e+003;3.5292307129e+003;3.5916667480e+003;3.5788461914e+003;3.5628205566e+003;3.5585898438e+003;3.5146154785e+003;3.5276923828e+003;3.5502563477e+003;3.5441025391e+003;3.5648718262e+003;
2.7031250000e+000;1.8491025391e+003;3.5364101563e+003;3.5591025391e+003;3.6253845215e+003;3.5437180176e+003;3.6050000000e+003;3.5911538086e+003;3.5735898438e+003;3.5702563477e+003;3.5257692871e+003;3.5393588867e+003;3.5597436523e+003;3.5564101563e+003;3.5776923828e+003;
2.7109375000e+000;2.0133333740e+003;3.6488461914e+003;3.6680769043e+003;3.7270512695e+003;3.6539743652e+003;3.6992307129e+003;3.6932050781e+003;3.6757692871e+003;3.6732050781e+003;3.6388461914e+003;3.6451281738e+003;3.6601281738e+003;3.6630769043e+003;3.6771794434e+003;
2.7187500000e+000;1.9130769043e+003;3.5121794434e+003;3.5330769043e+003;3.5942307129e+003;3.5147436523e+003;3.5678205566e+003;3.5558974609e+003;3.5412819824e+003;3.5358974609e+003;3.5047436523e+003;3.5079487305e+003;3.5317949219e+003;3.5334614258e+003;3.5460256348e+003;
2.7265625000e+000;1.8855128174e+003;3.5011538086e+003;3.5221794434e+003;3.5839743652e+003;3.5051281738e+003;3.5569230957e+003;3.5446154785e+003;3.5262819824e+003;3.5243588867e+003;3.4894870605e+003;3.4973076172e+003;3.5184614258e+003;3.5225642090e+003;3.5362819824e+003;
2.7343750000e+000;1.9484615479e+003;3.5442307129e+003;3.5646154785e+003;3.6275642090e+003;3.5491025391e+003;3.5989743652e+003;3.5848718262e+003;3.5764101563e+003;3.5744870605e+003;3.5380769043e+003;3.5443588867e+003;3.5617949219e+003;3.5593588867e+003;3.5760256348e+003;
2.7421875000e+000;1.9641025391e+003;3.5288461914e+003;3.5474357910e+003;3.6123076172e+003;3.5344870605e+003;3.5856411133e+003;3.5712819824e+003;3.5643588867e+003;3.5593588867e+003;3.5229487305e+003;3.5285898438e+003;3.5474357910e+003;3.5434614258e+003;3.5584614258e+003;
2.7500000000e+000;1.9902564697e+003;3.5310256348e+003;3.5464101563e+003;3.6092307129e+003;3.5389743652e+003;3.5878205566e+003;3.5741025391e+003;3.5674357910e+003;3.5642307129e+003;3.5274357910e+003;3.5326923828e+003;3.5511538086e+003;3.5491025391e+003;3.5623076172e+003;
2.7578125000e+000;1.9666666260e+003;3.5243588867e+003;3.5412819824e+003;3.6020512695e+003;3.5328205566e+003;3.5826923828e+003;3.5692307129e+003;3.5625642090e+003;3.5626923828e+003;3.5256411133e+003;3.5296154785e+003;3.5480769043e+003;3.5438461914e+003;3.5605129395e+003;
2.7656250000e+000;1.9138461914e+003;3.5007692871e+003;3.5205129395e+003;3.5810256348e+003;3.5097436523e+003;3.5629487305e+003;3.5500000000e+003;3.5415385742e+003;3.5433332520e+003;3.5064101563e+003;3.5092307129e+003;3.5280769043e+003;3.5202563477e+003;3.5417949219e+003;
2.7734375000e+000;1.8583333740e+003;3.4994870605e+003;3.5192307129e+003;3.5824357910e+003;3.5096154785e+003;3.5638461914e+003;3.5538461914e+003;3.5392307129e+003;3.5385898438e+003;3.5061538086e+003;3.5096154785e+003;3.5242307129e+003;3.5170512695e+003;3.5415385742e+003;
2.7812500000e+000;1.8837178955e+003;3.5310256348e+003;3.5497436523e+003;3.6120512695e+003;3.5410256348e+003;3.5921794434e+003;3.5820512695e+003;3.5691025391e+003;3.5666667480e+003;3.5382050781e+003;3.5419230957e+003;3.5537180176e+003;3.5488461914e+003;3.5712819824e+003;
2.7890625000e+000;1.9085897217e+003;3.5444870605e+003;3.5646154785e+003;3.6243588867e+003;3.5541025391e+003;3.6039743652e+003;3.5916667480e+003;3.5826923828e+003;3.5788461914e+003;3.5532050781e+003;3.5565385742e+003;3.5688461914e+003;3.5630769043e+003;3.5839743652e+003;
2.7968750000e+000;2.0235897217e+003;3.5553845215e+003;3.5760256348e+003;3.6329487305e+003;3.5669230957e+003;3.6097436523e+003;3.6020512695e+003;3.5876923828e+003;3.5826923828e+003;3.5634614258e+003;3.5660256348e+003;3.5876923828e+003;3.5766667480e+003;3.5974357910e+003;
2.8046875000e+000;2.0314102783e+003;3.5498718262e+003;3.5696154785e+003;3.6285898438e+003;3.5614101563e+003;3.6052563477e+003;3.5951281738e+003;3.5817949219e+003;3.5764101563e+003;3.5584614258e+003;3.5601281738e+003;3.5820512695e+003;3.5721794434e+003;3.5917949219e+003;
2.8125000000e+000;2.1382050781e+003;3.5583332520e+003;3.5741025391e+003;3.6328205566e+003;3.5694870605e+003;3.6170512695e+003;3.5997436523e+003;3.5823076172e+003;3.5794870605e+003;3.5619230957e+003;3.5601281738e+003;3.5792307129e+003;3.5742307129e+003;3.5908974609e+003;
2.8203125000e+000;2.2842307129e+003;3.5697436523e+003;3.5882050781e+003;3.6425642090e+003;3.5816667480e+003;3.6303845215e+003;3.6162819824e+003;3.6033332520e+003;3.5989743652e+003;3.5812819824e+003;3.5738461914e+003;3.5989743652e+003;3.5891025391e+003;3.6052563477e+003;
2.8281250000e+000;2.3146154785e+003;3.5943588867e+003;3.6097436523e+003;3.6656411133e+003;3.6057692871e+003;3.6498718262e+003;3.6375642090e+003;3.6256411133e+003;3.6219230957e+003;3.6044870605e+003;3.5975642090e+003;3.6224357910e+003;3.6139743652e+003;3.6253845215e+003;
2.8359375000e+000;2.4033332520e+003;3.6474357910e+003;3.6561538086e+003;3.7124357910e+003;3.6576923828e+003;3.6908974609e+003;3.6829487305e+003;3.6770512695e+003;3.6779487305e+003;3.6639743652e+003;3.6526923828e+003;3.6738461914e+003;3.6641025391e+003;3.6705129395e+003;
2.8437500000e+000;2.4948718262e+003;3.6314101563e+003;3.6443588867e+003;3.6943588867e+003;3.6484614258e+003;3.6824357910e+003;3.6747436523e+003;3.6625642090e+003;3.6593588867e+003;3.6435898438e+003;3.6348718262e+003;3.6544870605e+003;3.6471794434e+003;3.6533332520e+003;
2.8515625000e+000;2.5826923828e+003;3.6570512695e+003;3.6710256348e+003;3.7184614258e+003;3.6743588867e+003;3.7092307129e+003;3.6987180176e+003;3.6892307129e+003;3.6876923828e+003;3.6723076172e+003;3.6611538086e+003;3.6805129395e+003;3.6748718262e+003;3.6801281738e+003;
2.8593750000e+000;2.6644870605e+003;3.6660256348e+003;3.6824357910e+003;3.7280769043e+003;3.6834614258e+003;3.7220512695e+003;3.7087180176e+003;3.7005129395e+003;3.7023076172e+003;3.6860256348e+003;3.6724357910e+003;3.6915385742e+003;3.6860256348e+003;3.6912819824e+003;
2.8671875000e+000;2.7883332520e+003;3.6856411133e+003;3.7042307129e+003;3.7489743652e+003;3.7056411133e+003;3.7456411133e+003;3.7350000000e+003;3.7211538086e+003;3.7273076172e+003;3.7082050781e+003;3.6947436523e+003;3.7091025391e+003;3.7051281738e+003;3.7091025391e+003;
2.8750000000e+000;2.8160256348e+003;3.7597436523e+003;3.7742307129e+003;3.8183332520e+003;3.7779487305e+003;3.8024357910e+003;3.7956411133e+003;3.7888461914e+003;3.7942307129e+003;3.7823076172e+003;3.7598718262e+003;3.7744870605e+003;3.7728205566e+003;3.7767949219e+003;
2.8828125000e+000;2.7841025391e+003;3.7556411133e+003;3.7706411133e+003;3.8139743652e+003;3.7685898438e+003;3.7939743652e+003;3.7847436523e+003;3.7771794434e+003;3.7855129395e+003;3.7738461914e+003;3.7508974609e+003;3.7685898438e+003;3.7664101563e+003;3.7719230957e+003;
2.8906250000e+000;2.7828205566e+003;3.7679487305e+003;3.7816667480e+003;3.8235898438e+003;3.7747436523e+003;3.8003845215e+003;3.7903845215e+003;3.7796154785e+003;3.7925642090e+003;3.7798718262e+003;3.7593588867e+003;3.7787180176e+003;3.7769230957e+003;3.7824357910e+003;
2.8984375000e+000;2.8632050781e+003;3.8223076172e+003;3.8298718262e+003;3.8688461914e+003;3.8225642090e+003;3.8452563477e+003;3.8366667480e+003;3.8271794434e+003;3.8438461914e+003;3.8305129395e+003;3.8142307129e+003;3.8338461914e+003;3.8323076172e+003;3.8370512695e+003;
2.9062500000e+000;2.8896154785e+003;3.8158974609e+003;3.8221794434e+003;3.8615385742e+003;3.8176923828e+003;3.8407692871e+003;3.8319230957e+003;3.8256411133e+003;3.8396154785e+003;3.8256411133e+003;3.8101281738e+003;3.8306411133e+003;3.8273076172e+003;3.8342307129e+003;
2.9140625000e+000;2.9019230957e+003;3.7950000000e+003;3.8003845215e+003;3.8417949219e+003;3.7985898438e+003;3.8228205566e+003;3.8139743652e+003;3.8078205566e+003;3.8188461914e+003;3.8037180176e+003;3.7885898438e+003;3.8106411133e+003;3.8056411133e+003;3.8156411133e+003;
2.9218750000e+000;2.7855129395e+003;3.7732050781e+003;3.7810256348e+003;3.8180769043e+003;3.7723076172e+003;3.7948718262e+003;3.7846154785e+003;3.7792307129e+003;3.7925642090e+003;3.7801281738e+003;3.7617949219e+003;3.7887180176e+003;3.7801281738e+003;3.7933332520e+003;
2.9296875000e+000;2.7152563477e+003;3.7494870605e+003;3.7601281738e+003;3.7966667480e+003;3.7532050781e+003;3.7753845215e+003;3.7648718262e+003;3.7585898438e+003;3.7702563477e+003;3.7566667480e+003;3.7398718262e+003;3.7656411133e+003;3.7576923828e+003;3.7720512695e+003;
2.9375000000e+000;2.6200000000e+003;3.7697436523e+003;3.7758974609e+003;3.8158974609e+003;3.7798718262e+003;3.7955129395e+003;3.7906411133e+003;3.7807692871e+003;3.7978205566e+003;3.7855129395e+003;3.7652563477e+003;3.7835898438e+003;3.7828205566e+003;3.7914101563e+003;
2.9453125000e+000;2.5382050781e+003;3.7269230957e+003;3.7323076172e+003;3.7764101563e+003;3.7433332520e+003;3.7647436523e+003;3.7594870605e+003;3.7512819824e+003;3.7667949219e+003;3.7520512695e+003;3.7353845215e+003;3.7537180176e+003;3.7501281738e+003;3.7573076172e+003;
2.9531250000e+000;2.5482050781e+003;3.7396154785e+003;3.7438461914e+003;3.7867949219e+003;3.7571794434e+003;3.7761538086e+003;3.7694870605e+003;3.7656411133e+003;3.7794870605e+003;3.7669230957e+003;3.7470512695e+003;3.7664101563e+003;3.7625642090e+003;3.7698718262e+003;
2.9609375000e+000;2.5400000000e+003;3.6910256348e+003;3.6926923828e+003;3.7417949219e+003;3.7092307129e+003;3.7252563477e+003;3.7216667480e+003;3.7047436523e+003;3.7216667480e+003;3.7075642090e+003;3.6860256348e+003;3.7053845215e+003;3.7055129395e+003;3.7107692871e+003;
2.9687500000e+000;2.5688461914e+003;3.7070512695e+003;3.7073076172e+003;3.7570512695e+003;3.7251281738e+003;3.7392307129e+003;3.7366667480e+003;3.7161538086e+003;3.7352563477e+003;3.7202563477e+003;3.7012819824e+003;3.7180769043e+003;3.7211538086e+003;3.7260256348e+003;
2.9765625000e+000;2.5816667480e+003;3.7426923828e+003;3.7441025391e+003;3.7902563477e+003;3.7570512695e+003;3.7752563477e+003;3.7661538086e+003;3.7558974609e+003;3.7732050781e+003;3.7591025391e+003;3.7397436523e+003;3.7574357910e+003;3.7587180176e+003;3.7652563477e+003;
2.9843750000e+000;2.5365385742e+003;3.7298718262e+003;3.7326923828e+003;3.7778205566e+003;3.7421794434e+003;3.7650000000e+003;3.7538461914e+003;3.7462819824e+003;3.7608974609e+003;3.7470512695e+003;3.7257692871e+003;3.7465385742e+003;3.7451281738e+003;3.7526923828e+003;
2.9921875000e+000;2.5035898438e+003;3.7600000000e+003;3.7624357910e+003;3.8055129395e+003;3.7720512695e+003;3.7871794434e+003;3.7876923828e+003;3.7767949219e+003;3.7889743652e+003;3.7821794434e+003;3.7567949219e+003;3.7770512695e+003;3.7783332520e+003;3.7865385742e+003;
3.0000000000e+000;2.5030769043e+003;3.7521794434e+003;3.7567949219e+003;3.7987180176e+003;3.7632050781e+003;3.7783332520e+003;3.7794870605e+003;3.7717949219e+003;3.7839743652e+003;3.7785898438e+003;3.7532050781e+003;3.7743588867e+003;3.7734614258e+003;3.7833332520e+003;
3.0078125000e+000;2.4666667480e+003;3.6973076172e+003;3.7029487305e+003;3.7450000000e+003;3.7058974609e+003;3.7266667480e+003;3.7235898438e+003;3.7143588867e+003;3.7258974609e+003;3.7155129395e+003;3.6929487305e+003;3.7207692871e+003;3.7135898438e+003;3.7260256348e+003;
3.0156250000e+000;2.4815385742e+003;3.7134614258e+003;3.7170512695e+003;3.7585898438e+003;3.7223076172e+003;3.7414101563e+003;3.7373076172e+003;3.7257692871e+003;3.7379487305e+003;3.7258974609e+003;3.7029487305e+003;3.7317949219e+003;3.7248718262e+003;3.7366667480e+003;
3.0234375000e+000;2.4864101563e+003;3.7339743652e+003;3.7478205566e+003;3.7869230957e+003;3.7517949219e+003;3.7692307129e+003;3.7648718262e+003;3.7611538086e+003;3.7734614258e+003;3.7688461914e+003;3.7419230957e+003;3.7614101563e+003;3.7584614258e+003;3.7705129395e+003;
3.0312500000e+000;2.4497436523e+003;3.7034614258e+003;3.7197436523e+003;3.7600000000e+003;3.7239743652e+003;3.7424357910e+003;3.7398718262e+003;3.7355129395e+003;3.7457692871e+003;3.7425642090e+003;3.7198718262e+003;3.7360256348e+003;3.7343588867e+003;3.7456411133e+003;
3.0390625000e+000;2.4387180176e+003;3.7020512695e+003;3.7162819824e+003;3.7571794434e+003;3.7235898438e+003;3.7398718262e+003;3.7394870605e+003;3.7342307129e+003;3.7423076172e+003;3.7394870605e+003;3.7214101563e+003;3.7356411133e+003;3.7353845215e+003;3.7443588867e+003;
3.0468750000e+000;2.4443588867e+003;3.7007692871e+003;3.7196154785e+003;3.7582050781e+003;3.7225642090e+003;3.7461538086e+003;3.7384614258e+003;3.7267949219e+003;3.7380769043e+003;3.7298718262e+003;3.7116667480e+003;3.7316667480e+003;3.7279487305e+003;3.7397436523e+003;
3.0546875000e+000;2.4992307129e+003;3.7480769043e+003;3.7617949219e+003;3.7996154785e+003;3.7697436523e+003;3.7891025391e+003;3.7841025391e+003;3.7711538086e+003;3.7825642090e+003;3.7743588867e+003;3.7569230957e+003;3.7743588867e+003;3.7737180176e+003;3.7834614258e+003;
3.0625000000e+000;2.5189743652e+003;3.8157692871e+003;3.8189743652e+003;3.8603845215e+003;3.8380769043e+003;3.8505129395e+003;3.8489743652e+003;3.8357692871e+003;3.8464101563e+003;3.8473076172e+003;3.8247436523e+003;3.8423076172e+003;3.8397436523e+003;3.8398718262e+003;
3.0703125000e+000;2.5624357910e+003;3.8225642090e+003;3.8264101563e+003;3.8706411133e+003;3.8442307129e+003;3.8543588867e+003;3.8487180176e+003;3.8405129395e+003;3.8521794434e+003;3.8485898438e+003;3.8282050781e+003;3.8457692871e+003;3.8407692871e+003;3.8451281738e+003;
3.0781250000e+000;2.5773076172e+003;3.7966667480e+003;3.8019230957e+003;3.8461538086e+003;3.8189743652e+003;3.8303845215e+003;3.8219230957e+003;3.8167949219e+003;3.8287180176e+003;3.8202563477e+003;3.8010256348e+003;3.8208974609e+003;3.8141025391e+003;3.8212819824e+003;
3.0859375000e+000;2.5983332520e+003;3.7828205566e+003;3.7858974609e+003;3.8337180176e+003;3.8062819824e+003;3.8137180176e+003;3.8079487305e+003;3.7951281738e+003;3.8100000000e+003;3.8023076172e+003;3.7861538086e+003;3.8041025391e+003;3.8016667480e+003;3.8035898438e+003;
3.0937500000e+000;2.5956411133e+003;3.7917949219e+003;3.7958974609e+003;3.8425642090e+003;3.8142307129e+003;3.8207692871e+003;3.8160256348e+003;3.8035898438e+003;3.8182050781e+003;3.8124357910e+003;3.7976923828e+003;3.8141025391e+003;3.8096154785e+003;3.8123076172e+003;
3.1015625000e+000;2.5848718262e+003;3.7801281738e+003;3.7923076172e+003;3.8355129395e+003;3.8043588867e+003;3.8123076172e+003;3.8074357910e+003;3.7964101563e+003;3.8079487305e+003;3.8008974609e+003;3.7893588867e+003;3.8058974609e+003;3.7967949219e+003;3.8025642090e+003;
3.1093750000e+000;2.6215385742e+003;3.8032050781e+003;3.8170512695e+003;3.8593588867e+003;3.8292307129e+003;3.8344870605e+003;3.8307692871e+003;3.8202563477e+003;3.8317949219e+003;3.8243588867e+003;3.8126923828e+003;3.8284614258e+003;3.8219230957e+003;3.8248718262e+003;
3.1171875000e+000;2.6916667480e+003;3.8705129395e+003;3.8823076172e+003;3.9194870605e+003;3.8906411133e+003;3.8929487305e+003;3.8912819824e+003;3.8869230957e+003;3.9023076172e+003;3.8996154785e+003;3.8838461914e+003;3.9005129395e+003;3.8947436523e+003;3.8894870605e+003;
3.1250000000e+000;2.6670512695e+003;3.8673076172e+003;3.8793588867e+003;3.9142307129e+003;3.8851281738e+003;3.8885898438e+003;3.8880769043e+003;3.8803845215e+003;3.8943588867e+003;3.8947436523e+003;3.8810256348e+003;3.8978205566e+003;3.8892307129e+003;3.8856411133e+003;
3.1328125000e+000;2.6834614258e+003;3.9335898438e+003;3.9456411133e+003;3.9750000000e+003;3.9547436523e+003;3.9475642090e+003;3.9523076172e+003;3.9411538086e+003;3.9508974609e+003;3.9624357910e+003;3.9492307129e+003;3.9637180176e+003;3.9542307129e+003;3.9538461914e+003;
3.1406250000e+000;2.6893588867e+003;3.9561538086e+003;3.9705129395e+003;3.9976923828e+003;3.9807692871e+003;3.9698718262e+003;3.9752563477e+003;3.9674357910e+003;3.9764101563e+003;3.9916667480e+003;3.9755129395e+003;3.9903845215e+003;3.9806411133e+003;3.9806411133e+003;
3.1484375000e+000;2.6353845215e+003;3.8828205566e+003;3.9021794434e+003;3.9307692871e+003;3.9094870605e+003;3.9103845215e+003;3.9106411133e+003;3.8983332520e+003;3.9133332520e+003;3.9194870605e+003;3.9042307129e+003;3.9215385742e+003;3.9156411133e+003;3.9061538086e+003;
3.1562500000e+000;2.6882050781e+003;3.9147436523e+003;3.9302563477e+003;3.9582050781e+003;3.9398718262e+003;3.9389743652e+003;3.9378205566e+003;3.9239743652e+003;3.9394870605e+003;3.9473076172e+003;3.9321794434e+003;3.9478205566e+003;3.9453845215e+003;3.9328205566e+003;
3.1640625000e+000;2.7543588867e+003;3.9605129395e+003;3.9735898438e+003;3.9998718262e+003;3.9852563477e+003;3.9805129395e+003;3.9779487305e+003;3.9660256348e+003;3.9793588867e+003;3.9933332520e+003;3.9760256348e+003;3.9901281738e+003;3.9887180176e+003;3.9773076172e+003;
3.1718750000e+000;2.7932050781e+003;3.9837180176e+003;3.9974357910e+003;4.0221794434e+003;4.0096154785e+003;4.0029487305e+003;3.9997436523e+003;3.9897436523e+003;3.9993588867e+003;4.0193588867e+003;3.9996154785e+003;4.0133332520e+003;4.0105129395e+003;4.0034614258e+003;
3.1796875000e+000;2.7523076172e+003;3.9785898438e+003;3.9871794434e+003;4.0132050781e+003;4.0053845215e+003;3.9982050781e+003;4.0001281738e+003;3.9905129395e+003;3.9970512695e+003;4.0132050781e+003;3.9932050781e+003;4.0067949219e+003;4.0020512695e+003;3.9980769043e+003;
3.1875000000e+000;2.6817949219e+003;3.8338461914e+003;3.8469230957e+003;3.8837180176e+003;3.8629487305e+003;3.8661538086e+003;3.8601281738e+003;3.8501281738e+003;3.8560256348e+003;3.8706411133e+003;3.8516667480e+003;3.8648718262e+003;3.8614101563e+003;3.8587180176e+003;
3.1953125000e+000;2.7180769043e+003;3.8417949219e+003;3.8548718262e+003;3.8908974609e+003;3.8716667480e+003;3.8733332520e+003;3.8697436523e+003;3.8608974609e+003;3.8683332520e+003;3.8835898438e+003;3.8651281738e+003;3.8750000000e+003;3.8724357910e+003;3.8710256348e+003;
3.2031250000e+000;2.7510256348e+003;3.8067949219e+003;3.8223076172e+003;3.8584614258e+003;3.8366667480e+003;3.8403845215e+003;3.8394870605e+003;3.8352563477e+003;3.8405129395e+003;3.8556411133e+003;3.8373076172e+003;3.8479487305e+003;3.8408974609e+003;3.8467949219e+003;
3.2109375000e+000;2.7917949219e+003;3.7843588867e+003;3.8002563477e+003;3.8380769043e+003;3.8134614258e+003;3.8182050781e+003;3.8175642090e+003;3.8139743652e+003;3.8166667480e+003;3.8300000000e+003;3.8141025391e+003;3.8266667480e+003;3.8188461914e+003;3.8261538086e+003;
3.2187500000e+000;2.9573076172e+003;3.7597436523e+003;3.7756411133e+003;3.8162819824e+003;3.7848718262e+003;3.7910256348e+003;3.7853845215e+003;3.7869230957e+003;3.7908974609e+003;3.8033332520e+003;3.7906411133e+003;3.7987180176e+003;3.7973076172e+003;3.7938461914e+003;
3.2265625000e+000;2.8253845215e+003;3.7007692871e+003;3.7085898438e+003;3.7535898438e+003;3.7219230957e+003;3.7308974609e+003;3.7252563477e+003;3.7134614258e+003;3.7215385742e+003;3.7284614258e+003;3.7169230957e+003;3.7261538086e+003;3.7238461914e+003;3.7205129395e+003;
3.2343750000e+000;2.8047436523e+003;3.7070512695e+003;3.7139743652e+003;3.7594870605e+003;3.7261538086e+003;3.7364101563e+003;3.7305129395e+003;3.7175642090e+003;3.7252563477e+003;3.7314101563e+003;3.7185898438e+003;3.7315385742e+003;3.7288461914e+003;3.7267949219e+003;
3.2421875000e+000;2.7847436523e+003;3.6928205566e+003;3.7029487305e+003;3.7488461914e+003;3.7117949219e+003;3.7266667480e+003;3.7182050781e+003;3.7058974609e+003;3.7132050781e+003;3.7184614258e+003;3.7042307129e+003;3.7221794434e+003;3.7171794434e+003;3.7166667480e+003;
3.2500000000e+000;2.7632050781e+003;3.6633332520e+003;3.6779487305e+003;3.7250000000e+003;3.6844870605e+003;3.7039743652e+003;3.6930769043e+003;3.6802563477e+003;3.6878205566e+003;3.6915385742e+003;3.6770512695e+003;3.6993588867e+003;3.6915385742e+003;3.6923076172e+003;
3.2578125000e+000;2.8635898438e+003;3.7198718262e+003;3.7306411133e+003;3.7775642090e+003;3.7438461914e+003;3.7537180176e+003;3.7535898438e+003;3.7388461914e+003;3.7479487305e+003;3.7526923828e+003;3.7353845215e+003;3.7612819824e+003;3.7496154785e+003;3.7516667480e+003;
3.2656250000e+000;2.8764101563e+003;3.7097436523e+003;3.7203845215e+003;3.7671794434e+003;3.7312819824e+003;3.7451281738e+003;3.7438461914e+003;3.7293588867e+003;3.7367949219e+003;3.7394870605e+003;3.7235898438e+003;3.7503845215e+003;3.7384614258e+003;3.7410256348e+003;
3.2734375000e+000;2.9510256348e+003;3.7541025391e+003;3.7634614258e+003;3.8057692871e+003;3.7761538086e+003;3.7870512695e+003;3.7839743652e+003;3.7703845215e+003;3.7764101563e+003;3.7802563477e+003;3.7685898438e+003;3.7878205566e+003;3.7842307129e+003;3.7814101563e+003;
3.2812500000e+000;2.9510256348e+003;3.7614101563e+003;3.7702563477e+003;3.8110256348e+003;3.7833332520e+003;3.7920512695e+003;3.7902563477e+003;3.7798718262e+003;3.7858974609e+003;3.7937180176e+003;3.7779487305e+003;3.7971794434e+003;3.7928205566e+003;3.7893588867e+003;
3.2890625000e+000;2.8875642090e+003;3.7132050781e+003;3.7219230957e+003;3.7615385742e+003;3.7326923828e+003;3.7433332520e+003;3.7458974609e+003;3.7342307129e+003;3.7392307129e+003;3.7502563477e+003;3.7305129395e+003;3.7492307129e+003;3.7437180176e+003;3.7414101563e+003;
3.2968750000e+000;2.8824357910e+003;3.7110256348e+003;3.7200000000e+003;3.7578205566e+003;3.7298718262e+003;3.7405129395e+003;3.7434614258e+003;3.7310256348e+003;3.7365385742e+003;3.7467949219e+003;3.7289743652e+003;3.7437180176e+003;3.7407692871e+003;3.7387180176e+003;
3.3046875000e+000;2.8715385742e+003;3.6925642090e+003;3.7108974609e+003;3.7457692871e+003;3.7162819824e+003;3.7312819824e+003;3.7253845215e+003;3.7189743652e+003;3.7257692871e+003;3.7347436523e+003;3.7194870605e+003;3.7334614258e+003;3.7293588867e+003;3.7256411133e+003;
3.3125000000e+000;2.8482050781e+003;3.6717949219e+003;3.6907692871e+003;3.7266667480e+003;3.6955129395e+003;3.7105129395e+003;3.7060256348e+003;3.6970512695e+003;3.7024357910e+003;3.7132050781e+003;3.6961538086e+003;3.7144870605e+003;3.7088461914e+003;3.7033332520e+003;
3.3203125000e+000;2.8487180176e+003;3.6812819824e+003;3.6976923828e+003;3.7330769043e+003;3.7026923828e+003;3.7139743652e+003;3.7139743652e+003;3.7030769043e+003;3.7076923828e+003;3.7214101563e+003;3.7016667480e+003;3.7223076172e+003;3.7173076172e+003;3.7093588867e+003;
3.3281250000e+000;2.8173076172e+003;3.6717949219e+003;3.6920512695e+003;3.7235898438e+003;3.6889743652e+003;3.7076923828e+003;3.7057692871e+003;3.6988461914e+003;3.7017949219e+003;3.7142307129e+003;3.7037180176e+003;3.7123076172e+003;3.7142307129e+003;3.7021794434e+003;
3.3359375000e+000;2.8393588867e+003;3.6883332520e+003;3.7091025391e+003;3.7398718262e+003;3.7074357910e+003;3.7217949219e+003;3.7203845215e+003;3.7125642090e+003;3.7152563477e+003;3.7297436523e+003;3.7188461914e+003;3.7291025391e+003;3.7319230957e+003;3.7193588867e+003;
3.3437500000e+000;2.8062819824e+003;3.6588461914e+003;3.6846154785e+003;3.7135898438e+003;3.6861538086e+003;3.6920512695e+003;3.6974357910e+003;3.6870512695e+003;3.6883332520e+003;3.7041025391e+003;3.6874357910e+003;3.7112819824e+003;3.7046154785e+003;3.6984614258e+003;
3.3515625000e+000;2.8565385742e+003;3.7067949219e+003;3.7282050781e+003;3.7566667480e+003;3.7330769043e+003;3.7398718262e+003;3.7407692871e+003;3.7270512695e+003;3.7293588867e+003;3.7478205566e+003;3.7352563477e+003;3.7550000000e+003;3.7455129395e+003;3.7407692871e+003;
3.3593750000e+000;2.8546154785e+003;3.6891025391e+003;3.7144870605e+003;3.7410256348e+003;3.7157692871e+003;3.7242307129e+003;3.7234614258e+003;3.7100000000e+003;3.7124357910e+003;3.7306411133e+003;3.7188461914e+003;3.7398718262e+003;3.7280769043e+003;3.7206411133e+003;
3.3671875000e+000;2.8596154785e+003;3.6583332520e+003;3.6864101563e+003;3.7170512695e+003;3.6896154785e+003;3.6956411133e+003;3.6966667480e+003;3.6844870605e+003;3.6843588867e+003;3.6960256348e+003;3.6844870605e+003;3.7094870605e+003;3.6978205566e+003;3.6853845215e+003;
3.3750000000e+000;2.8719230957e+003;3.6674357910e+003;3.6919230957e+003;3.7234614258e+003;3.6961538086e+003;3.7043588867e+003;3.7039743652e+003;3.6952563477e+003;3.6958974609e+003;3.7083332520e+003;3.6939743652e+003;3.7174357910e+003;3.7057692871e+003;3.6948718262e+003;
3.3828125000e+000;2.8553845215e+003;3.6361538086e+003;3.6591025391e+003;3.6894870605e+003;3.6597436523e+003;3.6760256348e+003;3.6747436523e+003;3.6633332520e+003;3.6674357910e+003;3.6791025391e+003;3.6641025391e+003;3.6857692871e+003;3.6703845215e+003;3.6600000000e+003;
3.3906250000e+000;2.8644870605e+003;3.6415385742e+003;3.6651281738e+003;3.6933332520e+003;3.6647436523e+003;3.6779487305e+003;3.6800000000e+003;3.6646154785e+003;3.6703845215e+003;3.6806411133e+003;3.6678205566e+003;3.6891025391e+003;3.6728205566e+003;3.6597436523e+003;
3.3984375000e+000;2.8680769043e+003;3.6865385742e+003;3.7169230957e+003;3.7357692871e+003;3.7107692871e+003;3.7100000000e+003;3.7151281738e+003;3.7078205566e+003;3.7120512695e+003;3.7270512695e+003;3.7133332520e+003;3.7369230957e+003;3.7200000000e+003;3.7092307129e+003;
3.4062500000e+000;2.8266667480e+003;3.6592307129e+003;3.6906411133e+003;3.7094870605e+003;3.6825642090e+003;3.6852563477e+003;3.6879487305e+003;3.6805129395e+003;3.6852563477e+003;3.7008974609e+003;3.6878205566e+003;3.7123076172e+003;3.6956411133e+003;3.6883332520e+003;
3.4140625000e+000;2.8089743652e+003;3.6560256348e+003;3.6797436523e+003;3.7023076172e+003;3.6758974609e+003;3.6798718262e+003;3.6837180176e+003;3.6703845215e+003;3.6788461914e+003;3.6961538086e+003;3.6833332520e+003;3.7062819824e+003;3.6910256348e+003;3.6837180176e+003;
3.4218750000e+000;2.8189743652e+003;3.6728205566e+003;3.6921794434e+003;3.7178205566e+003;3.6917949219e+003;3.6934614258e+003;3.6987180176e+003;3.6843588867e+003;3.6930769043e+003;3.7129487305e+003;3.6973076172e+003;3.7197436523e+003;3.7041025391e+003;3.6950000000e+003;
3.4296875000e+000;2.8393588867e+003;3.7158974609e+003;3.7305129395e+003;3.7619230957e+003;3.7408974609e+003;3.7369230957e+003;3.7417949219e+003;3.7194870605e+003;3.7202563477e+003;3.7455129395e+003;3.7273076172e+003;3.7503845215e+003;3.7419230957e+003;3.7238461914e+003;
