Time (s),AF3,F7,F3,FC5,T7,P7,O1,O2,P8,T8,FC6,F4,F8,AF4,Sampling Rate
0.0000000000e+000,3.6991025391e+003,3.6538461914e+003,3.6780769043e+003,3.7153845215e+003,3.6353845215e+003,3.6539743652e+003,3.6774357910e+003,3.6674357910e+003,3.6828205566e+003,3.5551281738e+003,3.6220512695e+003,3.6967949219e+003,3.6258974609e+003,3.4461538086e+003,128
7.8125000000e-003,3.7823076172e+003,3.7412819824e+003,3.7546154785e+003,3.8084614258e+003,3.6742307129e+003,3.7293588867e+003,3.7505129395e+003,3.7388461914e+003,3.7550000000e+003,3.6392307129e+003,3.7089743652e+003,3.7814101563e+003,3.6937180176e+003,3.5308974609e+003,
1.5625000000e-002,3.7452563477e+003,3.7144870605e+003,3.7169230957e+003,3.7660256348e+003,3.7017949219e+003,3.6932050781e+003,3.7155129395e+003,3.7071794434e+003,3.7219230957e+003,3.6096154785e+003,3.6773076172e+003,3.7491025391e+003,3.6651281738e+003,3.5000000000e+003,
2.3437500000e-002,3.7282050781e+003,3.6967949219e+003,3.7017949219e+003,3.7597436523e+003,3.6928205566e+003,3.6748718262e+003,3.6974357910e+003,3.6898718262e+003,3.7053845215e+003,3.5914101563e+003,3.6617949219e+003,3.7311538086e+003,3.6439743652e+003,3.4839743652e+003,
3.1250000000e-002,3.6401281738e+003,3.5983332520e+003,3.6156411133e+003,3.6658974609e+003,3.5515385742e+003,3.5942307129e+003,3.6142307129e+003,3.6057692871e+003,3.6243588867e+003,3.5070512695e+003,3.5553845215e+003,3.6279487305e+003,3.5565385742e+003,3.3860256348e+003,
3.9062500000e-002,3.5917949219e+003,3.5446154785e+003,3.5673076172e+003,3.6029487305e+003,3.4953845215e+003,3.5466667480e+003,3.5697436523e+003,3.5597436523e+003,3.5783332520e+003,3.4585898438e+003,3.5023076172e+003,3.5794870605e+003,3.5080769043e+003,3.3352563477e+003,
4.6875000000e-002,3.5703845215e+003,3.5110256348e+003,3.5419230957e+003,3.5655129395e+003,3.4841025391e+003,3.5161538086e+003,3.5478205566e+003,3.5316667480e+003,3.5511538086e+003,3.4269230957e+003,3.4889743652e+003,3.5624357910e+003,3.4737180176e+003,3.3130769043e+003,
5.4687500000e-002,3.6116667480e+003,3.5488461914e+003,3.5791025391e+003,3.6111538086e+003,3.5300000000e+003,3.5511538086e+003,3.5842307129e+003,3.5666667480e+003,3.5871794434e+003,3.4648718262e+003,3.5346154785e+003,3.6023076172e+003,3.5096154785e+003,3.3526923828e+003,
6.2500000000e-002,3.6398718262e+003,3.5747436523e+003,3.6030769043e+003,3.6578205566e+003,3.5271794434e+003,3.5746154785e+003,3.6048718262e+003,3.5937180176e+003,3.6165385742e+003,3.5024357910e+003,3.5505129395e+003,3.6219230957e+003,3.5379487305e+003,3.3728205566e+003,
7.0312500000e-002,3.5948718262e+003,3.5273076172e+003,3.5596154785e+003,3.6084614258e+003,3.4680769043e+003,3.5332050781e+003,3.5625642090e+003,3.5505129395e+003,3.5750000000e+003,3.4593588867e+003,3.5047436523e+003,3.5776923828e+003,3.4933332520e+003,3.3283332520e+003,
7.8125000000e-002,3.5600000000e+003,3.4911538086e+003,3.5256411133e+003,3.5662819824e+003,3.4289743652e+003,3.5029487305e+003,3.5307692871e+003,3.5161538086e+003,3.5416667480e+003,3.4244870605e+003,3.4728205566e+003,3.5443588867e+003,3.4598718262e+003,3.2960256348e+003,
8.5937500000e-002,3.5498718262e+003,3.4821794434e+003,3.5152563477e+003,3.5503845215e+003,3.4296154785e+003,3.4956411133e+003,3.5219230957e+003,3.5056411133e+003,3.5307692871e+003,3.4134614258e+003,3.4655129395e+003,3.5356411133e+003,3.4520512695e+003,3.2889743652e+003,
9.3750000000e-002,3.5350000000e+003,3.4756411133e+003,3.4948718262e+003,3.5487180176e+003,3.4798718262e+003,3.4694870605e+003,3.5007692871e+003,3.4956411133e+003,3.5241025391e+003,3.4074357910e+003,3.4346154785e+003,3.5176923828e+003,3.4362819824e+003,3.2753845215e+003,
1.0156250000e-001,3.4106411133e+003,3.3278205566e+003,3.3715385742e+003,3.4166667480e+003,3.3112819824e+003,3.3524357910e+003,3.3830769043e+003,3.3642307129e+003,3.3915385742e+003,3.2694870605e+003,3.3069230957e+003,3.3903845215e+003,3.2879487305e+003,3.1487180176e+003,
1.0937500000e-001,3.4029487305e+003,3.3214101563e+003,3.3589743652e+003,3.4112819824e+003,3.3076923828e+003,3.3393588867e+003,3.3701281738e+003,3.3511538086e+003,3.3798718262e+003,3.2555129395e+003,3.3024357910e+003,3.3798718262e+003,3.2725642090e+003,3.1407692871e+003,
1.1718750000e-001,3.4203845215e+003,3.3421794434e+003,3.3660256348e+003,3.4253845215e+003,3.3126923828e+003,3.3456411133e+003,3.3775642090e+003,3.3567949219e+003,3.3862819824e+003,3.2662819824e+003,3.3121794434e+003,3.3897436523e+003,3.2858974609e+003,3.1542307129e+003,
1.2500000000e-001,3.6367949219e+003,3.5565385742e+003,3.5798718262e+003,3.6432050781e+003,3.5176923828e+003,3.5471794434e+003,3.5773076172e+003,3.5607692871e+003,3.5865385742e+003,3.4744870605e+003,3.5058974609e+003,3.5908974609e+003,3.5064101563e+003,3.3580769043e+003,
1.3281250000e-001,3.6564101563e+003,3.5817949219e+003,3.5978205566e+003,3.6655129395e+003,3.5523076172e+003,3.5732050781e+003,3.5989743652e+003,3.5848718262e+003,3.6097436523e+003,3.5012819824e+003,3.5344870605e+003,3.6125642090e+003,3.5256411133e+003,3.3788461914e+003,
1.4062500000e-001,3.6688461914e+003,3.5950000000e+003,3.6073076172e+003,3.6715385742e+003,3.5691025391e+003,3.5903845215e+003,3.6087180176e+003,3.5932050781e+003,3.6167949219e+003,3.5256411133e+003,3.5576923828e+003,3.6219230957e+003,3.5420512695e+003,3.3876923828e+003,
1.4843750000e-001,3.6978205566e+003,3.6225642090e+003,3.6352563477e+003,3.6958974609e+003,3.5880769043e+003,3.6155129395e+003,3.6325642090e+003,3.6155129395e+003,3.6392307129e+003,3.5556411133e+003,3.5875642090e+003,3.6465385742e+003,3.5752563477e+003,3.4139743652e+003,
1.5625000000e-001,3.9005129395e+003,3.8514101563e+003,3.8434614258e+003,3.9074357910e+003,3.8044870605e+003,3.8253845215e+003,3.8414101563e+003,3.8194870605e+003,3.8424357910e+003,3.7644870605e+003,3.8011538086e+003,3.8585898438e+003,3.7896154785e+003,3.6294870605e+003,
1.6406250000e-001,3.9733332520e+003,3.9360256348e+003,3.9187180176e+003,3.9875642090e+003,3.9043588867e+003,3.9061538086e+003,3.9179487305e+003,3.8974357910e+003,3.9187180176e+003,3.8474357910e+003,3.8814101563e+003,3.9370512695e+003,3.8651281738e+003,3.7080769043e+003,
1.7187500000e-001,4.0466667480e+003,4.0170512695e+003,3.9928205566e+003,4.0676923828e+003,4.0071794434e+003,3.9830769043e+003,3.9833332520e+003,3.9752563477e+003,3.9923076172e+003,3.9398718262e+003,3.9714101563e+003,4.0125642090e+003,3.9444870605e+003,3.7832050781e+003,
1.7968750000e-001,4.0489743652e+003,4.0180769043e+003,3.9952563477e+003,4.0706411133e+003,4.0003845215e+003,3.9817949219e+003,3.9801281738e+003,3.9767949219e+003,3.9924357910e+003,3.9438461914e+003,3.9793588867e+003,4.0138461914e+003,3.9514101563e+003,3.7846154785e+003,
1.8750000000e-001,4.0725642090e+003,4.0542307129e+003,4.0217949219e+003,4.1015385742e+003,3.9985898438e+003,4.0134614258e+003,4.0116667480e+003,4.0033332520e+003,4.0203845215e+003,3.9674357910e+003,3.9994870605e+003,4.0370512695e+003,3.9807692871e+003,3.8106411133e+003,
1.9531250000e-001,4.0757692871e+003,4.0656411133e+003,4.0302563477e+003,4.1050000000e+003,4.0133332520e+003,4.0262819824e+003,4.0210256348e+003,4.0134614258e+003,4.0303845215e+003,3.9802563477e+003,4.0043588867e+003,4.0446154785e+003,3.9806411133e+003,3.8178205566e+003,
2.0312500000e-001,4.0669230957e+003,4.0626923828e+003,4.0287180176e+003,4.0934614258e+003,4.0196154785e+003,4.0251281738e+003,4.0173076172e+003,4.0121794434e+003,4.0279487305e+003,3.9820512695e+003,4.0014101563e+003,4.0424357910e+003,3.9692307129e+003,3.8143588867e+003,
2.1093750000e-001,4.0571794434e+003,4.0569230957e+003,4.0253845215e+003,4.0805129395e+003,4.0243588867e+003,4.0196154785e+003,4.0115385742e+003,4.0087180176e+003,4.0229487305e+003,3.9803845215e+003,4.0007692871e+003,4.0402563477e+003,3.9624357910e+003,3.8108974609e+003,
2.1875000000e-001,3.9875642090e+003,3.9901281738e+003,3.9707692871e+003,4.0420512695e+003,3.9570512695e+003,3.9551281738e+003,3.9547436523e+003,3.9580769043e+003,3.9703845215e+003,3.9310256348e+003,3.9491025391e+003,3.9896154785e+003,3.9197436523e+003,3.7585898438e+003,
2.2656250000e-001,3.8870512695e+003,3.8807692871e+003,3.8779487305e+003,3.9494870605e+003,3.8337180176e+003,3.8565385742e+003,3.8589743652e+003,3.8623076172e+003,3.8746154785e+003,3.8302563477e+003,3.8387180176e+003,3.8915385742e+003,3.8082050781e+003,3.6585898438e+003,
2.3437500000e-001,3.6357692871e+003,3.6180769043e+003,3.6211538086e+003,3.6832050781e+003,3.5606411133e+003,3.6150000000e+003,3.6242307129e+003,3.6132050781e+003,3.6306411133e+003,3.5620512695e+003,3.5710256348e+003,3.6343588867e+003,3.5406411133e+003,3.4038461914e+003,
2.4218750000e-001,3.7046154785e+003,3.6956411133e+003,3.6882050781e+003,3.7542307129e+003,3.6716667480e+003,3.6914101563e+003,3.7025642090e+003,3.6843588867e+003,3.7061538086e+003,3.6388461914e+003,3.6469230957e+003,3.7078205566e+003,3.6307692871e+003,3.4774357910e+003,
2.5000000000e-001,3.7110256348e+003,3.6960256348e+003,3.6991025391e+003,3.7660256348e+003,3.6764101563e+003,3.6937180176e+003,3.7046154785e+003,3.6901281738e+003,3.7102563477e+003,3.6467949219e+003,3.6528205566e+003,3.7141025391e+003,3.6334614258e+003,3.4829487305e+003,
2.5781250000e-001,3.6550000000e+003,3.6167949219e+003,3.6378205566e+003,3.7071794434e+003,3.6079487305e+003,3.6115385742e+003,3.6274357910e+003,3.6164101563e+003,3.6387180176e+003,3.5735898438e+003,3.5770512695e+003,3.6388461914e+003,3.5521794434e+003,3.4125642090e+003,
2.6562500000e-001,3.6337180176e+003,3.5973076172e+003,3.6126923828e+003,3.6798718262e+003,3.5891025391e+003,3.5892307129e+003,3.6060256348e+003,3.5933332520e+003,3.6174357910e+003,3.5505129395e+003,3.5517949219e+003,3.6135898438e+003,3.5284614258e+003,3.3900000000e+003,
2.7343750000e-001,3.6112819824e+003,3.5814101563e+003,3.5871794434e+003,3.6464101563e+003,3.5665385742e+003,3.5751281738e+003,3.5921794434e+003,3.5750000000e+003,3.6014101563e+003,3.5342307129e+003,3.5393588867e+003,3.5946154785e+003,3.5130769043e+003,3.3737180176e+003,
2.8125000000e-001,3.6214101563e+003,3.5874357910e+003,3.5969230957e+003,3.6538461914e+003,3.5658974609e+003,3.5865385742e+003,3.6037180176e+003,3.5835898438e+003,3.6115385742e+003,3.5447436523e+003,3.5538461914e+003,3.6071794434e+003,3.5275642090e+003,3.3867949219e+003,
2.8906250000e-001,3.6403845215e+003,3.5985898438e+003,3.6147436523e+003,3.6719230957e+003,3.5680769043e+003,3.6030769043e+003,3.6197436523e+003,3.5969230957e+003,3.6270512695e+003,3.5602563477e+003,3.5701281738e+003,3.6255129395e+003,3.5482050781e+003,3.4061538086e+003,
2.9687500000e-001,3.6570512695e+003,3.6094870605e+003,3.6293588867e+003,3.6891025391e+003,3.5692307129e+003,3.6155129395e+003,3.6310256348e+003,3.6069230957e+003,3.6384614258e+003,3.5724357910e+003,3.5773076172e+003,3.6382050781e+003,3.5638461914e+003,3.4205129395e+003,
3.0468750000e-001,3.9706411133e+003,3.9523076172e+003,3.9312819824e+003,4.0087180176e+003,3.9320512695e+003,3.9296154785e+003,3.9385898438e+003,3.9075642090e+003,3.9270512695e+003,3.8882050781e+003,3.8838461914e+003,3.9411538086e+003,3.8710256348e+003,3.7257692871e+003,
3.1250000000e-001,4.2715385742e+003,4.2775639648e+003,4.2362822266e+003,4.3166665039e+003,4.2417949219e+003,4.2355126953e+003,4.2144873047e+003,4.2196152344e+003,4.2323076172e+003,4.2335898438e+003,4.2369228516e+003,4.2634614258e+003,4.1879487305e+003,4.0467949219e+003,
3.2031250000e-001,4.1457690430e+003,4.1546152344e+003,4.1208974609e+003,4.1964101563e+003,4.1223076172e+003,4.1158974609e+003,4.0969228516e+003,4.1019228516e+003,4.1132050781e+003,4.1123076172e+003,4.1196152344e+003,4.1448715820e+003,4.0621794434e+003,3.9264101563e+003,
3.2812500000e-001,4.0175642090e+003,4.0293588867e+003,4.0083332520e+003,4.0703845215e+003,3.9973076172e+003,4.0005129395e+003,3.9923076172e+003,3.9821794434e+003,3.9937180176e+003,3.9839743652e+003,3.9892307129e+003,4.0256411133e+003,3.9400000000e+003,3.8052563477e+003,
3.3593750000e-001,3.8883332520e+003,3.8943588867e+003,3.8934614258e+003,3.9530769043e+003,3.8465385742e+003,3.8903845215e+003,3.8812819824e+003,3.8801281738e+003,3.8973076172e+003,3.8752563477e+003,3.8566667480e+003,3.9101281738e+003,3.8239743652e+003,3.6866667480e+003,
3.4375000000e-001,3.7867949219e+003,3.7869230957e+003,3.7958974609e+003,3.8560256348e+003,3.7696154785e+003,3.7892307129e+003,3.7820512695e+003,3.7798718262e+003,3.7978205566e+003,3.7688461914e+003,3.7578205566e+003,3.8091025391e+003,3.7171794434e+003,3.5850000000e+003,
3.5156250000e-001,3.6807692871e+003,3.6714101563e+003,3.6774357910e+003,3.7393588867e+003,3.6675642090e+003,3.6748718262e+003,3.6753845215e+003,3.6646154785e+003,3.6887180176e+003,3.6521794434e+003,3.6344870605e+003,3.6976923828e+003,3.6139743652e+003,3.4787180176e+003,
3.5937500000e-001,3.6523076172e+003,3.6424357910e+003,3.6457692871e+003,3.7039743652e+003,3.6141025391e+003,3.6417949219e+003,3.6467949219e+003,3.6341025391e+003,3.6605129395e+003,3.6201281738e+003,3.5998718262e+003,3.6661538086e+003,3.5832050781e+003,3.4515385742e+003,
3.6718750000e-001,3.6435898438e+003,3.6326923828e+003,3.6330769043e+003,3.6874357910e+003,3.5894870605e+003,3.6257692871e+003,3.6367949219e+003,3.6160256348e+003,3.6438461914e+003,3.5964101563e+003,3.5871794434e+003,3.6453845215e+003,3.5538461914e+003,3.4383332520e+003,
3.7500000000e-001,3.6944870605e+003,3.6833332520e+003,3.6805129395e+003,3.7396154785e+003,3.6521794434e+003,3.6776923828e+003,3.6858974609e+003,3.6628205566e+003,3.6885898438e+003,3.6437180176e+003,3.6388461914e+003,3.6915385742e+003,3.5976923828e+003,3.4853845215e+003,
3.8281250000e-001,3.7837180176e+003,3.7639743652e+003,3.7679487305e+003,3.8423076172e+003,3.7369230957e+003,3.7761538086e+003,3.7737180176e+003,3.7537180176e+003,3.7719230957e+003,3.7451281738e+003,3.7274357910e+003,3.7751281738e+003,3.7000000000e+003,3.5694870605e+003,
3.9062500000e-001,3.7589743652e+003,3.7342307129e+003,3.7444870605e+003,3.8182050781e+003,3.7035898438e+003,3.7493588867e+003,3.7484614258e+003,3.7285898438e+003,3.7480769043e+003,3.7207692871e+003,3.7020512695e+003,3.7471794434e+003,3.6744870605e+003,3.5420512695e+003,
3.9843750000e-001,3.7293588867e+003,3.7075642090e+003,3.7139743652e+003,3.7823076172e+003,3.6928205566e+003,3.7164101563e+003,3.7182050781e+003,3.6983332520e+003,3.7217949219e+003,3.6905129395e+003,3.6712819824e+003,3.7185898438e+003,3.6355129395e+003,3.5097436523e+003,
4.0625000000e-001,3.7298718262e+003,3.7148718262e+003,3.7128205566e+003,3.7770512695e+003,3.7091025391e+003,3.7203845215e+003,3.7193588867e+003,3.7006411133e+003,3.7247436523e+003,3.6946154785e+003,3.6708974609e+003,3.7232050781e+003,3.6360256348e+003,3.5124357910e+003,
4.1406250000e-001,3.7221794434e+003,3.7106411133e+003,3.7041025391e+003,3.7623076172e+003,3.7062819824e+003,3.7173076172e+003,3.7119230957e+003,3.6951281738e+003,3.7194870605e+003,3.6910256348e+003,3.6617949219e+003,3.7179487305e+003,3.6308974609e+003,3.5079487305e+003,
4.2187500000e-001,3.6910256348e+003,3.6752563477e+003,3.6743588867e+003,3.7251281738e+003,3.6657692871e+003,3.6888461914e+003,3.6805129395e+003,3.6658974609e+003,3.6911538086e+003,3.6611538086e+003,3.6283332520e+003,3.6860256348e+003,3.6014101563e+003,3.4791025391e+003,
4.2968750000e-001,3.4929487305e+003,3.4411538086e+003,3.4823076172e+003,3.5288461914e+003,3.4276923828e+003,3.4794870605e+003,3.4833332520e+003,3.4639743652e+003,3.4932050781e+003,3.4435898438e+003,3.4119230957e+003,3.4765385742e+003,3.3917949219e+003,3.2724357910e+003,
4.3750000000e-001,3.5929487305e+003,3.5592307129e+003,3.5723076172e+003,3.6248718262e+003,3.5285898438e+003,3.5825642090e+003,3.5802563477e+003,3.5569230957e+003,3.5851281738e+003,3.5450000000e+003,3.5106411133e+003,3.5750000000e+003,3.4742307129e+003,3.3675642090e+003,
4.4531250000e-001,3.6366667480e+003,3.6035898438e+003,3.6144870605e+003,3.6630769043e+003,3.5901281738e+003,3.6219230957e+003,3.6191025391e+003,3.5984614258e+003,3.6250000000e+003,3.5874357910e+003,3.5530769043e+003,3.6173076172e+003,3.5125642090e+003,3.4106411133e+003,
4.5312500000e-001,3.6488461914e+003,3.6147436523e+003,3.6235898438e+003,3.6598718262e+003,3.6319230957e+003,3.6320512695e+003,3.6234614258e+003,3.6111538086e+003,3.6369230957e+003,3.6071794434e+003,3.5653845215e+003,3.6237180176e+003,3.5352563477e+003,3.4201281738e+003,
4.6093750000e-001,3.6483332520e+003,3.6058974609e+003,3.6187180176e+003,3.6652563477e+003,3.5861538086e+003,3.6352563477e+003,3.6325642090e+003,3.5969230957e+003,3.6271794434e+003,3.5934614258e+003,3.5537180176e+003,3.6155129395e+003,3.5329487305e+003,3.4112819824e+003,
4.6875000000e-001,3.7583332520e+003,3.7253845215e+003,3.7229487305e+003,3.7794870605e+003,3.6993588867e+003,3.7414101563e+003,3.7364101563e+003,3.7061538086e+003,3.7339743652e+003,3.7114101563e+003,3.6678205566e+003,3.7258974609e+003,3.6421794434e+003,3.5214101563e+003,
4.7656250000e-001,3.7694870605e+003,3.7396154785e+003,3.7375642090e+003,3.7798718262e+003,3.7171794434e+003,3.7519230957e+003,3.7398718262e+003,3.7298718262e+003,3.7514101563e+003,3.7448718262e+003,3.7026923828e+003,3.7466667480e+003,3.6582050781e+003,3.5384614258e+003,
4.8437500000e-001,3.7157692871e+003,3.6782050781e+003,3.6866667480e+003,3.7226923828e+003,3.6641025391e+003,3.6993588867e+003,3.6912819824e+003,3.6751281738e+003,3.6974357910e+003,3.6837180176e+003,3.6479487305e+003,3.6911538086e+003,3.6042307129e+003,3.4842307129e+003,
4.9218750000e-001,3.7601281738e+003,3.7244870605e+003,3.7297436523e+003,3.7765385742e+003,3.7071794434e+003,3.7446154785e+003,3.7417949219e+003,3.7167949219e+003,3.7364101563e+003,3.7208974609e+003,3.6806411133e+003,3.7294870605e+003,3.6567949219e+003,3.5289743652e+003,
5.0000000000e-001,3.8107692871e+003,3.7823076172e+003,3.7817949219e+003,3.8360256348e+003,3.7478205566e+003,3.7957692871e+003,3.7912819824e+003,3.7711538086e+003,3.7876923828e+003,3.7774357910e+003,3.7273076172e+003,3.7835898438e+003,3.7124357910e+003,3.5826923828e+003,
5.0781250000e-001,3.6250000000e+003,3.5908974609e+003,3.6144870605e+003,3.6566667480e+003,3.5506411133e+003,3.6189743652e+003,3.6116667480e+003,3.6043588867e+003,3.6238461914e+003,3.6005129395e+003,3.5458974609e+003,3.6193588867e+003,3.5176923828e+003,3.4021794434e+003,
5.1562500000e-001,3.5211538086e+003,3.4808974609e+003,3.5108974609e+003,3.5474357910e+003,3.4652563477e+003,3.5184614258e+003,3.5132050781e+003,3.4993588867e+003,3.5221794434e+003,3.4912819824e+003,3.4444870605e+003,3.5132050781e+003,3.4110256348e+003,3.2956411133e+003,
5.2343750000e-001,3.4917949219e+003,3.4523076172e+003,3.4696154785e+003,3.5105129395e+003,3.4696154785e+003,3.4851281738e+003,3.4846154785e+003,3.4558974609e+003,3.4810256348e+003,3.4528205566e+003,3.4147436523e+003,3.4694870605e+003,3.3864101563e+003,3.2584614258e+003,
5.3125000000e-001,3.5516667480e+003,3.5148718262e+003,3.5237180176e+003,3.5702563477e+003,3.5291025391e+003,3.5387180176e+003,3.5389743652e+003,3.5093588867e+003,3.5338461914e+003,3.5106411133e+003,3.4700000000e+003,3.5251281738e+003,3.4483332520e+003,3.3134614258e+003,
5.3906250000e-001,3.6155129395e+003,3.5789743652e+003,3.5853845215e+003,3.6339743652e+003,3.5808974609e+003,3.5969230957e+003,3.5961538086e+003,3.5697436523e+003,3.5939743652e+003,3.5723076172e+003,3.5262819824e+003,3.5892307129e+003,3.5107692871e+003,3.3721794434e+003,
5.4687500000e-001,3.6598718262e+003,3.6210256348e+003,3.6305129395e+003,3.6764101563e+003,3.6091025391e+003,3.6382050781e+003,3.6353845215e+003,3.6121794434e+003,3.6376923828e+003,3.6135898438e+003,3.5630769043e+003,3.6362819824e+003,3.5514101563e+003,3.4119230957e+003,
5.5468750000e-001,3.7556411133e+003,3.7207692871e+003,3.7207692871e+003,3.7628205566e+003,3.6984614258e+003,3.7296154785e+003,3.7243588867e+003,3.7038461914e+003,3.7285898438e+003,3.7211538086e+003,3.6756411133e+003,3.7301281738e+003,3.6567949219e+003,3.5024357910e+003,
5.6250000000e-001,3.7734614258e+003,3.7396154785e+003,3.7388461914e+003,3.7864101563e+003,3.7164101563e+003,3.7476923828e+003,3.7419230957e+003,3.7242307129e+003,3.7458974609e+003,3.7458974609e+003,3.6956411133e+003,3.7510256348e+003,3.6819230957e+003,3.5201281738e+003,
5.7031250000e-001,3.7353845215e+003,3.7083332520e+003,3.7066667480e+003,3.7576923828e+003,3.6914101563e+003,3.7212819824e+003,3.7137180176e+003,3.6996154785e+003,3.7219230957e+003,3.7123076172e+003,3.6569230957e+003,3.7260256348e+003,3.6544870605e+003,3.4861538086e+003,
5.7812500000e-001,3.6075642090e+003,3.5820512695e+003,3.5828205566e+003,3.6141025391e+003,3.5765385742e+003,3.6024357910e+003,3.5962819824e+003,3.5819230957e+003,3.6091025391e+003,3.5893588867e+003,3.5430769043e+003,3.6016667480e+003,3.5200000000e+003,3.3610256348e+003,
5.8593750000e-001,3.6367949219e+003,3.6007692871e+003,3.6114101563e+003,3.6428205566e+003,3.5894870605e+003,3.6278205566e+003,3.6239743652e+003,3.6044870605e+003,3.6323076172e+003,3.6173076172e+003,3.5655129395e+003,3.6289743652e+003,3.5455129395e+003,3.3823076172e+003,
5.9375000000e-001,3.8200000000e+003,3.7846154785e+003,3.7843588867e+003,3.8439743652e+003,3.7661538086e+003,3.8001281738e+003,3.7933332520e+003,3.7753845215e+003,3.8058974609e+003,3.8125642090e+003,3.7394870605e+003,3.8062819824e+003,3.7474357910e+003,3.5565385742e+003,
6.0156250000e-001,3.7939743652e+003,3.7678205566e+003,3.7616667480e+003,3.8220512695e+003,3.7591025391e+003,3.7730769043e+003,3.7660256348e+003,3.7524357910e+003,3.7839743652e+003,3.7903845215e+003,3.7216667480e+003,3.7847436523e+003,3.7267949219e+003,3.5383332520e+003,
6.0937500000e-001,3.6884614258e+003,3.6644870605e+003,3.6638461914e+003,3.7061538086e+003,3.6467949219e+003,3.6617949219e+003,3.6576923828e+003,3.6420512695e+003,3.6778205566e+003,3.6744870605e+003,3.6242307129e+003,3.6838461914e+003,3.6083332520e+003,3.4361538086e+003,
6.1718750000e-001,3.7878205566e+003,3.7624357910e+003,3.7585898438e+003,3.7960256348e+003,3.7225642090e+003,3.7591025391e+003,3.7566667480e+003,3.7400000000e+003,3.7711538086e+003,3.7784614258e+003,3.7175642090e+003,3.7814101563e+003,3.7126923828e+003,3.5308974609e+003,
6.2500000000e-001,3.8203845215e+003,3.7948718262e+003,3.7928205566e+003,3.8326923828e+003,3.7724357910e+003,3.7929487305e+003,3.7891025391e+003,3.7724357910e+003,3.8014101563e+003,3.8129487305e+003,3.7550000000e+003,3.8132050781e+003,3.7465385742e+003,3.5633332520e+003,
6.3281250000e-001,3.8605129395e+003,3.8358974609e+003,3.8325642090e+003,3.8810256348e+003,3.8339743652e+003,3.8353845215e+003,3.8276923828e+003,3.8112819824e+003,3.8396154785e+003,3.8552563477e+003,3.8016667480e+003,3.8521794434e+003,3.7865385742e+003,3.6015385742e+003,
6.4062500000e-001,3.9383332520e+003,3.9205129395e+003,3.9046154785e+003,3.9730769043e+003,3.9307692871e+003,3.9223076172e+003,3.9029487305e+003,3.8905129395e+003,3.9176923828e+003,3.9420512695e+003,3.8842307129e+003,3.9315385742e+003,3.8647436523e+003,3.6729487305e+003,
6.4843750000e-001,3.8306411133e+003,3.8128205566e+003,3.7997436523e+003,3.8428205566e+003,3.7875642090e+003,3.8201281738e+003,3.8026923828e+003,3.7948718262e+003,3.8183332520e+003,3.8426923828e+003,3.7653845215e+003,3.8269230957e+003,3.7615385742e+003,3.5638461914e+003,
6.5625000000e-001,3.7700000000e+003,3.7491025391e+003,3.7408974609e+003,3.7752563477e+003,3.7306411133e+003,3.7565385742e+003,3.7460256348e+003,3.7346154785e+003,3.7591025391e+003,3.7788461914e+003,3.7073076172e+003,3.7647436523e+003,3.7006411133e+003,3.5035898438e+003,
6.6406250000e-001,3.7375642090e+003,3.7156411133e+003,3.7110256348e+003,3.7441025391e+003,3.7108974609e+003,3.7228205566e+003,3.7173076172e+003,3.7020512695e+003,3.7280769043e+003,3.7430769043e+003,3.6812819824e+003,3.7323076172e+003,3.6665385742e+003,3.4728205566e+003,
6.7187500000e-001,3.7421794434e+003,3.7224357910e+003,3.7188461914e+003,3.7558974609e+003,3.7265385742e+003,3.7287180176e+003,3.7241025391e+003,3.7066667480e+003,3.7343588867e+003,3.7456411133e+003,3.6923076172e+003,3.7378205566e+003,3.6680769043e+003,3.4794870605e+003,
6.7968750000e-001,3.8160256348e+003,3.8074357910e+003,3.7932050781e+003,3.8241025391e+003,3.7973076172e+003,3.8117949219e+003,3.7978205566e+003,3.7861538086e+003,3.8126923828e+003,3.8264101563e+003,3.7551281738e+003,3.8138461914e+003,3.7401281738e+003,3.5528205566e+003,
6.8750000000e-001,3.7765385742e+003,3.7675642090e+003,3.7535898438e+003,3.7801281738e+003,3.7710256348e+003,3.7735898438e+003,3.7605129395e+003,3.7479487305e+003,3.7732050781e+003,3.7902563477e+003,3.7101281738e+003,3.7761538086e+003,3.7066667480e+003,3.5150000000e+003,
6.9531250000e-001,3.6774357910e+003,3.6606411133e+003,3.6537180176e+003,3.6865385742e+003,3.6637180176e+003,3.6791025391e+003,3.6665385742e+003,3.6397436523e+003,3.6715385742e+003,3.6975642090e+003,3.6233332520e+003,3.6766667480e+003,3.6176923828e+003,3.4212819824e+003,
7.0312500000e-001,3.8338461914e+003,3.8173076172e+003,3.8082050781e+003,3.8447436523e+003,3.7944870605e+003,3.8221794434e+003,3.8173076172e+003,3.7915385742e+003,3.8235898438e+003,3.8419230957e+003,3.7838461914e+003,3.8312819824e+003,3.7642307129e+003,3.5769230957e+003,
7.1093750000e-001,3.8925642090e+003,3.8846154785e+003,3.8670512695e+003,3.9038461914e+003,3.8689743652e+003,3.8766667480e+003,3.8720512695e+003,3.8524357910e+003,3.8814101563e+003,3.9047436523e+003,3.8350000000e+003,3.8916667480e+003,3.8253845215e+003,3.6366667480e+003,
7.1875000000e-001,3.9129487305e+003,3.9124357910e+003,3.8878205566e+003,3.9200000000e+003,3.8991025391e+003,3.8966667480e+003,3.8892307129e+003,3.8747436523e+003,3.9003845215e+003,3.9444870605e+003,3.8715385742e+003,3.9256411133e+003,3.8408974609e+003,3.6637180176e+003,
7.2656250000e-001,3.8680769043e+003,3.8628205566e+003,3.8410256348e+003,3.8707692871e+003,3.8484614258e+003,3.8543588867e+003,3.8467949219e+003,3.8319230957e+003,3.8587180176e+003,3.8975642090e+003,3.8391025391e+003,3.8848718262e+003,3.7917949219e+003,3.6217949219e+003,
7.3437500000e-001,3.8056411133e+003,3.8051281738e+003,3.7739743652e+003,3.8101281738e+003,3.8176923828e+003,3.8055129395e+003,3.7966667480e+003,3.7752563477e+003,3.8046154785e+003,3.8305129395e+003,3.7683332520e+003,3.8102563477e+003,3.7505129395e+003,3.5608974609e+003,
7.4218750000e-001,4.0194870605e+003,4.0197436523e+003,3.9879487305e+003,4.0303845215e+003,4.0096154785e+003,4.0096154785e+003,3.9925642090e+003,3.9778205566e+003,4.0047436523e+003,4.0543588867e+003,3.9779487305e+003,4.0198718262e+003,3.9556411133e+003,3.7716667480e+003,
7.5000000000e-001,3.9665385742e+003,3.9624357910e+003,3.9403845215e+003,3.9800000000e+003,3.9503845215e+003,3.9578205566e+003,3.9356411133e+003,3.9312819824e+003,3.9569230957e+003,4.0067949219e+003,3.9321794434e+003,3.9760256348e+003,3.8976923828e+003,3.7241025391e+003,
7.5781250000e-001,3.8376923828e+003,3.8300000000e+003,3.8187180176e+003,3.8553845215e+003,3.8221794434e+003,3.8338461914e+003,3.8105129395e+003,3.8112819824e+003,3.8371794434e+003,3.8800000000e+003,3.8061538086e+003,3.8558974609e+003,3.7701281738e+003,3.6026923828e+003,
7.6562500000e-001,3.6711538086e+003,3.6619230957e+003,3.6557692871e+003,3.6975642090e+003,3.6529487305e+003,3.6716667480e+003,3.6624357910e+003,3.6457692871e+003,3.6762819824e+003,3.7011538086e+003,3.6289743652e+003,3.6870512695e+003,3.6132050781e+003,3.4405129395e+003,
7.7343750000e-001,4.1097436523e+003,4.1155126953e+003,4.0729487305e+003,4.1369228516e+003,4.1011538086e+003,4.0933332520e+003,4.0846154785e+003,4.0644870605e+003,4.0888461914e+003,4.1365385742e+003,4.0757692871e+003,4.1070512695e+003,4.0462819824e+003,3.8619230957e+003,
7.8125000000e-001,4.2330771484e+003,4.2470512695e+003,4.1967949219e+003,4.2562822266e+003,4.2415385742e+003,4.2167949219e+003,4.1975639648e+003,4.1889741211e+003,4.2083334961e+003,4.2708974609e+003,4.2058974609e+003,4.2335898438e+003,4.1724360352e+003,3.9862819824e+003,
7.8906250000e-001,4.2743588867e+003,4.2948715820e+003,4.2421796875e+003,4.2923076172e+003,4.2923076172e+003,4.2620512695e+003,4.2341025391e+003,4.2337177734e+003,4.2506411133e+003,4.3232050781e+003,4.2501284180e+003,4.2794873047e+003,4.2221796875e+003,4.0317949219e+003,
7.9687500000e-001,4.2555126953e+003,4.2794873047e+003,4.2275639648e+003,4.2688461914e+003,4.2698715820e+003,4.2489741211e+003,4.2175639648e+003,4.2201284180e+003,4.2378203125e+003,4.3126923828e+003,4.2332050781e+003,4.2648715820e+003,4.2142309570e+003,4.0182050781e+003,
8.0468750000e-001,4.1220512695e+003,4.1478203125e+003,4.1115385742e+003,4.1480771484e+003,4.1438461914e+003,4.1423076172e+003,4.1224360352e+003,4.1217949219e+003,4.1378203125e+003,4.2044873047e+003,4.1426923828e+003,4.1596152344e+003,4.0933332520e+003,3.9046154785e+003,
8.1250000000e-001,4.0841025391e+003,4.1142309570e+003,4.0760256348e+003,4.1115385742e+003,4.1173076172e+003,4.1080771484e+003,4.0848718262e+003,4.0834614258e+003,4.1005126953e+003,4.1694873047e+003,4.1046152344e+003,4.1219228516e+003,4.0543588867e+003,3.8651281738e+003,
8.2031250000e-001,3.8696154785e+003,3.9026923828e+003,3.8620512695e+003,3.8780769043e+003,3.8619230957e+003,3.8769230957e+003,3.8589743652e+003,3.8517949219e+003,3.8798718262e+003,3.9255129395e+003,3.8402563477e+003,3.8805129395e+003,3.8221794434e+003,3.6332050781e+003,
8.2812500000e-001,3.9394870605e+003,3.9738461914e+003,3.9212819824e+003,3.9419230957e+003,3.9676923828e+003,3.9358974609e+003,3.9228205566e+003,3.9065385742e+003,3.9314101563e+003,3.9689743652e+003,3.8917949219e+003,3.9355129395e+003,3.8646154785e+003,3.6932050781e+003,
8.3593750000e-001,4.0262819824e+003,4.0710256348e+003,4.0037180176e+003,4.0329487305e+003,4.0665385742e+003,4.0280769043e+003,4.0075642090e+003,3.9921794434e+003,4.0148718262e+003,4.0624357910e+003,3.9852563477e+003,4.0255129395e+003,3.9520512695e+003,3.7808974609e+003,
8.4375000000e-001,4.1396152344e+003,4.1926923828e+003,4.1189741211e+003,4.1389741211e+003,4.1455126953e+003,4.1451284180e+003,4.1144873047e+003,4.1008974609e+003,4.1208974609e+003,4.1869228516e+003,4.1035898438e+003,4.1351284180e+003,4.0667949219e+003,3.8988461914e+003,
8.5156250000e-001,4.1574360352e+003,4.2053847656e+003,4.1375639648e+003,4.1541025391e+003,4.1630771484e+003,4.1582050781e+003,4.1293588867e+003,4.1167949219e+003,4.1365385742e+003,4.2041025391e+003,4.1248715820e+003,4.1492309570e+003,4.0855129395e+003,3.9198718262e+003,
8.5937500000e-001,4.2315385742e+003,4.2748715820e+003,4.2133334961e+003,4.2419228516e+003,4.2587177734e+003,4.2319228516e+003,4.1985898438e+003,4.1917949219e+003,4.2083334961e+003,4.2839741211e+003,4.2097436523e+003,4.2338461914e+003,4.1661538086e+003,3.9989743652e+003,
8.6718750000e-001,4.2423076172e+003,4.2938461914e+003,4.2260258789e+003,4.2528203125e+003,4.2574360352e+003,4.2482050781e+003,4.2107690430e+003,4.2046152344e+003,4.2200000000e+003,4.2979487305e+003,4.2170512695e+003,4.2482050781e+003,4.1787177734e+003,4.0087180176e+003,
8.7500000000e-001,4.1697436523e+003,4.2383334961e+003,4.1610258789e+003,4.1694873047e+003,4.1511538086e+003,4.1850000000e+003,4.1451284180e+003,4.1442309570e+003,4.1593588867e+003,4.2341025391e+003,4.1489741211e+003,4.1834614258e+003,4.1119228516e+003,3.9433332520e+003,
8.8281250000e-001,4.0594870605e+003,4.1264101563e+003,4.0579487305e+003,4.0560256348e+003,4.0373076172e+003,4.0755129395e+003,4.0398718262e+003,4.0429487305e+003,4.0597436523e+003,4.1269228516e+003,4.0485898438e+003,4.0819230957e+003,4.0041025391e+003,3.8419230957e+003,
8.9062500000e-001,3.6598718262e+003,3.6947436523e+003,3.6730769043e+003,3.6664101563e+003,3.6839743652e+003,3.6716667480e+003,3.6584614258e+003,3.6529487305e+003,3.6785898438e+003,3.7223076172e+003,3.6421794434e+003,3.6933332520e+003,3.6024357910e+003,3.4538461914e+003,
8.9843750000e-001,3.5994870605e+003,3.6284614258e+003,3.6101281738e+003,3.6062819824e+003,3.6289743652e+003,3.6139743652e+003,3.6035898438e+003,3.5906411133e+003,3.6185898438e+003,3.6576923828e+003,3.5666667480e+003,3.6273076172e+003,3.5389743652e+003,3.3894870605e+003,
9.0625000000e-001,3.5379487305e+003,3.5617949219e+003,3.5447436523e+003,3.5361538086e+003,3.5498718262e+003,3.5602563477e+003,3.5506411133e+003,3.5315385742e+003,3.5628205566e+003,3.5866667480e+003,3.4939743652e+003,3.5616667480e+003,3.4712819824e+003,3.3255129395e+003,
9.1406250000e-001,3.5065385742e+003,3.5253845215e+003,3.5142307129e+003,3.5020512695e+003,3.5115385742e+003,3.5289743652e+003,3.5214101563e+003,3.5024357910e+003,3.5356411133e+003,3.5497436523e+003,3.4650000000e+003,3.5301281738e+003,3.4374357910e+003,3.2952563477e+003,
9.2187500000e-001,3.4903845215e+003,3.5017949219e+003,3.4982050781e+003,3.4865385742e+003,3.4952563477e+003,3.5096154785e+003,3.5052563477e+003,3.4862819824e+003,3.5214101563e+003,3.5285898438e+003,3.4483332520e+003,3.5110256348e+003,3.4185898438e+003,3.2784614258e+003,
9.2968750000e-001,3.5392307129e+003,3.5402563477e+003,3.5282050781e+003,3.5226923828e+003,3.5039743652e+003,3.5426923828e+003,3.5474357910e+003,3.5358974609e+003,3.5644870605e+003,3.5797436523e+003,3.4933332520e+003,3.5484614258e+003,3.4473076172e+003,3.3243588867e+003,
9.3750000000e-001,3.4835898438e+003,3.4782050781e+003,3.4734614258e+003,3.4635898438e+003,3.4452563477e+003,3.4888461914e+003,3.4937180176e+003,3.4811538086e+003,3.5117949219e+003,3.5215385742e+003,3.4408974609e+003,3.4924357910e+003,3.3946154785e+003,3.2697436523e+003,
9.4531250000e-001,3.5351281738e+003,3.5147436523e+003,3.5176923828e+003,3.5112819824e+003,3.5235898438e+003,3.5330769043e+003,3.5343588867e+003,3.5078205566e+003,3.5515385742e+003,3.5576923828e+003,3.4566667480e+003,3.5226923828e+003,3.4491025391e+003,3.3073076172e+003,
9.5312500000e-001,3.6332050781e+003,3.6130769043e+003,3.6032050781e+003,3.5885898438e+003,3.6212819824e+003,3.6151281738e+003,3.6150000000e+003,3.5950000000e+003,3.6339743652e+003,3.6541025391e+003,3.5665385742e+003,3.6169230957e+003,3.5315385742e+003,3.4015385742e+003,
9.6093750000e-001,3.6271794434e+003,3.6016667480e+003,3.5971794434e+003,3.5807692871e+003,3.6103845215e+003,3.6094870605e+003,3.6102563477e+003,3.5884614258e+003,3.6247436523e+003,3.6446154785e+003,3.5626923828e+003,3.6102563477e+003,3.5230769043e+003,3.3952563477e+003,
9.6875000000e-001,3.7187180176e+003,3.6920512695e+003,3.6833332520e+003,3.6747436523e+003,3.6700000000e+003,3.7011538086e+003,3.6967949219e+003,3.6742307129e+003,3.7066667480e+003,3.7321794434e+003,3.6467949219e+003,3.6953845215e+003,3.6169230957e+003,3.4821794434e+003,
9.7656250000e-001,3.7487180176e+003,3.7267949219e+003,3.7138461914e+003,3.7025642090e+003,3.6933332520e+003,3.7302563477e+003,3.7256411133e+003,3.7052563477e+003,3.7364101563e+003,3.7680769043e+003,3.6824357910e+003,3.7294870605e+003,3.6483332520e+003,3.5161538086e+003,
9.8437500000e-001,3.7291025391e+003,3.7089743652e+003,3.7002563477e+003,3.6798718262e+003,3.7233332520e+003,3.7208974609e+003,3.7135898438e+003,3.6901281738e+003,3.7216667480e+003,3.7653845215e+003,3.6698718262e+003,3.7183332520e+003,3.6348718262e+003,3.5087180176e+003,
9.9218750000e-001,3.7274357910e+003,3.7094870605e+003,3.6956411133e+003,3.6787180176e+003,3.7366667480e+003,3.7260256348e+003,3.7135898438e+003,3.6893588867e+003,3.7216667480e+003,3.7656411133e+003,3.6665385742e+003,3.7144870605e+003,3.6355129395e+003,3.5065385742e+003,
1.0000000000e+000,3.8166667480e+003,3.8084614258e+003,3.7797436523e+003,3.7676923828e+003,3.8065385742e+003,3.8187180176e+003,3.8033332520e+003,3.7757692871e+003,3.8058974609e+003,3.8517949219e+003,3.7593588867e+003,3.7976923828e+003,3.7266667480e+003,3.5951281738e+003,
1.0078125000e+000,3.9306411133e+003,3.9267949219e+003,3.8938461914e+003,3.8826923828e+003,3.9048718262e+003,3.9262819824e+003,3.9135898438e+003,3.8850000000e+003,3.9129487305e+003,3.9657692871e+003,3.8791025391e+003,3.9089743652e+003,3.8410256348e+003,3.7105129395e+003,
1.0156250000e+000,4.2137177734e+003,4.2287177734e+003,4.1828203125e+003,4.1846152344e+003,4.2317949219e+003,4.1947436523e+003,4.1774360352e+003,4.1684614258e+003,4.1894873047e+003,4.2792309570e+003,4.1816665039e+003,4.2039741211e+003,4.1362822266e+003,4.0094870605e+003,
1.0234375000e+000,4.1585898438e+003,4.1803847656e+003,4.1326923828e+003,4.1329487305e+003,4.1857690430e+003,4.1443588867e+003,4.1248715820e+003,4.1225639648e+003,4.1397436523e+003,4.2319228516e+003,4.1312822266e+003,4.1582050781e+003,4.0876923828e+003,3.9629487305e+003,
1.0312500000e+000,3.9373076172e+003,3.9606411133e+003,3.9207692871e+003,3.9051281738e+003,3.9306411133e+003,3.9348718262e+003,3.9220512695e+003,3.9185898438e+003,3.9341025391e+003,4.0080769043e+003,3.9173076172e+003,3.9448718262e+003,3.8738461914e+003,3.7565385742e+003,
1.0390625000e+000,3.8546154785e+003,3.8742307129e+003,3.8420512695e+003,3.8215385742e+003,3.8341025391e+003,3.8569230957e+003,3.8491025391e+003,3.8421794434e+003,3.8611538086e+003,3.9230769043e+003,3.8379487305e+003,3.8621794434e+003,3.7917949219e+003,3.6798718262e+003,
1.0468750000e+000,3.8044870605e+003,3.8202563477e+003,3.7961538086e+003,3.7769230957e+003,3.7888461914e+003,3.8114101563e+003,3.8066667480e+003,3.7973076172e+003,3.8203845215e+003,3.8735898438e+003,3.7901281738e+003,3.8129487305e+003,3.7419230957e+003,3.6356411133e+003,
1.0546875000e+000,3.8494870605e+003,3.8558974609e+003,3.8289743652e+003,3.8260256348e+003,3.8406411133e+003,3.8378205566e+003,3.8375642090e+003,3.8208974609e+003,3.8452563477e+003,3.9017949219e+003,3.8014101563e+003,3.8346154785e+003,3.7702563477e+003,3.6685898438e+003,
1.0625000000e+000,3.8525642090e+003,3.8557692871e+003,3.8339743652e+003,3.8264101563e+003,3.8165385742e+003,3.8351281738e+003,3.8374357910e+003,3.8217949219e+003,3.8489743652e+003,3.9043588867e+003,3.8011538086e+003,3.8383332520e+003,3.7693588867e+003,3.6724357910e+003,
1.0703125000e+000,3.7061538086e+003,3.6935898438e+003,3.6957692871e+003,3.6803845215e+003,3.6776923828e+003,3.6921794434e+003,3.6973076172e+003,3.6794870605e+003,3.7103845215e+003,3.7573076172e+003,3.6552563477e+003,3.7007692871e+003,3.6160256348e+003,3.5371794434e+003,
1.0781250000e+000,3.7438461914e+003,3.7312819824e+003,3.7167949219e+003,3.7121794434e+003,3.7306411133e+003,3.7184614258e+003,3.7256411133e+003,3.7019230957e+003,3.7310256348e+003,3.7833332520e+003,3.6917949219e+003,3.7201281738e+003,3.6505129395e+003,3.5706411133e+003,
1.0859375000e+000,3.7505129395e+003,3.7416667480e+003,3.7235898438e+003,3.7184614258e+003,3.7315385742e+003,3.7219230957e+003,3.7278205566e+003,3.7079487305e+003,3.7385898438e+003,3.7916667480e+003,3.6960256348e+003,3.7262819824e+003,3.6603845215e+003,3.5785898438e+003,
1.0937500000e+000,3.6352563477e+003,3.6197436523e+003,3.6161538086e+003,3.6057692871e+003,3.6235898438e+003,3.6102563477e+003,3.6153845215e+003,3.5948718262e+003,3.6284614258e+003,3.6724357910e+003,3.5676923828e+003,3.6206411133e+003,3.5403845215e+003,3.4715385742e+003,
1.1015625000e+000,3.6828205566e+003,3.6633332520e+003,3.6591025391e+003,3.6538461914e+003,3.6730769043e+003,3.6553845215e+003,3.6610256348e+003,3.6358974609e+003,3.6684614258e+003,3.7144870605e+003,3.6152563477e+003,3.6650000000e+003,3.5837180176e+003,3.5174357910e+003,
1.1093750000e+000,3.7864101563e+003,3.7674357910e+003,3.7562819824e+003,3.7600000000e+003,3.7724357910e+003,3.7557692871e+003,3.7598718262e+003,3.7338461914e+003,3.7655129395e+003,3.8192307129e+003,3.7250000000e+003,3.7638461914e+003,3.6893588867e+003,3.6191025391e+003,
1.1171875000e+000,3.8921794434e+003,3.8785898438e+003,3.8585898438e+003,3.8711538086e+003,3.8723076172e+003,3.8612819824e+003,3.8625642090e+003,3.8396154785e+003,3.8712819824e+003,3.9350000000e+003,3.8419230957e+003,3.8683332520e+003,3.8050000000e+003,3.7257692871e+003,
1.1250000000e+000,4.1276923828e+003,4.1350000000e+003,4.1016665039e+003,4.1103847656e+003,4.1450000000e+003,4.1021796875e+003,4.0998715820e+003,4.0769230957e+003,4.0985898438e+003,4.1874360352e+003,4.0924357910e+003,4.1121796875e+003,4.0597436523e+003,3.9680769043e+003,
1.1328125000e+000,4.2526923828e+003,4.2671796875e+003,4.2233334961e+003,4.2319228516e+003,4.2664101563e+003,4.2224360352e+003,4.2164101563e+003,4.1975639648e+003,4.2148715820e+003,4.3138461914e+003,4.2229487305e+003,4.2371796875e+003,4.1847436523e+003,4.0932050781e+003,
1.1406250000e+000,4.2762822266e+003,4.3128203125e+003,4.2617949219e+003,4.2743588867e+003,4.2561538086e+003,4.2548715820e+003,4.2374360352e+003,4.2374360352e+003,4.2538461914e+003,4.3685898438e+003,4.2784614258e+003,4.2923076172e+003,4.2264101563e+003,4.1403847656e+003,
1.1484375000e+000,3.9861538086e+003,4.0292307129e+003,3.9876923828e+003,4.0117949219e+003,4.0344870605e+003,3.9915385742e+003,3.9802563477e+003,3.9614101563e+003,3.9805129395e+003,4.0743588867e+003,3.9824357910e+003,4.0097436523e+003,3.9405129395e+003,3.8624357910e+003,
1.1562500000e+000,3.9770512695e+003,4.0174357910e+003,3.9751281738e+003,4.0038461914e+003,4.0332050781e+003,3.9847436523e+003,3.9738461914e+003,3.9534614258e+003,3.9710256348e+003,4.0602563477e+003,3.9689743652e+003,3.9984614258e+003,3.9312819824e+003,3.8512819824e+003,
1.1640625000e+000,3.9339743652e+003,3.9493588867e+003,3.9360256348e+003,3.9605129395e+003,3.9580769043e+003,3.9473076172e+003,3.9425642090e+003,3.9191025391e+003,3.9466667480e+003,4.0210256348e+003,3.9316667480e+003,3.9646154785e+003,3.8906411133e+003,3.8087180176e+003,
1.1718750000e+000,3.9102563477e+003,3.9189743652e+003,3.9165385742e+003,3.9425642090e+003,3.9353845215e+003,3.9256411133e+003,3.9253845215e+003,3.8997436523e+003,3.9314101563e+003,4.0029487305e+003,3.9101281738e+003,3.9415385742e+003,3.8665385742e+003,3.7850000000e+003,
1.1796875000e+000,3.9101281738e+003,3.9202563477e+003,3.9191025391e+003,3.9511538086e+003,3.9375642090e+003,3.9253845215e+003,3.9289743652e+003,3.9075642090e+003,3.9376923828e+003,4.0087180176e+003,3.9089743652e+003,3.9392307129e+003,3.8598718262e+003,3.7821794434e+003,
1.1875000000e+000,3.9092307129e+003,3.9237180176e+003,3.9158974609e+003,3.9461538086e+003,3.9237180176e+003,3.9207692871e+003,3.9243588867e+003,3.9073076172e+003,3.9352563477e+003,4.0055129395e+003,3.9058974609e+003,3.9369230957e+003,3.8530769043e+003,3.7794870605e+003,
1.1953125000e+000,3.8465385742e+003,3.8592307129e+003,3.8474357910e+003,3.8598718262e+003,3.8312819824e+003,3.8379487305e+003,3.8487180176e+003,3.8291025391e+003,3.8630769043e+003,3.9275642090e+003,3.8317949219e+003,3.8619230957e+003,3.7844870605e+003,3.7112819824e+003,
1.2031250000e+000,3.8539743652e+003,3.8629487305e+003,3.8555129395e+003,3.8670512695e+003,3.8483332520e+003,3.8425642090e+003,3.8558974609e+003,3.8333332520e+003,3.8691025391e+003,3.9335898438e+003,3.8351281738e+003,3.8666667480e+003,3.7971794434e+003,3.7189743652e+003,
1.2109375000e+000,3.9373076172e+003,3.9458974609e+003,3.9379487305e+003,3.9564101563e+003,3.9547436523e+003,3.9302563477e+003,3.9396154785e+003,3.9191025391e+003,3.9505129395e+003,4.0211538086e+003,3.9161538086e+003,3.9534614258e+003,3.8885898438e+003,3.8046154785e+003,
1.2187500000e+000,3.9800000000e+003,3.9910256348e+003,3.9808974609e+003,3.9988461914e+003,3.9984614258e+003,3.9760256348e+003,3.9810256348e+003,3.9629487305e+003,3.9903845215e+003,4.0669230957e+003,3.9610256348e+003,3.9994870605e+003,3.9293588867e+003,3.8473076172e+003,
1.2265625000e+000,4.0132050781e+003,4.0248718262e+003,4.0182050781e+003,4.0185898438e+003,4.0176923828e+003,4.0043588867e+003,4.0078205566e+003,3.9824357910e+003,4.0088461914e+003,4.0952563477e+003,3.9958974609e+003,4.0262819824e+003,3.9437180176e+003,3.8719230957e+003,
1.2343750000e+000,4.0333332520e+003,4.0456411133e+003,4.0337180176e+003,4.0384614258e+003,4.0415385742e+003,4.0215385742e+003,4.0237180176e+003,3.9982050781e+003,4.0271794434e+003,4.1121796875e+003,4.0178205566e+003,4.0423076172e+003,3.9614101563e+003,3.8894870605e+003,
1.2421875000e+000,4.0678205566e+003,4.0829487305e+003,4.0626923828e+003,4.0766667480e+003,4.0778205566e+003,4.0551281738e+003,4.0543588867e+003,4.0326923828e+003,4.0629487305e+003,4.1461538086e+003,4.0574357910e+003,4.0765385742e+003,3.9975642090e+003,3.9246154785e+003,
1.2500000000e+000,4.1058974609e+003,4.1255126953e+003,4.0991025391e+003,4.1208974609e+003,4.1112822266e+003,4.0939743652e+003,4.0914101563e+003,4.0744870605e+003,4.1037177734e+003,4.1874360352e+003,4.1016665039e+003,4.1182050781e+003,4.0405129395e+003,3.9662819824e+003,
1.2578125000e+000,4.1823076172e+003,4.2171796875e+003,4.1915385742e+003,4.2141025391e+003,4.1980771484e+003,4.1750000000e+003,4.1780771484e+003,4.1593588867e+003,4.1802563477e+003,4.2803847656e+003,4.1796152344e+003,4.2001284180e+003,4.1315385742e+003,4.0502563477e+003,
1.2656250000e+000,4.1628203125e+003,4.1978203125e+003,4.1714101563e+003,4.1935898438e+003,4.1997436523e+003,4.1601284180e+003,4.1612822266e+003,4.1432050781e+003,4.1646152344e+003,4.2602563477e+003,4.1655126953e+003,4.1837177734e+003,4.1084614258e+003,4.0325642090e+003,
1.2734375000e+000,4.0560256348e+003,4.0793588867e+003,4.0724357910e+003,4.0821794434e+003,4.0879487305e+003,4.0655129395e+003,4.0647436523e+003,4.0498718262e+003,4.0700000000e+003,4.1544873047e+003,4.0626923828e+003,4.0844870605e+003,4.0015385742e+003,3.9332050781e+003,
1.2812500000e+000,4.1766665039e+003,4.1952563477e+003,4.1900000000e+003,4.2115385742e+003,4.1835898438e+003,4.1828203125e+003,4.1878203125e+003,4.1635898438e+003,4.1789741211e+003,4.2764101563e+003,4.1667949219e+003,4.1988461914e+003,4.1347436523e+003,4.0584614258e+003,
1.2890625000e+000,4.2393588867e+003,4.2742309570e+003,4.2537177734e+003,4.2739741211e+003,4.2578203125e+003,4.2480771484e+003,4.2506411133e+003,4.2370512695e+003,4.2500000000e+003,4.3494873047e+003,4.2666665039e+003,4.2783334961e+003,4.1989741211e+003,4.1283334961e+003,
1.2968750000e+000,4.2783334961e+003,4.3135898438e+003,4.2951284180e+003,4.3048715820e+003,4.2866665039e+003,4.2866665039e+003,4.2888461914e+003,4.2765385742e+003,4.2891025391e+003,4.3896152344e+003,4.3056411133e+003,4.3170512695e+003,4.2400000000e+003,4.1670512695e+003,
1.3046875000e+000,4.3455126953e+003,4.3815385742e+003,4.3634614258e+003,4.3725639648e+003,4.3767949219e+003,4.3526923828e+003,4.3523076172e+003,4.3496152344e+003,4.3617949219e+003,4.4685898438e+003,4.3739741211e+003,4.3874360352e+003,4.3102563477e+003,4.2384614258e+003,
1.3125000000e+000,4.2853847656e+003,4.3246152344e+003,4.3046152344e+003,4.3226923828e+003,4.3414101563e+003,4.2958974609e+003,4.2944873047e+003,4.2991025391e+003,4.3125639648e+003,4.4206411133e+003,4.3198715820e+003,4.3343588867e+003,4.2533334961e+003,4.1846152344e+003,
1.3203125000e+000,4.1347436523e+003,4.1770512695e+003,4.1578203125e+003,4.1825639648e+003,4.2051284180e+003,4.1511538086e+003,4.1512822266e+003,4.1603847656e+003,4.1764101563e+003,4.2802563477e+003,4.1738461914e+003,4.1921796875e+003,4.1060258789e+003,4.0412819824e+003,
1.3281250000e+000,3.9257692871e+003,3.9675642090e+003,3.9552563477e+003,3.9789743652e+003,3.9900000000e+003,3.9492307129e+003,3.9537180176e+003,3.9612819824e+003,3.9810256348e+003,4.0737180176e+003,3.9625642090e+003,3.9885898438e+003,3.8984614258e+003,3.8383332520e+003,
1.3359375000e+000,3.7232050781e+003,3.7592307129e+003,3.7592307129e+003,3.7752563477e+003,3.7628205566e+003,3.7530769043e+003,3.7639743652e+003,3.7634614258e+003,3.7882050781e+003,3.8643588867e+003,3.7494870605e+003,3.7855129395e+003,3.6942307129e+003,3.6388461914e+003,
1.3437500000e+000,3.6356411133e+003,3.6444870605e+003,3.6671794434e+003,3.6852563477e+003,3.6320512695e+003,3.6720512695e+003,3.6935898438e+003,3.6657692871e+003,3.7006411133e+003,3.7471794434e+003,3.6334614258e+003,3.6769230957e+003,3.5974357910e+003,3.5437180176e+003,
1.3515625000e+000,3.7691025391e+003,3.7761538086e+003,3.7926923828e+003,3.8226923828e+003,3.7805129395e+003,3.7985898438e+003,3.8205129395e+003,3.7921794434e+003,3.8243588867e+003,3.8793588867e+003,3.7678205566e+003,3.8032050781e+003,3.7300000000e+003,3.6705129395e+003,
1.3593750000e+000,4.0378205566e+003,4.0566667480e+003,4.0475642090e+003,4.0926923828e+003,4.0748718262e+003,4.0502563477e+003,4.0678205566e+003,4.0491025391e+003,4.0728205566e+003,4.1544873047e+003,4.0406411133e+003,4.0608974609e+003,3.9961538086e+003,3.9266667480e+003,
1.3671875000e+000,4.1101284180e+003,4.1396152344e+003,4.1173076172e+003,4.1646152344e+003,4.1480771484e+003,4.1223076172e+003,4.1341025391e+003,4.1212822266e+003,4.1437177734e+003,4.2330771484e+003,4.1143588867e+003,4.1320512695e+003,4.0693588867e+003,3.9974357910e+003,
1.3750000000e+000,4.1352563477e+003,4.1750000000e+003,4.1437177734e+003,4.1928203125e+003,4.1693588867e+003,4.1533334961e+003,4.1589741211e+003,4.1503847656e+003,4.1738461914e+003,4.2648715820e+003,4.1416665039e+003,4.1600000000e+003,4.0984614258e+003,4.0246154785e+003,
1.3828125000e+000,4.1198715820e+003,4.1525639648e+003,4.1364101563e+003,4.1773076172e+003,4.1778203125e+003,4.1376923828e+003,4.1396152344e+003,4.1358974609e+003,4.1607690430e+003,4.2500000000e+003,4.1474360352e+003,4.1558974609e+003,4.1007690430e+003,4.0128205566e+003,
1.3906250000e+000,4.0939743652e+003,4.1242309570e+003,4.1135898438e+003,4.1451284180e+003,4.1519228516e+003,4.1115385742e+003,4.1130771484e+003,4.1088461914e+003,4.1360258789e+003,4.2241025391e+003,4.1180771484e+003,4.1343588867e+003,4.0744870605e+003,3.9869230957e+003,
1.3984375000e+000,3.9202563477e+003,3.9370512695e+003,3.9466667480e+003,3.9761538086e+003,3.9379487305e+003,3.9416667480e+003,3.9458974609e+003,3.9351281738e+003,3.9694870605e+003,4.0412819824e+003,3.9292307129e+003,3.9733332520e+003,3.8993588867e+003,3.8129487305e+003,
1.4062500000e+000,3.8720512695e+003,3.8825642090e+003,3.8950000000e+003,3.9307692871e+003,3.9010256348e+003,3.8855129395e+003,3.8958974609e+003,3.8832050781e+003,3.9115385742e+003,3.9815385742e+003,3.8792307129e+003,3.9215385742e+003,3.8507692871e+003,3.7565385742e+003,
1.4140625000e+000,3.8946154785e+003,3.9102563477e+003,3.9165385742e+003,3.9520512695e+003,3.9308974609e+003,3.9066667480e+003,3.9160256348e+003,3.9056411133e+003,3.9332050781e+003,4.0058974609e+003,3.9026923828e+003,3.9455129395e+003,3.8756411133e+003,3.7783332520e+003,
1.4218750000e+000,3.7670512695e+003,3.7697436523e+003,3.7860256348e+003,3.8205129395e+003,3.7329487305e+003,3.7811538086e+003,3.7901281738e+003,3.7841025391e+003,3.8160256348e+003,3.8811538086e+003,3.7706411133e+003,3.8270512695e+003,3.7537180176e+003,3.6565385742e+003,
1.4296875000e+000,3.5456411133e+003,3.5350000000e+003,3.5634614258e+003,3.5974357910e+003,3.5547436523e+003,3.5573076172e+003,3.5784614258e+003,3.5644870605e+003,3.5978205566e+003,3.6478205566e+003,3.5428205566e+003,3.6012819824e+003,3.5246154785e+003,3.4338461914e+003,
1.4375000000e+000,3.5343588867e+003,3.5250000000e+003,3.5501281738e+003,3.5829487305e+003,3.5761538086e+003,3.5416667480e+003,3.5666667480e+003,3.5535898438e+003,3.5876923828e+003,3.6365385742e+003,3.5342307129e+003,3.5855129395e+003,3.5123076172e+003,3.4174357910e+003,
1.4453125000e+000,3.5202563477e+003,3.4902563477e+003,3.5314101563e+003,3.5492307129e+003,3.5260256348e+003,3.5205129395e+003,3.5526923828e+003,3.5321794434e+003,3.5728205566e+003,3.6106411133e+003,3.5051281738e+003,3.5616667480e+003,3.4908974609e+003,3.3976923828e+003,
1.4531250000e+000,3.5564101563e+003,3.5212819824e+003,3.5608974609e+003,3.5796154785e+003,3.5365385742e+003,3.5539743652e+003,3.5851281738e+003,3.5600000000e+003,3.6006411133e+003,3.6400000000e+003,3.5273076172e+003,3.5928205566e+003,3.5210256348e+003,3.4306411133e+003,
1.4609375000e+000,3.8873076172e+003,3.8697436523e+003,3.8650000000e+003,3.9096154785e+003,3.8792307129e+003,3.8608974609e+003,3.8833332520e+003,3.8617949219e+003,3.8956411133e+003,3.9691025391e+003,3.8560256348e+003,3.9064101563e+003,3.8419230957e+003,3.7433332520e+003,
1.4687500000e+000,3.9898718262e+003,3.9794870605e+003,3.9657692871e+003,4.0117949219e+003,3.9905129395e+003,3.9550000000e+003,3.9744870605e+003,3.9582050781e+003,3.9905129395e+003,4.0738461914e+003,3.9682050781e+003,4.0046154785e+003,3.9467949219e+003,3.8438461914e+003,
1.4765625000e+000,4.0460256348e+003,4.0464101563e+003,4.0266667480e+003,4.0597436523e+003,4.0283332520e+003,4.0092307129e+003,4.0234614258e+003,4.0144870605e+003,4.0434614258e+003,4.1337177734e+003,4.0303845215e+003,4.0575642090e+003,4.0119230957e+003,3.9038461914e+003,
1.4843750000e+000,4.0294870605e+003,4.0333332520e+003,4.0120512695e+003,4.0398718262e+003,3.9925642090e+003,3.9984614258e+003,4.0115385742e+003,4.0007692871e+003,4.0273076172e+003,4.1188461914e+003,4.0110256348e+003,4.0430769043e+003,3.9982050781e+003,3.8907692871e+003,
1.4921875000e+000,4.0296154785e+003,4.0350000000e+003,4.0125642090e+003,4.0407692871e+003,3.9803845215e+003,4.0044870605e+003,4.0170512695e+003,4.0021794434e+003,4.0266667480e+003,4.1207690430e+003,4.0106411133e+003,4.0473076172e+003,3.9982050781e+003,3.8930769043e+003,
1.5000000000e+000,4.0608974609e+003,4.0669230957e+003,4.0430769043e+003,4.0769230957e+003,4.0161538086e+003,4.0382050781e+003,4.0494870605e+003,4.0324357910e+003,4.0564101563e+003,4.1546152344e+003,4.0462819824e+003,4.0832050781e+003,4.0270512695e+003,3.9247436523e+003,
1.5078125000e+000,3.9011538086e+003,3.9178205566e+003,3.9033332520e+003,3.9467949219e+003,3.9420512695e+003,3.8885898438e+003,3.8973076172e+003,3.8969230957e+003,3.9220512695e+003,4.0126923828e+003,3.9032050781e+003,3.9396154785e+003,3.8779487305e+003,3.7792307129e+003,
1.5156250000e+000,3.7873076172e+003,3.8006411133e+003,3.7947436523e+003,3.8360256348e+003,3.8112819824e+003,3.7855129395e+003,3.7970512695e+003,3.7910256348e+003,3.8174357910e+003,3.8960256348e+003,3.7835898438e+003,3.8269230957e+003,3.7667949219e+003,3.6696154785e+003,
1.5234375000e+000,3.7124357910e+003,3.7010256348e+003,3.7191025391e+003,3.7638461914e+003,3.7033332520e+003,3.7174357910e+003,3.7350000000e+003,3.7183332520e+003,3.7489743652e+003,3.8117949219e+003,3.7003845215e+003,3.7505129395e+003,3.6832050781e+003,3.5876923828e+003,
1.5312500000e+000,3.5343588867e+003,3.5211538086e+003,3.5438461914e+003,3.5780769043e+003,3.5297436523e+003,3.5311538086e+003,3.5603845215e+003,3.5457692871e+003,3.5791025391e+003,3.6365385742e+003,3.5148718262e+003,3.5757692871e+003,3.4925642090e+003,3.4165385742e+003,
1.5390625000e+000,3.4817949219e+003,3.4673076172e+003,3.4896154785e+003,3.5217949219e+003,3.4752563477e+003,3.4785898438e+003,3.5107692871e+003,3.4916667480e+003,3.5267949219e+003,3.5806411133e+003,3.4597436523e+003,3.5192307129e+003,3.4362819824e+003,3.3660256348e+003,
1.5468750000e+000,3.5224357910e+003,3.4878205566e+003,3.5208974609e+003,3.5484614258e+003,3.5105129395e+003,3.4984614258e+003,3.5335898438e+003,3.5085898438e+003,3.5474357910e+003,3.5992307129e+003,3.4824357910e+003,3.5410256348e+003,3.4688461914e+003,3.3905129395e+003,
1.5546875000e+000,3.5452563477e+003,3.5066667480e+003,3.5370512695e+003,3.5644870605e+003,3.5208974609e+003,3.5123076172e+003,3.5469230957e+003,3.5237180176e+003,3.5650000000e+003,3.6176923828e+003,3.4983332520e+003,3.5588461914e+003,3.4911538086e+003,3.4076923828e+003,
1.5625000000e+000,3.5844870605e+003,3.5466667480e+003,3.5641025391e+003,3.5960256348e+003,3.5432050781e+003,3.5489743652e+003,3.5815385742e+003,3.5584614258e+003,3.6034614258e+003,3.6587180176e+003,3.5416667480e+003,3.5998718262e+003,3.5300000000e+003,3.4493588867e+003,
1.5703125000e+000,3.6174357910e+003,3.5812819824e+003,3.5964101563e+003,3.6283332520e+003,3.5816667480e+003,3.5843588867e+003,3.6170512695e+003,3.5912819824e+003,3.6356411133e+003,3.6942307129e+003,3.5805129395e+003,3.6375642090e+003,3.5616667480e+003,3.4860256348e+003,
1.5781250000e+000,3.7524357910e+003,3.7246154785e+003,3.7328205566e+003,3.7576923828e+003,3.7387180176e+003,3.7091025391e+003,3.7435898438e+003,3.7185898438e+003,3.7561538086e+003,3.8275642090e+003,3.7082050781e+003,3.7625642090e+003,3.6928205566e+003,3.6124357910e+003,
1.5859375000e+000,3.7779487305e+003,3.7528205566e+003,3.7552563477e+003,3.7828205566e+003,3.7576923828e+003,3.7302563477e+003,3.7629487305e+003,3.7434614258e+003,3.7792307129e+003,3.8517949219e+003,3.7312819824e+003,3.7815385742e+003,3.7170512695e+003,3.6342307129e+003,
1.5937500000e+000,3.7743588867e+003,3.7485898438e+003,3.7500000000e+003,3.7798718262e+003,3.7424357910e+003,3.7257692871e+003,3.7562819824e+003,3.7416667480e+003,3.7762819824e+003,3.8485898438e+003,3.7291025391e+003,3.7757692871e+003,3.7123076172e+003,3.6298718262e+003,
1.6015625000e+000,3.7593588867e+003,3.7223076172e+003,3.7311538086e+003,3.7607692871e+003,3.7317949219e+003,3.7183332520e+003,3.7555129395e+003,3.7176923828e+003,3.7571794434e+003,3.8288461914e+003,3.7171794434e+003,3.7538461914e+003,3.7005129395e+003,3.6187180176e+003,
1.6093750000e+000,3.9292307129e+003,3.9024357910e+003,3.8965385742e+003,3.9308974609e+003,3.9220512695e+003,3.8858974609e+003,3.9193588867e+003,3.8830769043e+003,3.9178205566e+003,3.9984614258e+003,3.8848718262e+003,3.9219230957e+003,3.8693588867e+003,3.7873076172e+003,
1.6171875000e+000,4.2738461914e+003,4.2661538086e+003,4.2415385742e+003,4.2710258789e+003,4.2728203125e+003,4.2303847656e+003,4.2416665039e+003,4.2369228516e+003,4.2594873047e+003,4.3750000000e+003,4.2535898438e+003,4.2792309570e+003,4.2202563477e+003,4.1376923828e+003,
1.6250000000e+000,4.2620512695e+003,4.2689741211e+003,4.2432050781e+003,4.2696152344e+003,4.2606411133e+003,4.2352563477e+003,4.2414101563e+003,4.2233334961e+003,4.2446152344e+003,4.3707690430e+003,4.2598715820e+003,4.2682050781e+003,4.2338461914e+003,4.1301284180e+003,
1.6328125000e+000,4.3261538086e+003,4.3510258789e+003,4.3093588867e+003,4.3394873047e+003,4.3489741211e+003,4.3046152344e+003,4.3065385742e+003,4.2888461914e+003,4.3089741211e+003,4.4407690430e+003,4.3307690430e+003,4.3360258789e+003,4.3084614258e+003,4.1973076172e+003,
1.6406250000e+000,4.3520512695e+003,4.4014101563e+003,4.3498715820e+003,4.3771796875e+003,4.3728203125e+003,4.3396152344e+003,4.3343588867e+003,4.3360258789e+003,4.3523076172e+003,4.4880771484e+003,4.3734614258e+003,4.3929487305e+003,4.3397436523e+003,4.2408974609e+003,
1.6484375000e+000,4.2920512695e+003,4.3358974609e+003,4.2957690430e+003,4.3188461914e+003,4.2966665039e+003,4.2844873047e+003,4.2805126953e+003,4.2798715820e+003,4.2976923828e+003,4.4264101563e+003,4.3126923828e+003,4.3382050781e+003,4.2784614258e+003,4.1837177734e+003,
1.6562500000e+000,4.2496152344e+003,4.2906411133e+003,4.2616665039e+003,4.2766665039e+003,4.2717949219e+003,4.2487177734e+003,4.2478203125e+003,4.2388461914e+003,4.2608974609e+003,4.3835898438e+003,4.2714101563e+003,4.2969228516e+003,4.2430771484e+003,4.1438461914e+003,
1.6640625000e+000,4.2737177734e+003,4.3184614258e+003,4.2898715820e+003,4.3011538086e+003,4.3192309570e+003,4.2720512695e+003,4.2716665039e+003,4.2635898438e+003,4.2851284180e+003,4.4123076172e+003,4.3012822266e+003,4.3223076172e+003,4.2707690430e+003,4.1700000000e+003,
1.6718750000e+000,4.2765385742e+003,4.3283334961e+003,4.3010258789e+003,4.3215385742e+003,4.3169228516e+003,4.2743588867e+003,4.2705126953e+003,4.2755126953e+003,4.2907690430e+003,4.4265385742e+003,4.3260258789e+003,4.3350000000e+003,4.2806411133e+003,4.1833334961e+003,
1.6796875000e+000,4.2201284180e+003,4.2755126953e+003,4.2452563477e+003,4.2714101563e+003,4.2473076172e+003,4.2241025391e+003,4.2197436523e+003,4.2234614258e+003,4.2393588867e+003,4.3696152344e+003,4.2678203125e+003,4.2824360352e+003,4.2302563477e+003,4.1317949219e+003,
1.6875000000e+000,4.1782050781e+003,4.2412822266e+003,4.2008974609e+003,4.2260258789e+003,4.2070512695e+003,4.1905126953e+003,4.1900000000e+003,4.1802563477e+003,4.1975639648e+003,4.3184614258e+003,4.2112822266e+003,4.2432050781e+003,4.1888461914e+003,4.0937180176e+003,
1.6953125000e+000,4.2655126953e+003,4.3312822266e+003,4.2847436523e+003,4.3078203125e+003,4.2997436523e+003,4.2757690430e+003,4.2755126953e+003,4.2610258789e+003,4.2764101563e+003,4.4012822266e+003,4.2965385742e+003,4.3270512695e+003,4.2702563477e+003,4.1779487305e+003,
1.7031250000e+000,4.7361538086e+003,4.8148715820e+003,4.7529487305e+003,4.7830771484e+003,4.7697436523e+003,4.7364101563e+003,4.7169228516e+003,4.7171796875e+003,4.7216665039e+003,4.8851284180e+003,4.7894873047e+003,4.7893588867e+003,4.7480771484e+003,4.6360258789e+003,
1.7109375000e+000,4.8289741211e+003,4.9162822266e+003,4.8506411133e+003,4.8803847656e+003,4.8797436523e+003,4.8310258789e+003,4.8052563477e+003,4.8112822266e+003,4.8142309570e+003,4.9864101563e+003,4.8907690430e+003,4.8860258789e+003,4.8512822266e+003,4.7319228516e+003,
1.7187500000e+000,4.8838461914e+003,4.9814101563e+003,4.9103847656e+003,4.9388461914e+003,4.9632050781e+003,4.8897436523e+003,4.8608974609e+003,4.8700000000e+003,4.8720512695e+003,5.0498715820e+003,4.9544873047e+003,4.9464101563e+003,4.9156411133e+003,4.7941025391e+003,
1.7265625000e+000,4.9203847656e+003,5.0634614258e+003,4.9732050781e+003,4.9846152344e+003,5.0239741211e+003,4.9611538086e+003,4.9232050781e+003,4.9470512695e+003,4.9385898438e+003,5.1416665039e+003,5.0460258789e+003,5.0176923828e+003,4.9825639648e+003,4.8651284180e+003,
1.7343750000e+000,4.8710258789e+003,5.0162822266e+003,4.9292309570e+003,4.9401284180e+003,4.9779487305e+003,4.9196152344e+003,4.8807690430e+003,4.9043588867e+003,4.8978203125e+003,5.0958974609e+003,4.9996152344e+003,4.9705126953e+003,4.9416665039e+003,4.8196152344e+003,
1.7421875000e+000,4.8260258789e+003,4.9806411133e+003,4.8917949219e+003,4.9191025391e+003,4.9493588867e+003,4.8975639648e+003,4.8601284180e+003,4.8746152344e+003,4.8694873047e+003,5.0535898438e+003,4.9624360352e+003,4.9330771484e+003,4.9130771484e+003,4.7929487305e+003,
1.7500000000e+000,4.9438461914e+003,5.1132050781e+003,5.0224360352e+003,5.0343588867e+003,5.0487177734e+003,5.0142309570e+003,4.9752563477e+003,4.9934614258e+003,4.9856411133e+003,5.1789741211e+003,5.0833334961e+003,5.0569228516e+003,5.0365385742e+003,4.9189741211e+003,
1.7578125000e+000,4.9539741211e+003,5.1264101563e+003,5.0362822266e+003,5.0467949219e+003,5.0698715820e+003,5.0284614258e+003,4.9874360352e+003,5.0055126953e+003,5.0003847656e+003,5.1921796875e+003,5.0960258789e+003,5.0702563477e+003,5.0482050781e+003,4.9311538086e+003,
1.7656250000e+000,5.0232050781e+003,5.2138461914e+003,5.1116665039e+003,5.1292309570e+003,5.1846152344e+003,5.1192309570e+003,5.0732050781e+003,5.0896152344e+003,5.0814101563e+003,5.2789741211e+003,5.1865385742e+003,5.1529487305e+003,5.1248715820e+003,5.0134614258e+003,
1.7734375000e+000,5.0466665039e+003,5.2444873047e+003,5.1376923828e+003,5.1552563477e+003,5.2107690430e+003,5.1456411133e+003,5.0985898438e+003,5.1189741211e+003,5.1069228516e+003,5.3105126953e+003,5.2179487305e+003,5.1794873047e+003,5.1543588867e+003,5.0412822266e+003,
1.7812500000e+000,5.0470512695e+003,5.2537177734e+003,5.1498715820e+003,5.1648715820e+003,5.2132050781e+003,5.1498715820e+003,5.1026923828e+003,5.1271796875e+003,5.1128203125e+003,5.3152563477e+003,5.2271796875e+003,5.1834614258e+003,5.1689741211e+003,5.0487177734e+003,
1.7890625000e+000,5.0662822266e+003,5.2784614258e+003,5.1757690430e+003,5.1930771484e+003,5.2425639648e+003,5.1729487305e+003,5.1252563477e+003,5.1478203125e+003,5.1343588867e+003,5.3333334961e+003,5.2502563477e+003,5.2048715820e+003,5.1939741211e+003,5.0712822266e+003,
1.7968750000e+000,5.2767949219e+003,5.5183334961e+003,5.3941025391e+003,5.4235898438e+003,5.4728203125e+003,5.3970512695e+003,5.3398715820e+003,5.3703847656e+003,5.3464101563e+003,5.5671796875e+003,5.4834614258e+003,5.4297436523e+003,5.4210258789e+003,5.2970512695e+003,
1.8046875000e+000,5.3002563477e+003,5.5494873047e+003,5.4224360352e+003,5.4503847656e+003,5.4870512695e+003,5.4246152344e+003,5.3650000000e+003,5.4023076172e+003,5.3751284180e+003,5.6021796875e+003,5.5138461914e+003,5.4607690430e+003,5.4515385742e+003,5.3270512695e+003,
1.8125000000e+000,5.2023076172e+003,5.4556411133e+003,5.3388461914e+003,5.3682050781e+003,5.3815385742e+003,5.3317949219e+003,5.2737177734e+003,5.3153847656e+003,5.2926923828e+003,5.5120512695e+003,5.4237177734e+003,5.3732050781e+003,5.3592309570e+003,5.2379487305e+003,
1.8203125000e+000,5.1367949219e+003,5.3880771484e+003,5.2792309570e+003,5.3143588867e+003,5.3242309570e+003,5.2680771484e+003,5.2130771484e+003,5.2515385742e+003,5.2319228516e+003,5.4442309570e+003,5.3608974609e+003,5.3088461914e+003,5.2926923828e+003,5.1741025391e+003,
1.8281250000e+000,5.0930771484e+003,5.3457690430e+003,5.2517949219e+003,5.2916665039e+003,5.3029487305e+003,5.2456411133e+003,5.1910258789e+003,5.2223076172e+003,5.1991025391e+003,5.4014101563e+003,5.3252563477e+003,5.2705126953e+003,5.2608974609e+003,5.1423076172e+003,
1.8359375000e+000,5.0898715820e+003,5.3488461914e+003,5.2519228516e+003,5.2907690430e+003,5.2991025391e+003,5.2507690430e+003,5.1925639648e+003,5.2273076172e+003,5.2046152344e+003,5.4033334961e+003,5.3232050781e+003,5.2720512695e+003,5.2632050781e+003,5.1433334961e+003,
1.8437500000e+000,5.0685898438e+003,5.3334614258e+003,5.2310258789e+003,5.2724360352e+003,5.2765385742e+003,5.2328203125e+003,5.1724360352e+003,5.2117949219e+003,5.1910258789e+003,5.3857690430e+003,5.3020512695e+003,5.2546152344e+003,5.2421796875e+003,5.1237177734e+003,
1.8515625000e+000,5.0358974609e+003,5.3033334961e+003,5.1969228516e+003,5.2448715820e+003,5.2448715820e+003,5.1979487305e+003,5.1387177734e+003,5.1810258789e+003,5.1617949219e+003,5.3532050781e+003,5.2692309570e+003,5.2239741211e+003,5.2046152344e+003,5.0912822266e+003,
1.8593750000e+000,5.0403847656e+003,5.3015385742e+003,5.2070512695e+003,5.2798715820e+003,5.2762822266e+003,5.2050000000e+003,5.1561538086e+003,5.1943588867e+003,5.1705126953e+003,5.3538461914e+003,5.2839741211e+003,5.2292309570e+003,5.2129487305e+003,5.1053847656e+003,
1.8671875000e+000,5.0765385742e+003,5.3501284180e+003,5.2558974609e+003,5.3183334961e+003,5.2935898438e+003,5.2539741211e+003,5.1932050781e+003,5.2347436523e+003,5.2128203125e+003,5.4058974609e+003,5.3189741211e+003,5.2783334961e+003,5.2529487305e+003,5.1506411133e+003,
1.8750000000e+000,5.0797436523e+003,5.3541025391e+003,5.2570512695e+003,5.3193588867e+003,5.2906411133e+003,5.2526923828e+003,5.1960258789e+003,5.2356411133e+003,5.2114101563e+003,5.4056411133e+003,5.3221796875e+003,5.2769228516e+003,5.2562822266e+003,5.1551284180e+003,
1.8828125000e+000,5.0914101563e+003,5.3708974609e+003,5.2688461914e+003,5.3256411133e+003,5.3061538086e+003,5.2616665039e+003,5.2130771484e+003,5.2523076172e+003,5.2246152344e+003,5.4144873047e+003,5.3400000000e+003,5.2865385742e+003,5.2717949219e+003,5.1705126953e+003,
1.8906250000e+000,4.5829487305e+003,4.8350000000e+003,4.7807690430e+003,4.8423076172e+003,4.8103847656e+003,4.7719228516e+003,4.7280771484e+003,4.7816665039e+003,4.7626923828e+003,4.9139741211e+003,4.8333334961e+003,4.7987177734e+003,4.7603847656e+003,4.6756411133e+003,
1.8984375000e+000,4.3182050781e+003,4.5596152344e+003,4.5239741211e+003,4.5869228516e+003,4.5425639648e+003,4.5115385742e+003,4.4770512695e+003,4.5300000000e+003,4.5169228516e+003,4.6470512695e+003,4.5583334961e+003,4.5393588867e+003,4.4989741211e+003,4.4192309570e+003,
1.9062500000e+000,3.7766667480e+003,3.9856411133e+003,3.9908974609e+003,4.0437180176e+003,3.9732050781e+003,3.9667949219e+003,3.9596154785e+003,3.9976923828e+003,3.9985898438e+003,4.0788461914e+003,3.9817949219e+003,3.9988461914e+003,3.9421794434e+003,3.8832050781e+003,
1.9140625000e+000,3.5892307129e+003,3.7751281738e+003,3.7993588867e+003,3.8465385742e+003,3.7635898438e+003,3.7733332520e+003,3.7776923828e+003,3.8039743652e+003,3.8120512695e+003,3.8703845215e+003,3.7753845215e+003,3.8016667480e+003,3.7361538086e+003,3.6879487305e+003,
1.9218750000e+000,3.4742307129e+003,3.5969230957e+003,3.6519230957e+003,3.7147436523e+003,3.5878205566e+003,3.6357692871e+003,3.6585898438e+003,3.6567949219e+003,3.6810256348e+003,3.7107692871e+003,3.6185898438e+003,3.6425642090e+003,3.5780769043e+003,3.5348718262e+003,
1.9296875000e+000,3.5015385742e+003,3.6124357910e+003,3.6655129395e+003,3.7415385742e+003,3.6092307129e+003,3.6515385742e+003,3.6770512695e+003,3.6726923828e+003,3.7001281738e+003,3.7278205566e+003,3.6328205566e+003,3.6569230957e+003,3.5978205566e+003,3.5512819824e+003,
1.9375000000e+000,3.5320512695e+003,3.6348718262e+003,3.6820512695e+003,3.7685898438e+003,3.6434614258e+003,3.6683332520e+003,3.6946154785e+003,3.6911538086e+003,3.7200000000e+003,3.7469230957e+003,3.6491025391e+003,3.6750000000e+003,3.6198718262e+003,3.5714101563e+003,
1.9453125000e+000,3.5624357910e+003,3.6578205566e+003,3.6991025391e+003,3.7905129395e+003,3.6794870605e+003,3.6839743652e+003,3.7098718262e+003,3.7092307129e+003,3.7370512695e+003,3.7643588867e+003,3.6644870605e+003,3.6934614258e+003,3.6385898438e+003,3.5906411133e+003,
1.9531250000e+000,3.5928205566e+003,3.6512819824e+003,3.7006411133e+003,3.7848718262e+003,3.6411538086e+003,3.6861538086e+003,3.7103845215e+003,3.7083332520e+003,3.7335898438e+003,3.7617949219e+003,3.6558974609e+003,3.6938461914e+003,3.6298718262e+003,3.5864101563e+003,
1.9609375000e+000,3.5921794434e+003,3.6466667480e+003,3.6934614258e+003,3.7850000000e+003,3.6339743652e+003,3.6830769043e+003,3.7073076172e+003,3.7037180176e+003,3.7308974609e+003,3.7570512695e+003,3.6521794434e+003,3.6878205566e+003,3.6251281738e+003,3.5824357910e+003,
1.9687500000e+000,3.6267949219e+003,3.6743588867e+003,3.7144870605e+003,3.8283332520e+003,3.7056411133e+003,3.6967949219e+003,3.7258974609e+003,3.7261538086e+003,3.7487180176e+003,3.7794870605e+003,3.6835898438e+003,3.7092307129e+003,3.6407692871e+003,3.6079487305e+003,
1.9765625000e+000,3.5839743652e+003,3.6162819824e+003,3.6587180176e+003,3.7606411133e+003,3.6052563477e+003,3.6488461914e+003,3.6778205566e+003,3.6791025391e+003,3.7060256348e+003,3.7326923828e+003,3.6207692871e+003,3.6603845215e+003,3.5874357910e+003,3.5570512695e+003,
1.9843750000e+000,3.5402563477e+003,3.5597436523e+003,3.6135898438e+003,3.7071794434e+003,3.5456411133e+003,3.6038461914e+003,3.6339743652e+003,3.6332050781e+003,3.6625642090e+003,3.6832050781e+003,3.5675642090e+003,3.6142307129e+003,3.5411538086e+003,3.5107692871e+003,
1.9921875000e+000,3.4285898438e+003,3.4248718262e+003,3.4939743652e+003,3.5956411133e+003,3.4479487305e+003,3.4715385742e+003,3.5084614258e+003,3.5010256348e+003,3.5339743652e+003,3.5537180176e+003,3.4461538086e+003,3.4829487305e+003,3.4091025391e+003,3.3841025391e+003,
2.0000000000e+000,3.4679487305e+003,3.4689743652e+003,3.5157692871e+003,3.6214101563e+003,3.4905129395e+003,3.4939743652e+003,3.5311538086e+003,3.5215385742e+003,3.5566667480e+003,3.5766667480e+003,3.4693588867e+003,3.5050000000e+003,3.4371794434e+003,3.4117949219e+003,
2.0078125000e+000,3.4950000000e+003,3.4875642090e+003,3.5389743652e+003,3.6364101563e+003,3.4978205566e+003,3.5153845215e+003,3.5521794434e+003,3.5443588867e+003,3.5780769043e+003,3.5982050781e+003,3.4867949219e+003,3.5279487305e+003,3.4650000000e+003,3.4334614258e+003,
2.0156250000e+000,3.5073076172e+003,3.4878205566e+003,3.5478205566e+003,3.6392307129e+003,3.4839743652e+003,3.5220512695e+003,3.5592307129e+003,3.5512819824e+003,3.5839743652e+003,3.6057692871e+003,3.4917949219e+003,3.5374357910e+003,3.4758974609e+003,3.4401281738e+003,
2.0234375000e+000,3.4974357910e+003,3.4615385742e+003,3.5301281738e+003,3.6224357910e+003,3.4487180176e+003,3.5012819824e+003,3.5424357910e+003,3.5267949219e+003,3.5611538086e+003,3.5846154785e+003,3.4756411133e+003,3.5232050781e+003,3.4519230957e+003,3.4219230957e+003,
2.0312500000e+000,3.5047436523e+003,3.4698718262e+003,3.5328205566e+003,3.6279487305e+003,3.4703845215e+003,3.5025642090e+003,3.5453845215e+003,3.5273076172e+003,3.5634614258e+003,3.5855129395e+003,3.4812819824e+003,3.5264101563e+003,3.4510256348e+003,3.4265385742e+003,
2.0390625000e+000,3.5615385742e+003,3.5326923828e+003,3.5797436523e+003,3.6757692871e+003,3.5658974609e+003,3.5471794434e+003,3.5893588867e+003,3.5776923828e+003,3.6151281738e+003,3.6369230957e+003,3.5346154785e+003,3.5724357910e+003,3.5037180176e+003,3.4787180176e+003,
2.0468750000e+000,3.5819230957e+003,3.5482050781e+003,3.5957692871e+003,3.6902563477e+003,3.5819230957e+003,3.5632050781e+003,3.6042307129e+003,3.5966667480e+003,3.6329487305e+003,3.6567949219e+003,3.5528205566e+003,3.5891025391e+003,3.5255129395e+003,3.4967949219e+003,
2.0546875000e+000,3.5693588867e+003,3.5121794434e+003,3.5719230957e+003,3.6651281738e+003,3.5006411133e+003,3.5478205566e+003,3.5861538086e+003,3.5751281738e+003,3.6112819824e+003,3.6355129395e+003,3.5298718262e+003,3.5738461914e+003,3.5021794434e+003,3.4821794434e+003,
2.0625000000e+000,3.5589743652e+003,3.5035898438e+003,3.5610256348e+003,3.6547436523e+003,3.4891025391e+003,3.5380769043e+003,3.5751281738e+003,3.5637180176e+003,3.6001281738e+003,3.6264101563e+003,3.5170512695e+003,3.5637180176e+003,3.4888461914e+003,3.4728205566e+003,
2.0703125000e+000,3.5397436523e+003,3.4880769043e+003,3.5433332520e+003,3.6382050781e+003,3.4837180176e+003,3.5182050781e+003,3.5556411133e+003,3.5450000000e+003,3.5800000000e+003,3.6105129395e+003,3.4956411133e+003,3.5437180176e+003,3.4694870605e+003,3.4541025391e+003,
2.0781250000e+000,3.7106411133e+003,3.6685898438e+003,3.7028205566e+003,3.8043588867e+003,3.6492307129e+003,3.6826923828e+003,3.7248718262e+003,3.7015385742e+003,3.7343588867e+003,3.7661538086e+003,3.6623076172e+003,3.6976923828e+003,3.6315385742e+003,3.6144870605e+003,
2.0859375000e+000,3.8487180176e+003,3.8115385742e+003,3.8426923828e+003,3.9420512695e+003,3.7787180176e+003,3.8214101563e+003,3.8578205566e+003,3.8401281738e+003,3.8671794434e+003,3.9110256348e+003,3.8079487305e+003,3.8380769043e+003,3.7696154785e+003,3.7512819824e+003,
2.0937500000e+000,3.9992307129e+003,3.9782050781e+003,3.9985898438e+003,4.0942307129e+003,3.9841025391e+003,3.9660256348e+003,3.9906411133e+003,3.9930769043e+003,4.0056411133e+003,4.0873076172e+003,3.9620512695e+003,3.9937180176e+003,3.9337180176e+003,3.8997436523e+003,
2.1015625000e+000,3.9038461914e+003,3.8935898438e+003,3.9033332520e+003,4.0011538086e+003,3.8898718262e+003,3.8787180176e+003,3.9016667480e+003,3.9007692871e+003,3.9189743652e+003,3.9874357910e+003,3.8770512695e+003,3.9064101563e+003,3.8420512695e+003,3.8129487305e+003,
2.1093750000e+000,3.9005129395e+003,3.8896154785e+003,3.9017949219e+003,3.9989743652e+003,3.8684614258e+003,3.8765385742e+003,3.9001281738e+003,3.8993588867e+003,3.9178205566e+003,3.9883332520e+003,3.8776923828e+003,3.9053845215e+003,3.8403845215e+003,3.8134614258e+003,
2.1171875000e+000,3.7782050781e+003,3.7584614258e+003,3.7861538086e+003,3.8746154785e+003,3.7458974609e+003,3.7515385742e+003,3.7851281738e+003,3.7819230957e+003,3.8042307129e+003,3.8743588867e+003,3.7603845215e+003,3.7907692871e+003,3.7179487305e+003,3.7043588867e+003,
2.1250000000e+000,3.8302563477e+003,3.8065385742e+003,3.8300000000e+003,3.9152563477e+003,3.7965385742e+003,3.8000000000e+003,3.8315385742e+003,3.8211538086e+003,3.8452563477e+003,3.9120512695e+003,3.8082050781e+003,3.8310256348e+003,3.7680769043e+003,3.7528205566e+003,
2.1328125000e+000,3.8742307129e+003,3.8515385742e+003,3.8739743652e+003,3.9625642090e+003,3.8167949219e+003,3.8419230957e+003,3.8711538086e+003,3.8643588867e+003,3.8882050781e+003,3.9582050781e+003,3.8533332520e+003,3.8726923828e+003,3.8160256348e+003,3.7965385742e+003,
2.1406250000e+000,3.8705129395e+003,3.8492307129e+003,3.8742307129e+003,3.9656411133e+003,3.7950000000e+003,3.8376923828e+003,3.8675642090e+003,3.8632050781e+003,3.8889743652e+003,3.9579487305e+003,3.8507692871e+003,3.8712819824e+003,3.8144870605e+003,3.7942307129e+003,
2.1484375000e+000,3.7779487305e+003,3.7553845215e+003,3.7876923828e+003,3.8793588867e+003,3.7220512695e+003,3.7502563477e+003,3.7851281738e+003,3.7756411133e+003,3.8064101563e+003,3.8682050781e+003,3.7529487305e+003,3.7829487305e+003,3.7173076172e+003,3.7006411133e+003,
2.1562500000e+000,3.7694870605e+003,3.7438461914e+003,3.7748718262e+003,3.8657692871e+003,3.7430769043e+003,3.7451281738e+003,3.7784614258e+003,3.7651281738e+003,3.7952563477e+003,3.8598718262e+003,3.7398718262e+003,3.7710256348e+003,3.7060256348e+003,3.6876923828e+003,
2.1640625000e+000,3.8685898438e+003,3.8403845215e+003,3.8617949219e+003,3.9550000000e+003,3.8733332520e+003,3.8453845215e+003,3.8694870605e+003,3.8551281738e+003,3.8816667480e+003,3.9597436523e+003,3.8347436523e+003,3.8623076172e+003,3.8093588867e+003,3.7816667480e+003,
2.1718750000e+000,3.9284614258e+003,3.9023076172e+003,3.9212819824e+003,4.0169230957e+003,3.9228205566e+003,3.9035898438e+003,3.9244870605e+003,3.9123076172e+003,3.9388461914e+003,4.0187180176e+003,3.8960256348e+003,3.9225642090e+003,3.8742307129e+003,3.8430769043e+003,
2.1796875000e+000,4.0339743652e+003,4.0233332520e+003,4.0337180176e+003,4.1306411133e+003,3.9950000000e+003,4.0091025391e+003,4.0278205566e+003,4.0258974609e+003,4.0501281738e+003,4.1264101563e+003,4.0148718262e+003,4.0380769043e+003,3.9842307129e+003,3.9541025391e+003,
2.1875000000e+000,4.0446154785e+003,4.0373076172e+003,4.0442307129e+003,4.1400000000e+003,4.0071794434e+003,4.0221794434e+003,4.0401281738e+003,4.0403845215e+003,4.0614101563e+003,4.1424360352e+003,4.0300000000e+003,4.0519230957e+003,3.9952563477e+003,3.9646154785e+003,
2.1953125000e+000,4.0373076172e+003,4.0301281738e+003,4.0378205566e+003,4.1352563477e+003,4.0012819824e+003,4.0178205566e+003,4.0353845215e+003,4.0360256348e+003,4.0547436523e+003,4.1407690430e+003,4.0265385742e+003,4.0469230957e+003,3.9907692871e+003,3.9569230957e+003,
2.2031250000e+000,4.0144870605e+003,4.0042307129e+003,4.0170512695e+003,4.1205126953e+003,3.9785898438e+003,3.9976923828e+003,4.0153845215e+003,4.0153845215e+003,4.0341025391e+003,4.1214101563e+003,4.0067949219e+003,4.0253845215e+003,3.9726923828e+003,3.9337180176e+003,
2.2109375000e+000,3.9492307129e+003,3.9317949219e+003,3.9514101563e+003,4.0503845215e+003,3.9262819824e+003,3.9337180176e+003,3.9538461914e+003,3.9519230957e+003,3.9756411133e+003,4.0455129395e+003,3.9320512695e+003,3.9658974609e+003,3.9116667480e+003,3.8669230957e+003,
2.2187500000e+000,3.9339743652e+003,3.9273076172e+003,3.9429487305e+003,4.0346154785e+003,3.8932050781e+003,3.9157692871e+003,3.9389743652e+003,3.9367949219e+003,3.9608974609e+003,4.0380769043e+003,3.9234614258e+003,3.9573076172e+003,3.9105129395e+003,3.8510256348e+003,
2.2265625000e+000,3.9226923828e+003,3.9056411133e+003,3.9262819824e+003,4.0144870605e+003,3.9024357910e+003,3.9039743652e+003,3.9302563477e+003,3.9198718262e+003,3.9439743652e+003,4.0244870605e+003,3.9060256348e+003,3.9407692871e+003,3.8956411133e+003,3.8326923828e+003,
2.2343750000e+000,3.9626923828e+003,3.9474357910e+003,3.9617949219e+003,4.0489743652e+003,3.9523076172e+003,3.9429487305e+003,3.9685898438e+003,3.9569230957e+003,3.9837180176e+003,4.0646154785e+003,3.9470512695e+003,3.9805129395e+003,3.9375642090e+003,3.8712819824e+003,
2.2421875000e+000,3.9824357910e+003,3.9692307129e+003,3.9837180176e+003,4.0753845215e+003,3.9275642090e+003,3.9576923828e+003,3.9800000000e+003,3.9760256348e+003,4.0025642090e+003,4.0842307129e+003,3.9664101563e+003,4.0034614258e+003,3.9561538086e+003,3.8928205566e+003,
2.2500000000e+000,3.9587180176e+003,3.9461538086e+003,3.9594870605e+003,4.0523076172e+003,3.8937180176e+003,3.9341025391e+003,3.9541025391e+003,3.9503845215e+003,3.9756411133e+003,4.0578205566e+003,3.9393588867e+003,3.9769230957e+003,3.9282050781e+003,3.8675642090e+003,
2.2578125000e+000,3.9237180176e+003,3.9134614258e+003,3.9232050781e+003,4.0146154785e+003,3.8905129395e+003,3.9035898438e+003,3.9217949219e+003,3.9152563477e+003,3.9389743652e+003,4.0226923828e+003,3.9044870605e+003,3.9371794434e+003,3.8926923828e+003,3.8302563477e+003,
2.2656250000e+000,3.9098718262e+003,3.8978205566e+003,3.9129487305e+003,4.0002563477e+003,3.8979487305e+003,3.8917949219e+003,3.9120512695e+003,3.9048718262e+003,3.9287180176e+003,4.0102563477e+003,3.8951281738e+003,3.9247436523e+003,3.8810256348e+003,3.8188461914e+003,
2.2734375000e+000,3.8232050781e+003,3.8035898438e+003,3.8375642090e+003,3.9171794434e+003,3.7861538086e+003,3.8084614258e+003,3.8351281738e+003,3.8273076172e+003,3.8570512695e+003,3.9202563477e+003,3.8084614258e+003,3.8446154785e+003,3.7905129395e+003,3.7403845215e+003,
2.2812500000e+000,3.7788461914e+003,3.7584614258e+003,3.7911538086e+003,3.8751281738e+003,3.7321794434e+003,3.7664101563e+003,3.7935898438e+003,3.7837180176e+003,3.8144870605e+003,3.8739743652e+003,3.7539743652e+003,3.8006411133e+003,3.7426923828e+003,3.6938461914e+003,
2.2890625000e+000,3.7033332520e+003,3.6771794434e+003,3.7101281738e+003,3.7994870605e+003,3.6682050781e+003,3.6898718262e+003,3.7216667480e+003,3.7080769043e+003,3.7396154785e+003,3.7943588867e+003,3.6603845215e+003,3.7234614258e+003,3.6632050781e+003,3.6121794434e+003,
2.2968750000e+000,3.6791025391e+003,3.6473076172e+003,3.6847436523e+003,3.7723076172e+003,3.6421794434e+003,3.6611538086e+003,3.6967949219e+003,3.6850000000e+003,3.7166667480e+003,3.7688461914e+003,3.6362819824e+003,3.6978205566e+003,3.6396154785e+003,3.5876923828e+003,
2.3046875000e+000,3.6253845215e+003,3.5841025391e+003,3.6305129395e+003,3.7110256348e+003,3.5524357910e+003,3.6052563477e+003,3.6425642090e+003,3.6358974609e+003,3.6707692871e+003,3.7164101563e+003,3.6058974609e+003,3.6453845215e+003,3.5880769043e+003,3.5419230957e+003,
2.3125000000e+000,3.6208974609e+003,3.5807692871e+003,3.6248718262e+003,3.7035898438e+003,3.5614101563e+003,3.6042307129e+003,3.6389743652e+003,3.6293588867e+003,3.6656411133e+003,3.7123076172e+003,3.5988461914e+003,3.6406411133e+003,3.5812819824e+003,3.5376923828e+003,
2.3203125000e+000,3.6301281738e+003,3.5905129395e+003,3.6321794434e+003,3.7096154785e+003,3.5929487305e+003,3.6139743652e+003,3.6476923828e+003,3.6350000000e+003,3.6717949219e+003,3.7211538086e+003,3.5966667480e+003,3.6475642090e+003,3.5876923828e+003,3.5450000000e+003,
2.3281250000e+000,3.6462819824e+003,3.6048718262e+003,3.6458974609e+003,3.7247436523e+003,3.6237180176e+003,3.6265385742e+003,3.6621794434e+003,3.6474357910e+003,3.6835898438e+003,3.7357692871e+003,3.5979487305e+003,3.6603845215e+003,3.6010256348e+003,3.5583332520e+003,
2.3359375000e+000,3.6519230957e+003,3.6125642090e+003,3.6442307129e+003,3.7512819824e+003,3.5929487305e+003,3.6292307129e+003,3.6633332520e+003,3.6480769043e+003,3.6794870605e+003,3.7323076172e+003,3.6091025391e+003,3.6603845215e+003,3.5943588867e+003,3.5552563477e+003,
2.3437500000e+000,3.6578205566e+003,3.6197436523e+003,3.6483332520e+003,3.7378205566e+003,3.5724357910e+003,3.6264101563e+003,3.6696154785e+003,3.6503845215e+003,3.6820512695e+003,3.7403845215e+003,3.6065385742e+003,3.6608974609e+003,3.6002563477e+003,3.5630769043e+003,
2.3515625000e+000,3.6428205566e+003,3.5957692871e+003,3.6337180176e+003,3.7253845215e+003,3.5591025391e+003,3.6092307129e+003,3.6556411133e+003,3.6353845215e+003,3.6651281738e+003,3.7220512695e+003,3.5846154785e+003,3.6429487305e+003,3.5846154785e+003,3.5488461914e+003,
2.3593750000e+000,3.6256411133e+003,3.5637180176e+003,3.6130769043e+003,3.7052563477e+003,3.5728205566e+003,3.5898718262e+003,3.6316667480e+003,3.6129487305e+003,3.6426923828e+003,3.6952563477e+003,3.5592307129e+003,3.6203845215e+003,3.5566667480e+003,3.5242307129e+003,
2.3671875000e+000,3.6255129395e+003,3.5603845215e+003,3.6121794434e+003,3.6971794434e+003,3.5803845215e+003,3.5864101563e+003,3.6274357910e+003,3.6076923828e+003,3.6389743652e+003,3.6888461914e+003,3.5560256348e+003,3.6185898438e+003,3.5470512695e+003,3.5193588867e+003,
2.3750000000e+000,3.6884614258e+003,3.6387180176e+003,3.6737180176e+003,3.7593588867e+003,3.6074357910e+003,3.6407692871e+003,3.6917949219e+003,3.6615385742e+003,3.6944870605e+003,3.7482050781e+003,3.6197436523e+003,3.6752563477e+003,3.5998718262e+003,3.5820512695e+003,
2.3828125000e+000,3.7473076172e+003,3.7064101563e+003,3.7293588867e+003,3.8228205566e+003,3.6751281738e+003,3.7062819824e+003,3.7480769043e+003,3.7244870605e+003,3.7530769043e+003,3.8192307129e+003,3.6862819824e+003,3.7419230957e+003,3.6685898438e+003,3.6511538086e+003,
2.3906250000e+000,3.7732050781e+003,3.7283332520e+003,3.7541025391e+003,3.8394870605e+003,3.7024357910e+003,3.7308974609e+003,3.7707692871e+003,3.7457692871e+003,3.7753845215e+003,3.8424357910e+003,3.7108974609e+003,3.7674357910e+003,3.6943588867e+003,3.6758974609e+003,
2.3984375000e+000,3.8375642090e+003,3.7911538086e+003,3.8156411133e+003,3.8956411133e+003,3.7651281738e+003,3.7929487305e+003,3.8314101563e+003,3.8039743652e+003,3.8346154785e+003,3.9042307129e+003,3.7765385742e+003,3.8274357910e+003,3.7597436523e+003,3.7366667480e+003,
2.4062500000e+000,3.9419230957e+003,3.8980769043e+003,3.9162819824e+003,3.9964101563e+003,3.8689743652e+003,3.8960256348e+003,3.9311538086e+003,3.9038461914e+003,3.9332050781e+003,4.0101281738e+003,3.8866667480e+003,3.9262819824e+003,3.8682050781e+003,3.8374357910e+003,
2.4140625000e+000,4.1437177734e+003,4.1292309570e+003,4.1191025391e+003,4.2079487305e+003,4.0894870605e+003,4.1052563477e+003,4.1191025391e+003,4.1187177734e+003,4.1387177734e+003,4.2435898438e+003,4.1207690430e+003,4.1353847656e+003,4.0985898438e+003,4.0512819824e+003,
2.4218750000e+000,4.0544870605e+003,4.0464101563e+003,4.0357692871e+003,4.1235898438e+003,4.0069230957e+003,4.0212819824e+003,4.0383332520e+003,4.0378205566e+003,4.0593588867e+003,4.1593588867e+003,4.0342307129e+003,4.0515385742e+003,4.0133332520e+003,3.9682050781e+003,
2.4296875000e+000,3.8243588867e+003,3.8060256348e+003,3.8183332520e+003,3.8896154785e+003,3.7855129395e+003,3.8014101563e+003,3.8316667480e+003,3.8150000000e+003,3.8433332520e+003,3.9323076172e+003,3.7926923828e+003,3.8265385742e+003,3.7811538086e+003,3.7448718262e+003,
2.4375000000e+000,3.7414101563e+003,3.7134614258e+003,3.7248718262e+003,3.7948718262e+003,3.6803845215e+003,3.7238461914e+003,3.7517949219e+003,3.7300000000e+003,3.7634614258e+003,3.8400000000e+003,3.7047436523e+003,3.7360256348e+003,3.6930769043e+003,3.6566667480e+003,
2.4453125000e+000,3.7685898438e+003,3.7492307129e+003,3.7506411133e+003,3.8283332520e+003,3.7071794434e+003,3.7526923828e+003,3.7816667480e+003,3.7566667480e+003,3.7876923828e+003,3.8606411133e+003,3.7285898438e+003,3.7600000000e+003,3.7193588867e+003,3.6807692871e+003,
2.4531250000e+000,4.0048718262e+003,3.9969230957e+003,3.9826923828e+003,4.0646154785e+003,3.9351281738e+003,3.9757692871e+003,3.9975642090e+003,3.9796154785e+003,4.0033332520e+003,4.0987177734e+003,3.9716667480e+003,3.9946154785e+003,3.9511538086e+003,3.9129487305e+003,
2.4609375000e+000,4.0321794434e+003,4.0183332520e+003,4.0106411133e+003,4.0833332520e+003,3.9550000000e+003,3.9976923828e+003,4.0185898438e+003,4.0026923828e+003,4.0276923828e+003,4.1287177734e+003,4.0038461914e+003,4.0247436523e+003,3.9789743652e+003,3.9426923828e+003,
2.4687500000e+000,4.2608974609e+003,4.2587177734e+003,4.2426923828e+003,4.3041025391e+003,4.1980771484e+003,4.2307690430e+003,4.2520512695e+003,4.2255126953e+003,4.2439741211e+003,4.3544873047e+003,4.2317949219e+003,4.2517949219e+003,4.2279487305e+003,4.1737177734e+003,
2.4765625000e+000,4.4380771484e+003,4.4498715820e+003,4.4184614258e+003,4.4837177734e+003,4.3894873047e+003,4.4120512695e+003,4.4252563477e+003,4.4030771484e+003,4.4143588867e+003,4.5406411133e+003,4.4165385742e+003,4.4288461914e+003,4.4134614258e+003,4.3501284180e+003,
2.4843750000e+000,4.6841025391e+003,4.7224360352e+003,4.6679487305e+003,4.7334614258e+003,4.6596152344e+003,4.6671796875e+003,4.6623076172e+003,4.6566665039e+003,4.6591025391e+003,4.8205126953e+003,4.6960258789e+003,4.6880771484e+003,4.6706411133e+003,4.6043588867e+003,
2.4921875000e+000,4.7083334961e+003,4.7584614258e+003,4.6978203125e+003,4.7610258789e+003,4.6983334961e+003,4.6974360352e+003,4.6888461914e+003,4.6884614258e+003,4.6912822266e+003,4.8597436523e+003,4.7388461914e+003,4.7233334961e+003,4.7007690430e+003,4.6375639648e+003,
2.5000000000e+000,4.6956411133e+003,4.7711538086e+003,4.7024360352e+003,4.7678203125e+003,4.7205126953e+003,4.7079487305e+003,4.6994873047e+003,4.7007690430e+003,4.7023076172e+003,4.8643588867e+003,4.7461538086e+003,4.7325639648e+003,4.7166665039e+003,4.6469228516e+003,
2.5078125000e+000,4.7298715820e+003,4.8065385742e+003,4.7407690430e+003,4.8021796875e+003,4.7410258789e+003,4.7457690430e+003,4.7366665039e+003,4.7371796875e+003,4.7341025391e+003,4.8975639648e+003,4.7752563477e+003,4.7669228516e+003,4.7551284180e+003,4.6811538086e+003,
2.5156250000e+000,4.8480771484e+003,4.9265385742e+003,4.8648715820e+003,4.9162822266e+003,4.8285898438e+003,4.8639741211e+003,4.8500000000e+003,4.8506411133e+003,4.8428203125e+003,5.0166665039e+003,4.8957690430e+003,4.8833334961e+003,4.8667949219e+003,4.7955126953e+003,
2.5234375000e+000,4.9087177734e+003,4.9970512695e+003,4.9303847656e+003,4.9838461914e+003,4.9024360352e+003,4.9294873047e+003,4.9111538086e+003,4.9139741211e+003,4.9066665039e+003,5.0856411133e+003,4.9712822266e+003,4.9498715820e+003,4.9265385742e+003,4.8603847656e+003,
2.5312500000e+000,4.9398715820e+003,5.0438461914e+003,4.9696152344e+003,5.0284614258e+003,4.9656411133e+003,4.9721796875e+003,4.9491025391e+003,4.9561538086e+003,4.9487177734e+003,5.1314101563e+003,5.0223076172e+003,4.9929487305e+003,4.9650000000e+003,4.9019228516e+003,
2.5390625000e+000,4.2853847656e+003,4.3917949219e+003,4.3605126953e+003,4.3874360352e+003,4.3044873047e+003,4.3637177734e+003,4.3534614258e+003,4.3616665039e+003,4.3617949219e+003,4.5046152344e+003,4.3625639648e+003,4.3734614258e+003,4.3400000000e+003,4.2807690430e+003,
2.5468750000e+000,4.1634614258e+003,4.2603847656e+003,4.2408974609e+003,4.2617949219e+003,4.1760258789e+003,4.2407690430e+003,4.2385898438e+003,4.2385898438e+003,4.2419228516e+003,4.3678203125e+003,4.2344873047e+003,4.2501284180e+003,4.2064101563e+003,4.1585898438e+003,
2.5546875000e+000,4.0907692871e+003,4.1753847656e+003,4.1653847656e+003,4.1771796875e+003,4.1170512695e+003,4.1635898438e+003,4.1724360352e+003,4.1612822266e+003,4.1697436523e+003,4.2757690430e+003,4.1585898438e+003,4.1706411133e+003,4.1269228516e+003,4.0875642090e+003,
2.5625000000e+000,4.0882050781e+003,4.1703847656e+003,4.1614101563e+003,4.1706411133e+003,4.1126923828e+003,4.1607690430e+003,4.1698715820e+003,4.1608974609e+003,4.1725639648e+003,4.2784614258e+003,4.1517949219e+003,4.1693588867e+003,4.1269228516e+003,4.0875642090e+003,
2.5703125000e+000,4.0457692871e+003,4.1143588867e+003,4.1182050781e+003,4.1270512695e+003,4.0710256348e+003,4.1151284180e+003,4.1253847656e+003,4.1210258789e+003,4.1353847656e+003,4.2378203125e+003,4.1037177734e+003,4.1334614258e+003,4.0753845215e+003,4.0501281738e+003,
2.5781250000e+000,4.0751281738e+003,4.1316665039e+003,4.1303847656e+003,4.1480771484e+003,4.0885898438e+003,4.1337177734e+003,4.1500000000e+003,4.1317949219e+003,4.1450000000e+003,4.2488461914e+003,4.1184614258e+003,4.1343588867e+003,4.0917949219e+003,4.0552563477e+003,
2.5859375000e+000,4.1262822266e+003,4.1878203125e+003,4.1793588867e+003,4.1919228516e+003,4.1324360352e+003,4.1811538086e+003,4.1985898438e+003,4.1792309570e+003,4.1942309570e+003,4.2993588867e+003,4.1691025391e+003,4.1805126953e+003,4.1464101563e+003,4.1025639648e+003,
2.5937500000e+000,4.1976923828e+003,4.2623076172e+003,4.2514101563e+003,4.2593588867e+003,4.1793588867e+003,4.2437177734e+003,4.2566665039e+003,4.2543588867e+003,4.2646152344e+003,4.3756411133e+003,4.2594873047e+003,4.2648715820e+003,4.2216665039e+003,4.1900000000e+003,
2.6015625000e+000,4.1333334961e+003,4.1914101563e+003,4.1892309570e+003,4.1946152344e+003,4.1087177734e+003,4.1792309570e+003,4.1923076172e+003,4.1912822266e+003,4.2010258789e+003,4.3102563477e+003,4.1889741211e+003,4.2030771484e+003,4.1543588867e+003,4.1284614258e+003,
2.6093750000e+000,4.0985898438e+003,4.1478203125e+003,4.1542309570e+003,4.1493588867e+003,4.0965385742e+003,4.1473076172e+003,4.1623076172e+003,4.1476923828e+003,4.1623076172e+003,4.2664101563e+003,4.1262822266e+003,4.1557690430e+003,4.1096152344e+003,4.0828205566e+003,
2.6171875000e+000,4.2057690430e+003,4.2574360352e+003,4.2571796875e+003,4.2489741211e+003,4.2241025391e+003,4.2533334961e+003,4.2661538086e+003,4.2475639648e+003,4.2629487305e+003,4.3710258789e+003,4.2308974609e+003,4.2539741211e+003,4.2142309570e+003,4.1837177734e+003,
2.6250000000e+000,4.3547436523e+003,4.4187177734e+003,4.4029487305e+003,4.3942309570e+003,4.3562822266e+003,4.3878203125e+003,4.3933334961e+003,4.4041025391e+003,4.4124360352e+003,4.5361538086e+003,4.4220512695e+003,4.4119228516e+003,4.3730771484e+003,4.3474360352e+003,
2.6328125000e+000,4.1776923828e+003,4.2396152344e+003,4.2324360352e+003,4.2216665039e+003,4.1657690430e+003,4.2142309570e+003,4.2220512695e+003,4.2376923828e+003,4.2488461914e+003,4.3648715820e+003,4.2474360352e+003,4.2438461914e+003,4.1984614258e+003,4.1779487305e+003,
2.6406250000e+000,3.9616667480e+003,4.0166667480e+003,4.0233332520e+003,4.0082050781e+003,3.9503845215e+003,4.0062819824e+003,4.0192307129e+003,4.0293588867e+003,4.0460256348e+003,4.1493588867e+003,4.0225642090e+003,4.0329487305e+003,3.9805129395e+003,3.9646154785e+003,
2.6484375000e+000,3.7948718262e+003,3.8391025391e+003,3.8619230957e+003,3.8398718262e+003,3.7944870605e+003,3.8473076172e+003,3.8671794434e+003,3.8650000000e+003,3.8865385742e+003,3.9766667480e+003,3.8414101563e+003,3.8669230957e+003,3.8074357910e+003,3.7962819824e+003,
2.6562500000e+000,3.7380769043e+003,3.7538461914e+003,3.7978205566e+003,3.7714101563e+003,3.6961538086e+003,3.7752563477e+003,3.8120512695e+003,3.7958974609e+003,3.8221794434e+003,3.8864101563e+003,3.7506411133e+003,3.7921794434e+003,3.7300000000e+003,3.7275642090e+003,
2.6640625000e+000,3.7311538086e+003,3.7375642090e+003,3.7756411133e+003,3.7620512695e+003,3.6817949219e+003,3.7576923828e+003,3.7956411133e+003,3.7761538086e+003,3.8028205566e+003,3.8696154785e+003,3.7344870605e+003,3.7778205566e+003,3.7066667480e+003,3.7088461914e+003,
2.6718750000e+000,3.7637180176e+003,3.7666667480e+003,3.8047436523e+003,3.7858974609e+003,3.7306411133e+003,3.7865385742e+003,3.8248718262e+003,3.8046154785e+003,3.8296154785e+003,3.8984614258e+003,3.7641025391e+003,3.8092307129e+003,3.7348718262e+003,3.7384614258e+003,
2.6796875000e+000,3.8178205566e+003,3.8176923828e+003,3.8497436523e+003,3.8201281738e+003,3.7853845215e+003,3.8282050781e+003,3.8612819824e+003,3.8469230957e+003,3.8691025391e+003,3.9443588867e+003,3.8165385742e+003,3.8488461914e+003,3.7835898438e+003,3.7893588867e+003,
2.6875000000e+000,3.8437180176e+003,3.8430769043e+003,3.8729487305e+003,3.8485898438e+003,3.7989743652e+003,3.8535898438e+003,3.8855129395e+003,3.8669230957e+003,3.8889743652e+003,3.9671794434e+003,3.8458974609e+003,3.8706411133e+003,3.8080769043e+003,3.8144870605e+003,
2.6953125000e+000,3.9910256348e+003,3.9964101563e+003,4.0103845215e+003,4.0008974609e+003,3.9426923828e+003,3.9985898438e+003,4.0264101563e+003,4.0029487305e+003,4.0251281738e+003,4.1132050781e+003,3.9961538086e+003,4.0128205566e+003,3.9606411133e+003,3.9558974609e+003,
2.7031250000e+000,4.0811538086e+003,4.0921794434e+003,4.0957692871e+003,4.0876923828e+003,4.0448718262e+003,4.0841025391e+003,4.1092309570e+003,4.0897436523e+003,4.1116665039e+003,4.2067949219e+003,4.0829487305e+003,4.0998715820e+003,4.0573076172e+003,4.0421794434e+003,
2.7109375000e+000,4.1671796875e+003,4.1833334961e+003,4.1852563477e+003,4.1601284180e+003,4.1371796875e+003,4.1621796875e+003,4.1828203125e+003,4.1747436523e+003,4.1951284180e+003,4.3073076172e+003,4.1606411133e+003,4.1829487305e+003,4.1478203125e+003,4.1308974609e+003,
2.7187500000e+000,4.1302563477e+003,4.1465385742e+003,4.1514101563e+003,4.1264101563e+003,4.0837180176e+003,4.1306411133e+003,4.1506411133e+003,4.1416665039e+003,4.1619228516e+003,4.2739741211e+003,4.1287177734e+003,4.1506411133e+003,4.1067949219e+003,4.0978203125e+003,
2.7265625000e+000,3.9876923828e+003,4.0141025391e+003,4.0129487305e+003,4.0011538086e+003,3.9412819824e+003,4.0043588867e+003,4.0217949219e+003,4.0097436523e+003,4.0305129395e+003,4.1296152344e+003,3.9930769043e+003,4.0124357910e+003,3.9610256348e+003,3.9556411133e+003,
2.7343750000e+000,3.9778205566e+003,4.0050000000e+003,4.0023076172e+003,3.9906411133e+003,3.9487180176e+003,3.9911538086e+003,4.0094870605e+003,3.9978205566e+003,4.0188461914e+003,4.1152563477e+003,3.9801281738e+003,3.9971794434e+003,3.9523076172e+003,3.9444870605e+003,
2.7421875000e+000,3.9858974609e+003,4.0078205566e+003,4.0055129395e+003,3.9930769043e+003,3.9697436523e+003,3.9947436523e+003,4.0164101563e+003,4.0073076172e+003,4.0288461914e+003,4.1243588867e+003,3.9937180176e+003,4.0025642090e+003,3.9632050781e+003,3.9578205566e+003,
2.7500000000e+000,3.9700000000e+003,3.9894870605e+003,3.9887180176e+003,3.9774357910e+003,3.9491025391e+003,3.9838461914e+003,4.0064101563e+003,3.9976923828e+003,4.0202563477e+003,4.1139741211e+003,3.9842307129e+003,3.9929487305e+003,3.9489743652e+003,3.9474357910e+003,
2.7578125000e+000,3.9380769043e+003,3.9558974609e+003,3.9579487305e+003,3.9466667480e+003,3.9134614258e+003,3.9583332520e+003,3.9801281738e+003,3.9721794434e+003,3.9962819824e+003,4.0865385742e+003,3.9548718262e+003,3.9683332520e+003,3.9175642090e+003,3.9198718262e+003,
2.7656250000e+000,3.7712819824e+003,3.7639743652e+003,3.7958974609e+003,3.7475642090e+003,3.7062819824e+003,3.7791025391e+003,3.8151281738e+003,3.7952563477e+003,3.8258974609e+003,3.9005129395e+003,3.7688461914e+003,3.7971794434e+003,3.7342307129e+003,3.7567949219e+003,
2.7734375000e+000,3.8675642090e+003,3.8642307129e+003,3.8842307129e+003,3.8458974609e+003,3.7971794434e+003,3.8716667480e+003,3.9069230957e+003,3.8801281738e+003,3.9107692871e+003,3.9900000000e+003,3.8611538086e+003,3.8870512695e+003,3.8279487305e+003,3.8487180176e+003,
2.7812500000e+000,4.3037177734e+003,4.3233334961e+003,4.3011538086e+003,4.2847436523e+003,4.2855126953e+003,4.2906411133e+003,4.3056411133e+003,4.2938461914e+003,4.3147436523e+003,4.4310258789e+003,4.3011538086e+003,4.3062822266e+003,4.2708974609e+003,4.2702563477e+003,
2.7890625000e+000,4.3005126953e+003,4.3316665039e+003,4.3138461914e+003,4.2676923828e+003,4.2680771484e+003,4.3002563477e+003,4.3120512695e+003,4.3103847656e+003,4.3170512695e+003,4.4489741211e+003,4.3137177734e+003,4.3216665039e+003,4.2798715820e+003,4.2778203125e+003,
2.7968750000e+000,4.2715385742e+003,4.3083334961e+003,4.2887177734e+003,4.2410258789e+003,4.2257690430e+003,4.2794873047e+003,4.2896152344e+003,4.2897436523e+003,4.2970512695e+003,4.4276923828e+003,4.2891025391e+003,4.2971796875e+003,4.2569228516e+003,4.2546152344e+003,
2.8046875000e+000,4.1557690430e+003,4.2030771484e+003,4.1885898438e+003,4.1457690430e+003,4.1402563477e+003,4.1753847656e+003,4.1846152344e+003,4.1851284180e+003,4.2028203125e+003,4.3225639648e+003,4.1900000000e+003,4.1870512695e+003,4.1501284180e+003,4.1515385742e+003,
2.8125000000e+000,3.9266667480e+003,3.9650000000e+003,3.9653845215e+003,3.9201281738e+003,3.9244870605e+003,3.9505129395e+003,3.9675642090e+003,3.9682050781e+003,3.9878205566e+003,4.0957692871e+003,3.9553845215e+003,3.9635898438e+003,3.9182050781e+003,3.9230769043e+003,
2.8203125000e+000,3.8558974609e+003,3.8841025391e+003,3.8943588867e+003,3.8496154785e+003,3.8307692871e+003,3.8788461914e+003,3.9005129395e+003,3.9008974609e+003,3.9216667480e+003,4.0212819824e+003,3.8774357910e+003,3.8957692871e+003,3.8450000000e+003,3.8539743652e+003,
2.8281250000e+000,3.8024357910e+003,3.8196154785e+003,3.8394870605e+003,3.7955129395e+003,3.7553845215e+003,3.8211538086e+003,3.8480769043e+003,3.8458974609e+003,3.8689743652e+003,3.9589743652e+003,3.8184614258e+003,3.8425642090e+003,3.7864101563e+003,3.8024357910e+003,
2.8359375000e+000,3.8025642090e+003,3.8085898438e+003,3.8321794434e+003,3.7878205566e+003,3.7517949219e+003,3.8057692871e+003,3.8382050781e+003,3.8255129395e+003,3.8550000000e+003,3.9347436523e+003,3.8133332520e+003,3.8314101563e+003,3.7760256348e+003,3.7998718262e+003,
2.8437500000e+000,3.8783332520e+003,3.8855129395e+003,3.9035898438e+003,3.8558974609e+003,3.8424357910e+003,3.8730769043e+003,3.9035898438e+003,3.8876923828e+003,3.9182050781e+003,4.0025642090e+003,3.8867949219e+003,3.8989743652e+003,3.8511538086e+003,3.8697436523e+003,
2.8515625000e+000,4.1993588867e+003,4.2242309570e+003,4.2152563477e+003,4.1667949219e+003,4.1766665039e+003,4.1880771484e+003,4.2021796875e+003,4.1993588867e+003,4.2230771484e+003,4.3374360352e+003,4.2120512695e+003,4.2157690430e+003,4.1871796875e+003,4.1838461914e+003,
2.8593750000e+000,4.2203847656e+003,4.2525639648e+003,4.2346152344e+003,4.1932050781e+003,4.1924360352e+003,4.2160258789e+003,4.2260258789e+003,4.2276923828e+003,4.2502563477e+003,4.3675639648e+003,4.2394873047e+003,4.2434614258e+003,4.2112822266e+003,4.2103847656e+003,
2.8671875000e+000,4.1566665039e+003,4.1911538086e+003,4.1733334961e+003,4.1362822266e+003,4.1298715820e+003,4.1639741211e+003,4.1751284180e+003,4.1719228516e+003,4.1923076172e+003,4.3075639648e+003,4.1811538086e+003,4.1898715820e+003,4.1438461914e+003,4.1546152344e+003,
2.8750000000e+000,4.1621796875e+003,4.1920512695e+003,4.1819228516e+003,4.1405126953e+003,4.1383334961e+003,4.1688461914e+003,4.1833334961e+003,4.1746152344e+003,4.1929487305e+003,4.3094873047e+003,4.1855126953e+003,4.1944873047e+003,4.1469228516e+003,4.1575639648e+003,
2.8828125000e+000,4.2178203125e+003,4.2450000000e+003,4.2401284180e+003,4.1950000000e+003,4.1948715820e+003,4.2210258789e+003,4.2378203125e+003,4.2266665039e+003,4.2426923828e+003,4.3644873047e+003,4.2425639648e+003,4.2474360352e+003,4.2035898438e+003,4.2091025391e+003,
2.8906250000e+000,4.0819230957e+003,4.1208974609e+003,4.1182050781e+003,4.0798718262e+003,4.0738461914e+003,4.1002563477e+003,4.1233334961e+003,4.1183334961e+003,4.1324360352e+003,4.2487177734e+003,4.1092309570e+003,4.1230771484e+003,4.0830769043e+003,4.0887180176e+003,
2.8984375000e+000,4.0203845215e+003,4.0558974609e+003,4.0592307129e+003,4.0208974609e+003,4.0225642090e+003,4.0430769043e+003,4.0683332520e+003,4.0575642090e+003,4.0742307129e+003,4.1825639648e+003,4.0382050781e+003,4.0576923828e+003,4.0176923828e+003,4.0247436523e+003,
2.9062500000e+000,3.9739743652e+003,4.0160256348e+003,4.0143588867e+003,3.9775642090e+003,3.9791025391e+003,4.0111538086e+003,4.0355129395e+003,4.0220512695e+003,4.0338461914e+003,4.1343588867e+003,4.0034614258e+003,4.0153845215e+003,3.9594870605e+003,3.9753845215e+003,
2.9140625000e+000,4.0434614258e+003,4.0682050781e+003,4.0662819824e+003,4.0235898438e+003,4.0432050781e+003,4.0641025391e+003,4.0916667480e+003,4.0723076172e+003,4.0871794434e+003,4.1830771484e+003,4.0642307129e+003,4.0737180176e+003,4.0253845215e+003,4.0333332520e+003,
2.9218750000e+000,4.1052563477e+003,4.1283334961e+003,4.1265385742e+003,4.0787180176e+003,4.0952563477e+003,4.1185898438e+003,4.1467949219e+003,4.1275639648e+003,4.1433334961e+003,4.2419228516e+003,4.1208974609e+003,4.1323076172e+003,4.0891025391e+003,4.0928205566e+003,
2.9296875000e+000,4.1150000000e+003,4.1564101563e+003,4.1461538086e+003,4.0898718262e+003,4.0819230957e+003,4.1338461914e+003,4.1520512695e+003,4.1498715820e+003,4.1619228516e+003,4.2725639648e+003,4.1374360352e+003,4.1556411133e+003,4.1137177734e+003,4.1133334961e+003,
2.9375000000e+000,4.0793588867e+003,4.1202563477e+003,4.1080771484e+003,4.0560256348e+003,4.0625642090e+003,4.0994873047e+003,4.1161538086e+003,4.1167949219e+003,4.1296152344e+003,4.2370512695e+003,4.1071796875e+003,4.1219228516e+003,4.0791025391e+003,4.0793588867e+003,
2.9453125000e+000,4.1124360352e+003,4.1442309570e+003,4.1355126953e+003,4.0892307129e+003,4.1334614258e+003,4.1238461914e+003,4.1442309570e+003,4.1397436523e+003,4.1560258789e+003,4.2570512695e+003,4.1460258789e+003,4.1515385742e+003,4.1078203125e+003,4.1098715820e+003,
2.9531250000e+000,4.1594873047e+003,4.1898715820e+003,4.1851284180e+003,4.1361538086e+003,4.1817949219e+003,4.1673076172e+003,4.1885898438e+003,4.1815385742e+003,4.1983334961e+003,4.3025639648e+003,4.1930771484e+003,4.1982050781e+003,4.1558974609e+003,4.1557690430e+003,
2.9609375000e+000,4.1356411133e+003,4.1737177734e+003,4.1743588867e+003,4.1166665039e+003,4.1185898438e+003,4.1474360352e+003,4.1658974609e+003,4.1634614258e+003,4.1733334961e+003,4.2862822266e+003,4.1592309570e+003,4.1826923828e+003,4.1457690430e+003,4.1310258789e+003,
2.9687500000e+000,4.1589741211e+003,4.1964101563e+003,4.1935898438e+003,4.1362822266e+003,4.1408974609e+003,4.1662822266e+003,4.1864101563e+003,4.1823076172e+003,4.1906411133e+003,4.3012822266e+003,4.1810258789e+003,4.2035898438e+003,4.1685898438e+003,4.1506411133e+003,
2.9765625000e+000,4.5426923828e+003,4.5919228516e+003,4.5579487305e+003,4.5060258789e+003,4.5420512695e+003,4.5443588867e+003,4.5574360352e+003,4.5496152344e+003,4.5555126953e+003,4.6869228516e+003,4.5905126953e+003,4.5810258789e+003,4.5592309570e+003,4.5302563477e+003,
2.9843750000e+000,4.5998715820e+003,4.6576923828e+003,4.6187177734e+003,4.5700000000e+003,4.5939741211e+003,4.6115385742e+003,4.6192309570e+003,4.6150000000e+003,4.6183334961e+003,4.7583334961e+003,4.6570512695e+003,4.6455126953e+003,4.6252563477e+003,4.5916665039e+003,
2.9921875000e+000,4.4815385742e+003,4.5461538086e+003,4.5158974609e+003,4.4715385742e+003,4.4641025391e+003,4.5087177734e+003,4.5156411133e+003,4.5162822266e+003,4.5157690430e+003,4.6530771484e+003,4.5414101563e+003,4.5385898438e+003,4.5187177734e+003,4.4758974609e+003,
3.0000000000e+000,4.3980771484e+003,4.4628203125e+003,4.4370512695e+003,4.3917949219e+003,4.3864101563e+003,4.4262822266e+003,4.4358974609e+003,4.4362822266e+003,4.4356411133e+003,4.5674360352e+003,4.4538461914e+003,4.4544873047e+003,4.4375639648e+003,4.3897436523e+003,
3.0078125000e+000,4.3567949219e+003,4.4228203125e+003,4.3967949219e+003,4.3478203125e+003,4.3602563477e+003,4.3851284180e+003,4.3957690430e+003,4.3950000000e+003,4.3944873047e+003,4.5228203125e+003,4.4078203125e+003,4.4105126953e+003,4.3979487305e+003,4.3458974609e+003,
3.0156250000e+000,4.5379487305e+003,4.6132050781e+003,4.5810258789e+003,4.5384614258e+003,4.5797436523e+003,4.5810258789e+003,4.5887177734e+003,4.5912822266e+003,4.5873076172e+003,4.7132050781e+003,4.6200000000e+003,4.6161538086e+003,4.5843588867e+003,4.5439741211e+003,
3.0234375000e+000,4.5293588867e+003,4.6088461914e+003,4.5752563477e+003,4.5408974609e+003,4.5675639648e+003,4.5747436523e+003,4.5812822266e+003,4.5880771484e+003,4.5824360352e+003,4.7142309570e+003,4.6214101563e+003,4.6110258789e+003,4.5851284180e+003,4.5373076172e+003,
3.0312500000e+000,4.4811538086e+003,4.5664101563e+003,4.5352563477e+003,4.4914101563e+003,4.5324360352e+003,4.5337177734e+003,4.5344873047e+003,4.5416665039e+003,4.5398715820e+003,4.6730771484e+003,4.5642309570e+003,4.5625639648e+003,4.5558974609e+003,4.4878203125e+003,
3.0390625000e+000,4.5107690430e+003,4.5961538086e+003,4.5643588867e+003,4.5178203125e+003,4.5548715820e+003,4.5616665039e+003,4.5642309570e+003,4.5705126953e+003,4.5701284180e+003,4.6997436523e+003,4.5921796875e+003,4.5941025391e+003,4.5844873047e+003,4.5175639648e+003,
3.0468750000e+000,4.5616665039e+003,4.6535898438e+003,4.6138461914e+003,4.5720512695e+003,4.5773076172e+003,4.6091025391e+003,4.6161538086e+003,4.6248715820e+003,4.6217949219e+003,4.7500000000e+003,4.6492309570e+003,4.6515385742e+003,4.6320512695e+003,4.5702563477e+003,
3.0546875000e+000,4.5906411133e+003,4.6850000000e+003,4.6543588867e+003,4.5926923828e+003,4.6506411133e+003,4.6419228516e+003,4.6435898438e+003,4.6508974609e+003,4.6520512695e+003,4.7728203125e+003,4.6876923828e+003,4.6784614258e+003,4.6494873047e+003,4.5926923828e+003,
3.0625000000e+000,4.6285898438e+003,4.7182050781e+003,4.6942309570e+003,4.6298715820e+003,4.6828203125e+003,4.6766665039e+003,4.6808974609e+003,4.6871796875e+003,4.6907690430e+003,4.8094873047e+003,4.7265385742e+003,4.7171796875e+003,4.6902563477e+003,4.6319228516e+003,
3.0703125000e+000,4.6521796875e+003,4.7487177734e+003,4.7167949219e+003,4.6601284180e+003,4.6847436523e+003,4.7019228516e+003,4.7093588867e+003,4.7184614258e+003,4.7184614258e+003,4.8425639648e+003,4.7467949219e+003,4.7416665039e+003,4.7308974609e+003,4.6647436523e+003,
3.0781250000e+000,4.6323076172e+003,4.7387177734e+003,4.6961538086e+003,4.6421796875e+003,4.6729487305e+003,4.6893588867e+003,4.6948715820e+003,4.7051284180e+003,4.7025639648e+003,4.8301284180e+003,4.7258974609e+003,4.7216665039e+003,4.7187177734e+003,4.6487177734e+003,
3.0859375000e+000,4.6332050781e+003,4.7544873047e+003,4.7073076172e+003,4.6435898438e+003,4.7342309570e+003,4.7096152344e+003,4.7091025391e+003,4.7135898438e+003,4.7128203125e+003,4.8371796875e+003,4.7489741211e+003,4.7316665039e+003,4.7155126953e+003,4.6548715820e+003,
3.0937500000e+000,4.6911538086e+003,4.8129487305e+003,4.7667949219e+003,4.7057690430e+003,4.7865385742e+003,4.7664101563e+003,4.7664101563e+003,4.7710258789e+003,4.7693588867e+003,4.8932050781e+003,4.8173076172e+003,4.7934614258e+003,4.7723076172e+003,4.7158974609e+003,
3.1015625000e+000,4.8573076172e+003,4.9803847656e+003,4.9287177734e+003,4.8746152344e+003,4.9034614258e+003,4.9193588867e+003,4.9150000000e+003,4.9329487305e+003,4.9238461914e+003,5.0612822266e+003,4.9838461914e+003,4.9634614258e+003,4.9492309570e+003,4.8914101563e+003,
3.1093750000e+000,4.8214101563e+003,4.9460258789e+003,4.8969228516e+003,4.8329487305e+003,4.8744873047e+003,4.8834614258e+003,4.8774360352e+003,4.8976923828e+003,4.8902563477e+003,5.0312822266e+003,4.9467949219e+003,4.9321796875e+003,4.9175639648e+003,4.8594873047e+003,
3.1171875000e+000,4.6208974609e+003,4.7500000000e+003,4.7106411133e+003,4.6301284180e+003,4.7110258789e+003,4.6948715820e+003,4.6929487305e+003,4.7078203125e+003,4.7092309570e+003,4.8428203125e+003,4.7588461914e+003,4.7434614258e+003,4.7258974609e+003,4.6697436523e+003,
3.1250000000e+000,4.5383334961e+003,4.6669228516e+003,4.6320512695e+003,4.5542309570e+003,4.6394873047e+003,4.6191025391e+003,4.6226923828e+003,4.6312822266e+003,4.6355126953e+003,4.7592309570e+003,4.6833334961e+003,4.6637177734e+003,4.6435898438e+003,4.5915385742e+003,
3.1328125000e+000,4.5208974609e+003,4.6478203125e+003,4.6147436523e+003,4.5446152344e+003,4.6206411133e+003,4.6052563477e+003,4.6133334961e+003,4.6166665039e+003,4.6200000000e+003,4.7351284180e+003,4.6678203125e+003,4.6461538086e+003,4.6224360352e+003,4.5764101563e+003,
3.1406250000e+000,4.7357690430e+003,4.8748715820e+003,4.8274360352e+003,4.7700000000e+003,4.8184614258e+003,4.8170512695e+003,4.8098715820e+003,4.8265385742e+003,4.8230771484e+003,4.9538461914e+003,4.8719228516e+003,4.8550000000e+003,4.8438461914e+003,4.7921796875e+003,
3.1484375000e+000,4.7019228516e+003,4.8432050781e+003,4.7982050781e+003,4.7428203125e+003,4.7932050781e+003,4.7865385742e+003,4.7817949219e+003,4.7950000000e+003,4.7924360352e+003,4.9214101563e+003,4.8466665039e+003,4.8234614258e+003,4.8129487305e+003,4.7616665039e+003,
3.1562500000e+000,4.7071796875e+003,4.8683334961e+003,4.8076923828e+003,4.7507690430e+003,4.7947436523e+003,4.8007690430e+003,4.7979487305e+003,4.8096152344e+003,4.8061538086e+003,4.9270512695e+003,4.8650000000e+003,4.8362822266e+003,4.8170512695e+003,4.7748715820e+003,
3.1640625000e+000,4.6930771484e+003,4.8591025391e+003,4.7994873047e+003,4.7394873047e+003,4.7853847656e+003,4.7919228516e+003,4.7865385742e+003,4.8012822266e+003,4.7965385742e+003,4.9174360352e+003,4.8500000000e+003,4.8244873047e+003,4.8044873047e+003,4.7625639648e+003,
3.1718750000e+000,4.6508974609e+003,4.8147436523e+003,4.7675639648e+003,4.7066665039e+003,4.7633334961e+003,4.7555126953e+003,4.7511538086e+003,4.7641025391e+003,4.7560258789e+003,4.8771796875e+003,4.8026923828e+003,4.7776923828e+003,4.7670512695e+003,4.7196152344e+003,
3.1796875000e+000,4.7521796875e+003,4.9182050781e+003,4.8539741211e+003,4.7902563477e+003,4.8630771484e+003,4.8424360352e+003,4.8394873047e+003,4.8525639648e+003,4.8438461914e+003,4.9628203125e+003,4.9052563477e+003,4.8644873047e+003,4.8576923828e+003,4.8191025391e+003,
3.1875000000e+000,4.7696152344e+003,4.9365385742e+003,4.8716665039e+003,4.8030771484e+003,4.8765385742e+003,4.8574360352e+003,4.8525639648e+003,4.8632050781e+003,4.8580771484e+003,4.9776923828e+003,4.9192309570e+003,4.8802563477e+003,4.8761538086e+003,4.8376923828e+003,
3.1953125000e+000,4.8100000000e+003,4.9737177734e+003,4.9101284180e+003,4.8376923828e+003,4.9083334961e+003,4.8898715820e+003,4.8837177734e+003,4.8878203125e+003,4.8867949219e+003,5.0139741211e+003,4.9547436523e+003,4.9171796875e+003,4.9166665039e+003,4.8788461914e+003,
3.2031250000e+000,4.8243588867e+003,4.9857690430e+003,4.9214101563e+003,4.8470512695e+003,4.9208974609e+003,4.8992309570e+003,4.8937177734e+003,4.8966665039e+003,4.8937177734e+003,5.0233334961e+003,4.9674360352e+003,4.9314101563e+003,4.9256411133e+003,4.8944873047e+003,
3.2109375000e+000,4.8146152344e+003,4.9693588867e+003,4.9015385742e+003,4.8247436523e+003,4.8910258789e+003,4.8730771484e+003,4.8652563477e+003,4.8752563477e+003,4.8667949219e+003,4.9878203125e+003,4.9396152344e+003,4.9115385742e+003,4.8962822266e+003,4.8850000000e+003,
3.2187500000e+000,4.7996152344e+003,4.9526923828e+003,4.8851284180e+003,4.8139741211e+003,4.8512822266e+003,4.8525639648e+003,4.8438461914e+003,4.8562822266e+003,4.8487177734e+003,4.9673076172e+003,4.9188461914e+003,4.8894873047e+003,4.8810258789e+003,4.8667949219e+003,
3.2265625000e+000,4.7491025391e+003,4.8957690430e+003,4.8315385742e+003,4.7616665039e+003,4.7803847656e+003,4.7885898438e+003,4.7848715820e+003,4.7937177734e+003,4.7897436523e+003,4.9003847656e+003,4.8576923828e+003,4.8285898438e+003,4.8153847656e+003,4.8120512695e+003,
3.2343750000e+000,4.7361538086e+003,4.8805126953e+003,4.8150000000e+003,4.7379487305e+003,4.7956411133e+003,4.7748715820e+003,4.7705126953e+003,4.7789741211e+003,4.7764101563e+003,4.8810258789e+003,4.8403847656e+003,4.8148715820e+003,4.7929487305e+003,4.8010258789e+003,
3.2421875000e+000,4.7098715820e+003,4.8506411133e+003,4.7847436523e+003,4.6997436523e+003,4.8023076172e+003,4.7515385742e+003,4.7452563477e+003,4.7550000000e+003,4.7530771484e+003,4.8484614258e+003,4.8033334961e+003,4.7884614258e+003,4.7615385742e+003,4.7788461914e+003,
3.2500000000e+000,4.7001284180e+003,4.8405126953e+003,4.7761538086e+003,4.6956411133e+003,4.7819228516e+003,4.7424360352e+003,4.7382050781e+003,4.7484614258e+003,4.7441025391e+003,4.8391025391e+003,4.7923076172e+003,4.7791025391e+003,4.7558974609e+003,4.7697436523e+003,
3.2578125000e+000,4.6944873047e+003,4.8374360352e+003,4.7720512695e+003,4.7011538086e+003,4.7607690430e+003,4.7366665039e+003,4.7356411133e+003,4.7467949219e+003,4.7391025391e+003,4.8356411133e+003,4.7905126953e+003,4.7737177734e+003,4.7561538086e+003,4.7635898438e+003,
3.2656250000e+000,4.6894873047e+003,4.8376923828e+003,4.7680771484e+003,4.7078203125e+003,4.7502563477e+003,4.7326923828e+003,4.7342309570e+003,4.7465385742e+003,4.7361538086e+003,4.8343588867e+003,4.7925639648e+003,4.7689741211e+003,4.7573076172e+003,4.7576923828e+003,
3.2734375000e+000,4.7311538086e+003,4.8717949219e+003,4.8197436523e+003,4.7585898438e+003,4.8055126953e+003,4.7901284180e+003,4.7919228516e+003,4.7989741211e+003,4.7870512695e+003,4.8835898438e+003,4.8337177734e+003,4.8194873047e+003,4.8030771484e+003,4.7979487305e+003,
3.2812500000e+000,4.8793588867e+003,5.0402563477e+003,4.9791025391e+003,4.9264101563e+003,4.9907690430e+003,4.9601284180e+003,4.9593588867e+003,4.9680771484e+003,4.9469228516e+003,5.0678203125e+003,5.0337177734e+003,4.9934614258e+003,4.9766665039e+003,4.9644873047e+003,
3.2890625000e+000,4.8943588867e+003,5.0597436523e+003,5.0000000000e+003,4.9371796875e+003,5.0216665039e+003,4.9823076172e+003,4.9793588867e+003,4.9905126953e+003,4.9676923828e+003,5.0908974609e+003,5.0608974609e+003,5.0130771484e+003,5.0023076172e+003,4.9815385742e+003,
3.2968750000e+000,4.9105126953e+003,5.0770512695e+003,5.0234614258e+003,4.9492309570e+003,5.0284614258e+003,5.0067949219e+003,4.9971796875e+003,5.0188461914e+003,4.9967949219e+003,5.1155126953e+003,5.0788461914e+003,5.0303847656e+003,5.0323076172e+003,4.9952563477e+003,
3.3046875000e+000,4.8796152344e+003,5.0500000000e+003,4.9953847656e+003,4.9241025391e+003,4.9888461914e+003,4.9805126953e+003,4.9691025391e+003,4.9941025391e+003,4.9750000000e+003,5.0897436523e+003,5.0460258789e+003,5.0021796875e+003,5.0051284180e+003,4.9662822266e+003,
3.3125000000e+000,4.6892309570e+003,4.8671796875e+003,4.8160258789e+003,4.7439741211e+003,4.8256411133e+003,4.8033334961e+003,4.7962822266e+003,4.8091025391e+003,4.7973076172e+003,4.9024360352e+003,4.8573076172e+003,4.8220512695e+003,4.8126923828e+003,4.7869228516e+003,
3.3203125000e+000,4.7096152344e+003,4.8752563477e+003,4.8373076172e+003,4.7475639648e+003,4.8592309570e+003,4.8250000000e+003,4.8210258789e+003,4.8325639648e+003,4.8165385742e+003,4.9106411133e+003,4.8794873047e+003,4.8396152344e+003,4.8269228516e+003,4.8065385742e+003,
3.3281250000e+000,4.6821796875e+003,4.8500000000e+003,4.8088461914e+003,4.7238461914e+003,4.8139741211e+003,4.8007690430e+003,4.7960258789e+003,4.8094873047e+003,4.7929487305e+003,4.8866665039e+003,4.8541025391e+003,4.8115385742e+003,4.8012822266e+003,4.7801284180e+003,
3.3359375000e+000,4.6215385742e+003,4.7920512695e+003,4.7478203125e+003,4.6694873047e+003,4.7369228516e+003,4.7439741211e+003,4.7382050781e+003,4.7515385742e+003,4.7361538086e+003,4.8302563477e+003,4.7928203125e+003,4.7494873047e+003,4.7437177734e+003,4.7208974609e+003,
3.3437500000e+000,4.5347436523e+003,4.7001284180e+003,4.6614101563e+003,4.5852563477e+003,4.6507690430e+003,4.6570512695e+003,4.6528203125e+003,4.6617949219e+003,4.6500000000e+003,4.7364101563e+003,4.6925639648e+003,4.6601284180e+003,4.6543588867e+003,4.6353847656e+003,
3.3515625000e+000,4.5566665039e+003,4.7157690430e+003,4.6826923828e+003,4.6006411133e+003,4.6842309570e+003,4.6726923828e+003,4.6720512695e+003,4.6796152344e+003,4.6688461914e+003,4.7476923828e+003,4.7070512695e+003,4.6811538086e+003,4.6676923828e+003,4.6556411133e+003,
3.3593750000e+000,4.6596152344e+003,4.8184614258e+003,4.7787177734e+003,4.6887177734e+003,4.7843588867e+003,4.7673076172e+003,4.7657690430e+003,4.7794873047e+003,4.7715385742e+003,4.8485898438e+003,4.8191025391e+003,4.7794873047e+003,4.7589741211e+003,4.7507690430e+003,
3.3671875000e+000,4.5769228516e+003,4.7289741211e+003,4.6993588867e+003,4.6129487305e+003,4.7019228516e+003,4.6978203125e+003,4.6851284180e+003,4.7008974609e+003,4.6885898438e+003,4.7660258789e+003,4.7257690430e+003,4.6906411133e+003,4.6853847656e+003,4.6674360352e+003,
3.3750000000e+000,4.5480771484e+003,4.6989741211e+003,4.6720512695e+003,4.5884614258e+003,4.6847436523e+003,4.6689741211e+003,4.6584614258e+003,4.6725639648e+003,4.6615385742e+003,4.7323076172e+003,4.6932050781e+003,4.6615385742e+003,4.6537177734e+003,4.6397436523e+003,
3.3828125000e+000,4.5248715820e+003,4.6784614258e+003,4.6489741211e+003,4.5696152344e+003,4.6641025391e+003,4.6452563477e+003,4.6388461914e+003,4.6502563477e+003,4.6424360352e+003,4.7078203125e+003,4.6712822266e+003,4.6388461914e+003,4.6291025391e+003,4.6179487305e+003,
3.3906250000e+000,4.5125639648e+003,4.6694873047e+003,4.6364101563e+003,4.5602563477e+003,4.6402563477e+003,4.6330771484e+003,4.6307690430e+003,4.6391025391e+003,4.6339741211e+003,4.6973076172e+003,4.6621796875e+003,4.6275639648e+003,4.6187177734e+003,4.6074360352e+003,
3.3984375000e+000,4.5044873047e+003,4.6457690430e+003,4.6269228516e+003,4.5428203125e+003,4.6224360352e+003,4.6182050781e+003,4.6207690430e+003,4.6367949219e+003,4.6298715820e+003,4.6884614258e+003,4.6542309570e+003,4.6253847656e+003,4.6061538086e+003,4.6042309570e+003,
3.4062500000e+000,4.4083334961e+003,4.5485898438e+003,4.5315385742e+003,4.4488461914e+003,4.5452563477e+003,4.5241025391e+003,4.5274360352e+003,4.5461538086e+003,4.5417949219e+003,4.5923076172e+003,4.5628203125e+003,4.5314101563e+003,4.5048715820e+003,4.5097436523e+003,
3.4140625000e+000,4.0616667480e+003,4.1798715820e+003,4.1855126953e+003,4.1028203125e+003,4.1778203125e+003,4.1810258789e+003,4.1994873047e+003,4.1966665039e+003,4.2042309570e+003,4.2233334961e+003,4.1878203125e+003,4.1715385742e+003,4.1439741211e+003,4.1576923828e+003,
3.4218750000e+000,4.0919230957e+003,4.1857690430e+003,4.1996152344e+003,4.1112822266e+003,4.1750000000e+003,4.1862822266e+003,4.2137177734e+003,4.2088461914e+003,4.2173076172e+003,4.2250000000e+003,4.1888461914e+003,4.1870512695e+003,4.1474360352e+003,4.1717949219e+003,
3.4296875000e+000,4.0660256348e+003,4.1542309570e+003,4.1723076172e+003,4.0798718262e+003,4.1402563477e+003,4.1551284180e+003,4.1844873047e+003,4.1829487305e+003,4.1907690430e+003,4.1947436523e+003,4.1623076172e+003,4.1596152344e+003,4.1171796875e+003,4.1433334961e+003,
