Time (s);AF3;F7;F3;FC5;T7;P7;O1;O2;P8;T8;FC6;F4;F8;AF4;Sampling Rate
0.0000000000e+000;4.3205126953e+003;4.2558974609e+003;4.2405126953e+003;4.2846152344e+003;4.2658974609e+003;4.2507690430e+003;4.2606411133e+003;4.2461538086e+003;4.2338461914e+003;4.2543588867e+003;4.2393588867e+003;4.2388461914e+003;4.2419228516e+003;4.2283334961e+003;128
7.8125000000e-003;4.3819228516e+003;4.3253847656e+003;4.3017949219e+003;4.3421796875e+003;4.3308974609e+003;4.3150000000e+003;4.3237177734e+003;4.3093588867e+003;4.2952563477e+003;4.3223076172e+003;4.3076923828e+003;4.3010258789e+003;4.3097436523e+003;4.2911538086e+003;
1.5625000000e-002;4.3080771484e+003;4.2569228516e+003;4.2425639648e+003;4.2707690430e+003;4.2603847656e+003;4.2529487305e+003;4.2525639648e+003;4.2451284180e+003;4.2396152344e+003;4.2682050781e+003;4.2519228516e+003;4.2465385742e+003;4.2514101563e+003;4.2339741211e+003;
2.3437500000e-002;4.2394873047e+003;4.1850000000e+003;4.1774360352e+003;4.2038461914e+003;4.1901284180e+003;4.1855126953e+003;4.1833334961e+003;4.1734614258e+003;4.1710258789e+003;4.1955126953e+003;4.1815385742e+003;4.1812822266e+003;4.1839741211e+003;4.1676923828e+003;
3.1250000000e-002;4.1066665039e+003;4.0497436523e+003;4.0498718262e+003;4.0791025391e+003;4.0516667480e+003;4.0517949219e+003;4.0480769043e+003;4.0416667480e+003;4.0479487305e+003;4.0641025391e+003;4.0521794434e+003;4.0534614258e+003;4.0560256348e+003;4.0370512695e+003;
3.9062500000e-002;4.0378205566e+003;3.9803845215e+003;3.9823076172e+003;4.0126923828e+003;3.9806411133e+003;3.9835898438e+003;3.9796154785e+003;3.9760256348e+003;3.9887180176e+003;3.9975642090e+003;3.9860256348e+003;3.9852563477e+003;3.9860256348e+003;3.9697436523e+003;
4.6875000000e-002;3.8948718262e+003;3.8315385742e+003;3.8367949219e+003;3.8694870605e+003;3.8302563477e+003;3.8419230957e+003;3.8341025391e+003;3.8360256348e+003;3.8570512695e+003;3.8519230957e+003;3.8439743652e+003;3.8410256348e+003;3.8389743652e+003;3.8319230957e+003;
5.4687500000e-002;3.8335898438e+003;3.7656411133e+003;3.7730769043e+003;3.8087180176e+003;3.7632050781e+003;3.7814101563e+003;3.7697436523e+003;3.7773076172e+003;3.7956411133e+003;3.7882050781e+003;3.7819230957e+003;3.7816667480e+003;3.7782050781e+003;3.7733332520e+003;
6.2500000000e-002;3.7703845215e+003;3.6974357910e+003;3.7075642090e+003;3.7476923828e+003;3.6939743652e+003;3.7187180176e+003;3.7035898438e+003;3.7175642090e+003;3.7305129395e+003;3.7224357910e+003;3.7169230957e+003;3.7211538086e+003;3.7157692871e+003;3.7108974609e+003;
7.0312500000e-002;4.1214101563e+003;4.0407692871e+003;4.0330769043e+003;4.0712819824e+003;4.0400000000e+003;4.0373076172e+003;4.0506411133e+003;4.0352563477e+003;4.0452563477e+003;4.0324357910e+003;4.0346154785e+003;4.0314101563e+003;4.0428205566e+003;4.0323076172e+003;
7.8125000000e-002;4.5229487305e+003;4.4558974609e+003;4.4300000000e+003;4.4585898438e+003;4.4473076172e+003;4.4196152344e+003;4.4406411133e+003;4.4261538086e+003;4.4335898438e+003;4.4382050781e+003;4.4357690430e+003;4.4274360352e+003;4.4460258789e+003;4.4314101563e+003;
8.5937500000e-002;5.2239741211e+003;5.2269228516e+003;5.1706411133e+003;5.1615385742e+003;5.2007690430e+003;5.1125639648e+003;5.1352563477e+003;5.1812822266e+003;5.1816665039e+003;5.2416665039e+003;5.1970512695e+003;5.1803847656e+003;5.1939741211e+003;5.1703847656e+003;
9.3750000000e-002;4.6065385742e+003;4.6211538086e+003;4.5952563477e+003;4.5797436523e+003;4.6108974609e+003;4.5726923828e+003;4.5785898438e+003;4.6007690430e+003;4.5991025391e+003;4.6434614258e+003;4.6073076172e+003;4.6051284180e+003;4.6014101563e+003;4.5930771484e+003;
1.0156250000e-001;4.5052563477e+003;4.5202563477e+003;4.4948715820e+003;4.4853847656e+003;4.5121796875e+003;4.4878203125e+003;4.4903847656e+003;4.4946152344e+003;4.4911538086e+003;4.5317949219e+003;4.5052563477e+003;4.5041025391e+003;4.5047436523e+003;4.4955126953e+003;
1.0937500000e-001;4.4298715820e+003;4.4493588867e+003;4.4274360352e+003;4.4241025391e+003;4.4483334961e+003;4.4316665039e+003;4.4292309570e+003;4.4146152344e+003;4.4056411133e+003;4.4474360352e+003;4.4347436523e+003;4.4360258789e+003;4.4396152344e+003;4.4271796875e+003;
1.1718750000e-001;4.3407690430e+003;4.3487177734e+003;4.3371796875e+003;4.3330771484e+003;4.3514101563e+003;4.3365385742e+003;4.3361538086e+003;4.3182050781e+003;4.3137177734e+003;4.3369228516e+003;4.3300000000e+003;4.3392309570e+003;4.3346152344e+003;4.3320512695e+003;
1.2500000000e-001;4.3348715820e+003;4.3448715820e+003;4.3330771484e+003;4.3305126953e+003;4.3443588867e+003;4.3332050781e+003;4.3324360352e+003;4.3182050781e+003;4.3161538086e+003;4.3335898438e+003;4.3251284180e+003;4.3362822266e+003;4.3270512695e+003;4.3267949219e+003;
1.3281250000e-001;4.3257690430e+003;4.3406411133e+003;4.3278203125e+003;4.3269228516e+003;4.3373076172e+003;4.3310258789e+003;4.3284614258e+003;4.3208974609e+003;4.3207690430e+003;4.3347436523e+003;4.3225639648e+003;4.3337177734e+003;4.3206411133e+003;4.3203847656e+003;
1.4062500000e-001;4.2871796875e+003;4.3060258789e+003;4.2924360352e+003;4.2939741211e+003;4.3046152344e+003;4.3041025391e+003;4.3021796875e+003;4.3093588867e+003;4.3133334961e+003;4.3217949219e+003;4.2996152344e+003;4.3057690430e+003;4.2934614258e+003;4.2871796875e+003;
1.4843750000e-001;4.2650000000e+003;4.2793588867e+003;4.2679487305e+003;4.2687177734e+003;4.2810258789e+003;4.2802563477e+003;4.2823076172e+003;4.2935898438e+003;4.3007690430e+003;4.3046152344e+003;4.2798715820e+003;4.2834614258e+003;4.2742309570e+003;4.2667949219e+003;
1.5625000000e-001;4.2707690430e+003;4.2760258789e+003;4.2655126953e+003;4.2646152344e+003;4.2712822266e+003;4.2625639648e+003;4.2715385742e+003;4.2848715820e+003;4.2957690430e+003;4.2967949219e+003;4.2810258789e+003;4.2771796875e+003;4.2742309570e+003;4.2726923828e+003;
1.6406250000e-001;4.3016665039e+003;4.3119228516e+003;4.2964101563e+003;4.2982050781e+003;4.3003847656e+003;4.2888461914e+003;4.2952563477e+003;4.3115385742e+003;4.3201284180e+003;4.3282050781e+003;4.3137177734e+003;4.3066665039e+003;4.3062822266e+003;4.3016665039e+003;
1.7187500000e-001;4.3687177734e+003;4.3900000000e+003;4.3660258789e+003;4.3733334961e+003;4.3715385742e+003;4.3532050781e+003;4.3576923828e+003;4.3787177734e+003;4.3837177734e+003;4.4047436523e+003;4.3846152344e+003;4.3757690430e+003;4.3816665039e+003;4.3680771484e+003;
1.7968750000e-001;4.4007690430e+003;4.4246152344e+003;4.3996152344e+003;4.4074360352e+003;4.4078203125e+003;4.3841025391e+003;4.3914101563e+003;4.4126923828e+003;4.4185898438e+003;4.4403847656e+003;4.4161538086e+003;4.4085898438e+003;4.4170512695e+003;4.4025639648e+003;
1.8750000000e-001;4.4289741211e+003;4.4546152344e+003;4.4297436523e+003;4.4365385742e+003;4.4408974609e+003;4.4117949219e+003;4.4217949219e+003;4.4442309570e+003;4.4524360352e+003;4.4714101563e+003;4.4434614258e+003;4.4369228516e+003;4.4467949219e+003;4.4344873047e+003;
1.9531250000e-001;4.5679487305e+003;4.6042309570e+003;4.5800000000e+003;4.5839741211e+003;4.5943588867e+003;4.5615385742e+003;4.5723076172e+003;4.5830771484e+003;4.5929487305e+003;4.6096152344e+003;4.5802563477e+003;4.5826923828e+003;4.5828203125e+003;4.5701284180e+003;
2.0312500000e-001;4.6853847656e+003;4.7273076172e+003;4.7000000000e+003;4.6987177734e+003;4.7201284180e+003;4.6793588867e+003;4.6953847656e+003;4.6997436523e+003;4.7082050781e+003;4.7315385742e+003;4.7007690430e+003;4.7011538086e+003;4.7070512695e+003;4.6889741211e+003;
2.1093750000e-001;4.7444873047e+003;4.8003847656e+003;4.7835898438e+003;4.7662822266e+003;4.7978203125e+003;4.7646152344e+003;4.7776923828e+003;4.7798715820e+003;4.7742309570e+003;4.8080771484e+003;4.7753847656e+003;4.7783334961e+003;4.7753847656e+003;4.7674360352e+003;
2.1875000000e-001;4.7007690430e+003;4.7682050781e+003;4.7533334961e+003;4.7346152344e+003;4.7664101563e+003;4.7371796875e+003;4.7507690430e+003;4.7429487305e+003;4.7258974609e+003;4.7651284180e+003;4.7420512695e+003;4.7457690430e+003;4.7403847656e+003;4.7346152344e+003;
2.2656250000e-001;4.7007690430e+003;4.7693588867e+003;4.7539741211e+003;4.7344873047e+003;4.7693588867e+003;4.7389741211e+003;4.7517949219e+003;4.7450000000e+003;4.7274360352e+003;4.7689741211e+003;4.7476923828e+003;4.7488461914e+003;4.7478203125e+003;4.7384614258e+003;
2.3437500000e-001;4.7000000000e+003;4.7724360352e+003;4.7547436523e+003;4.7306411133e+003;4.7700000000e+003;4.7450000000e+003;4.7555126953e+003;4.7525639648e+003;4.7384614258e+003;4.7742309570e+003;4.7539741211e+003;4.7538461914e+003;4.7500000000e+003;4.7464101563e+003;
2.4218750000e-001;4.7923076172e+003;4.8737177734e+003;4.8487177734e+003;4.8235898438e+003;4.8685898438e+003;4.8371796875e+003;4.8519228516e+003;4.8494873047e+003;4.8376923828e+003;4.8738461914e+003;4.8523076172e+003;4.8483334961e+003;4.8473076172e+003;4.8423076172e+003;
2.5000000000e-001;5.1355126953e+003;5.2430771484e+003;5.1989741211e+003;5.1673076172e+003;5.2321796875e+003;5.1708974609e+003;5.1969228516e+003;5.2056411133e+003;5.2007690430e+003;5.2492309570e+003;5.2193588867e+003;5.2024360352e+003;5.2183334961e+003;5.1983334961e+003;
2.5781250000e-001;5.2620512695e+003;5.3839741211e+003;5.3332050781e+003;5.2939741211e+003;5.3679487305e+003;5.2934614258e+003;5.3191025391e+003;5.3442309570e+003;5.3438461914e+003;5.3997436523e+003;5.3619228516e+003;5.3398715820e+003;5.3625639648e+003;5.3365385742e+003;
2.6562500000e-001;4.9810258789e+003;5.1303847656e+003;5.0829487305e+003;5.0315385742e+003;5.0980771484e+003;5.0421796875e+003;5.0430771484e+003;5.1037177734e+003;5.1037177734e+003;5.1587177734e+003;5.1098715820e+003;5.0932050781e+003;5.1061538086e+003;5.0901284180e+003;
2.7343750000e-001;4.8876923828e+003;5.0388461914e+003;4.9935898438e+003;4.9464101563e+003;5.0075639648e+003;4.9593588867e+003;4.9596152344e+003;5.0089741211e+003;5.0067949219e+003;5.0571796875e+003;5.0143588867e+003;4.9997436523e+003;5.0121796875e+003;4.9973076172e+003;
2.8125000000e-001;4.9147436523e+003;5.0667949219e+003;5.0202563477e+003;4.9778203125e+003;5.0388461914e+003;4.9873076172e+003;4.9929487305e+003;5.0287177734e+003;5.0271796875e+003;5.0752563477e+003;5.0382050781e+003;5.0217949219e+003;5.0401284180e+003;5.0210258789e+003;
2.8906250000e-001;5.0078203125e+003;5.1619228516e+003;5.1125639648e+003;5.0719228516e+003;5.1365385742e+003;5.0747436523e+003;5.0865385742e+003;5.1175639648e+003;5.1205126953e+003;5.1679487305e+003;5.1320512695e+003;5.1123076172e+003;5.1373076172e+003;5.1124360352e+003;
2.9687500000e-001;4.4551284180e+003;4.5983334961e+003;4.5829487305e+003;4.5397436523e+003;4.5808974609e+003;4.5570512695e+003;4.5535898438e+003;4.6046152344e+003;4.6132050781e+003;4.6293588867e+003;4.5971796875e+003;4.5939741211e+003;4.5915385742e+003;4.5870512695e+003;
3.0468750000e-001;4.6665385742e+003;4.7956411133e+003;4.7701284180e+003;4.7429487305e+003;4.7843588867e+003;4.7571796875e+003;4.7715385742e+003;4.7682050781e+003;4.7684614258e+003;4.7848715820e+003;4.7766665039e+003;4.7684614258e+003;4.7769228516e+003;4.7691025391e+003;
3.1250000000e-001;4.7894873047e+003;4.9217949219e+003;4.8951284180e+003;4.8602563477e+003;4.9094873047e+003;4.8782050781e+003;4.8917949219e+003;4.8914101563e+003;4.8898715820e+003;4.9125639648e+003;4.8991025391e+003;4.8943588867e+003;4.8998715820e+003;4.8946152344e+003;
3.2031250000e-001;4.8152563477e+003;4.9562822266e+003;4.9319228516e+003;4.8876923828e+003;4.9483334961e+003;4.9221796875e+003;4.9255126953e+003;4.9330771484e+003;4.9224360352e+003;4.9570512695e+003;4.9378203125e+003;4.9346152344e+003;4.9374360352e+003;4.9316665039e+003;
3.2812500000e-001;4.7747436523e+003;4.9188461914e+003;4.8952563477e+003;4.8525639648e+003;4.9146152344e+003;4.8925639648e+003;4.8912822266e+003;4.8980771484e+003;4.8828203125e+003;4.9223076172e+003;4.9047436523e+003;4.8996152344e+003;4.9024360352e+003;4.8941025391e+003;
3.3593750000e-001;4.7351284180e+003;4.8719228516e+003;4.8539741211e+003;4.8160258789e+003;4.8746152344e+003;4.8474360352e+003;4.8483334961e+003;4.8464101563e+003;4.8303847656e+003;4.8707690430e+003;4.8607690430e+003;4.8552563477e+003;4.8543588867e+003;4.8502563477e+003;
3.4375000000e-001;4.6169228516e+003;4.7519228516e+003;4.7438461914e+003;4.7061538086e+003;4.7466665039e+003;4.7288461914e+003;4.7308974609e+003;4.7400000000e+003;4.7242309570e+003;4.7546152344e+003;4.7379487305e+003;4.7417949219e+003;4.7388461914e+003;4.7362822266e+003;
3.5156250000e-001;4.5711538086e+003;4.7065385742e+003;4.6993588867e+003;4.6643588867e+003;4.6994873047e+003;4.6869228516e+003;4.6891025391e+003;4.6978203125e+003;4.6816665039e+003;4.7084614258e+003;4.6935898438e+003;4.6958974609e+003;4.6953847656e+003;4.6891025391e+003;
3.5937500000e-001;4.5960258789e+003;4.7308974609e+003;4.7203847656e+003;4.6884614258e+003;4.7246152344e+003;4.7102563477e+003;4.7142309570e+003;4.7205126953e+003;4.7067949219e+003;4.7311538086e+003;4.7184614258e+003;4.7157690430e+003;4.7192309570e+003;4.7078203125e+003;
3.6718750000e-001;4.8152563477e+003;4.9512822266e+003;4.9278203125e+003;4.8962822266e+003;4.9484614258e+003;4.9135898438e+003;4.9214101563e+003;4.9328203125e+003;4.9303847656e+003;4.9529487305e+003;4.9369228516e+003;4.9267949219e+003;4.9337177734e+003;4.9137177734e+003;
3.7500000000e-001;4.7858974609e+003;4.9311538086e+003;4.9076923828e+003;4.8680771484e+003;4.9210258789e+003;4.8815385742e+003;4.8803847656e+003;4.9146152344e+003;4.9171796875e+003;4.9341025391e+003;4.9125639648e+003;4.9116665039e+003;4.9110258789e+003;4.8894873047e+003;
3.8281250000e-001;4.6946152344e+003;4.8400000000e+003;4.8174360352e+003;4.7803847656e+003;4.8271796875e+003;4.7929487305e+003;4.7906411133e+003;4.8229487305e+003;4.8228203125e+003;4.8393588867e+003;4.8206411133e+003;4.8187177734e+003;4.8206411133e+003;4.7974360352e+003;
3.9062500000e-001;4.6403847656e+003;4.7825639648e+003;4.7600000000e+003;4.7271796875e+003;4.7687177734e+003;4.7379487305e+003;4.7375639648e+003;4.7642309570e+003;4.7611538086e+003;4.7780771484e+003;4.7634614258e+003;4.7587177734e+003;4.7639741211e+003;4.7397436523e+003;
3.9843750000e-001;4.6232050781e+003;4.7542309570e+003;4.7330771484e+003;4.7058974609e+003;4.7412822266e+003;4.7117949219e+003;4.7153847656e+003;4.7374360352e+003;4.7347436523e+003;4.7474360352e+003;4.7391025391e+003;4.7317949219e+003;4.7374360352e+003;4.7176923828e+003;
4.0625000000e-001;4.5860258789e+003;4.7134614258e+003;4.6947436523e+003;4.6674360352e+003;4.7007690430e+003;4.6737177734e+003;4.6753847656e+003;4.7025639648e+003;4.7026923828e+003;4.7098715820e+003;4.7025639648e+003;4.6958974609e+003;4.6989741211e+003;4.6829487305e+003;
4.1406250000e-001;4.4902563477e+003;4.6151284180e+003;4.6001284180e+003;4.5726923828e+003;4.6026923828e+003;4.5826923828e+003;4.5802563477e+003;4.6143588867e+003;4.6169228516e+003;4.6176923828e+003;4.6098715820e+003;4.6048715820e+003;4.6046152344e+003;4.5917949219e+003;
4.2187500000e-001;3.7879487305e+003;3.8551281738e+003;3.8719230957e+003;3.8787180176e+003;3.8666667480e+003;3.9091025391e+003;3.9008974609e+003;3.8941025391e+003;3.8898718262e+003;3.8569230957e+003;3.8714101563e+003;3.8765385742e+003;3.8721794434e+003;3.8644870605e+003;
4.2968750000e-001;3.8079487305e+003;3.8623076172e+003;3.8807692871e+003;3.8896154785e+003;3.8757692871e+003;3.9192307129e+003;3.9123076172e+003;3.8960256348e+003;3.8923076172e+003;3.8557692871e+003;3.8776923828e+003;3.8800000000e+003;3.8803845215e+003;3.8705129395e+003;
4.3750000000e-001;3.8929487305e+003;3.9241025391e+003;3.9478205566e+003;3.9546154785e+003;3.9315385742e+003;3.9710256348e+003;3.9626923828e+003;3.9470512695e+003;3.9348718262e+003;3.9101281738e+003;3.9353845215e+003;3.9485898438e+003;3.9403845215e+003;3.9328205566e+003;
4.4531250000e-001;3.6574357910e+003;3.6625642090e+003;3.6958974609e+003;3.7156411133e+003;3.6702563477e+003;3.7266667480e+003;3.7096154785e+003;3.6878205566e+003;3.6755129395e+003;3.6446154785e+003;3.6807692871e+003;3.7051281738e+003;3.6774357910e+003;3.6857692871e+003;
4.5312500000e-001;3.6024357910e+003;3.5929487305e+003;3.6323076172e+003;3.6547436523e+003;3.6052563477e+003;3.6650000000e+003;3.6494870605e+003;3.6201281738e+003;3.6116667480e+003;3.5715385742e+003;3.6155129395e+003;3.6385898438e+003;3.6102563477e+003;3.6219230957e+003;
4.6093750000e-001;3.8350000000e+003;3.8064101563e+003;3.8398718262e+003;3.8621794434e+003;3.8229487305e+003;3.8656411133e+003;3.8616667480e+003;3.8391025391e+003;3.8398718262e+003;3.7911538086e+003;3.8258974609e+003;3.8388461914e+003;3.8297436523e+003;3.8289743652e+003;
4.6875000000e-001;4.0153845215e+003;3.9900000000e+003;4.0141025391e+003;4.0288461914e+003;4.0020512695e+003;4.0316667480e+003;4.0292307129e+003;4.0305129395e+003;4.0447436523e+003;3.9993588867e+003;4.0132050781e+003;4.0182050781e+003;4.0094870605e+003;4.0053845215e+003;
4.7656250000e-001;4.0051281738e+003;3.9756411133e+003;4.0006411133e+003;4.0134614258e+003;3.9901281738e+003;4.0169230957e+003;4.0142307129e+003;4.0200000000e+003;4.0380769043e+003;3.9906411133e+003;4.0050000000e+003;4.0055129395e+003;3.9979487305e+003;3.9947436523e+003;
4.8437500000e-001;3.9225642090e+003;3.8880769043e+003;3.9170512695e+003;3.9288461914e+003;3.9058974609e+003;3.9306411133e+003;3.9255129395e+003;3.9428205566e+003;3.9597436523e+003;3.9073076172e+003;3.9156411133e+003;3.9271794434e+003;3.9183332520e+003;3.9165385742e+003;
4.9218750000e-001;3.9271794434e+003;3.8951281738e+003;3.9219230957e+003;3.9320512695e+003;3.9088461914e+003;3.9316667480e+003;3.9283332520e+003;3.9460256348e+003;3.9607692871e+003;3.9101281738e+003;3.9138461914e+003;3.9307692871e+003;3.9214101563e+003;3.9191025391e+003;
5.0000000000e-001;3.9617949219e+003;3.9271794434e+003;3.9506411133e+003;3.9579487305e+003;3.9366667480e+003;3.9530769043e+003;3.9553845215e+003;3.9721794434e+003;3.9852563477e+003;3.9400000000e+003;3.9434614258e+003;3.9537180176e+003;3.9496154785e+003;3.9452563477e+003;
5.0781250000e-001;3.9558974609e+003;3.9155129395e+003;3.9410256348e+003;3.9482050781e+003;3.9275642090e+003;3.9430769043e+003;3.9475642090e+003;3.9617949219e+003;3.9750000000e+003;3.9298718262e+003;3.9392307129e+003;3.9428205566e+003;3.9400000000e+003;3.9362819824e+003;
5.1562500000e-001;3.9605129395e+003;3.9189743652e+003;3.9407692871e+003;3.9498718262e+003;3.9311538086e+003;3.9530769043e+003;3.9566667480e+003;3.9574357910e+003;3.9708974609e+003;3.9239743652e+003;3.9397436523e+003;3.9457692871e+003;3.9391025391e+003;3.9347436523e+003;
5.2343750000e-001;3.9882050781e+003;3.9511538086e+003;3.9684614258e+003;3.9787180176e+003;3.9605129395e+003;3.9853845215e+003;3.9857692871e+003;3.9853845215e+003;3.9970512695e+003;3.9533332520e+003;3.9639743652e+003;3.9726923828e+003;3.9683332520e+003;3.9606411133e+003;
5.3125000000e-001;4.0079487305e+003;3.9728205566e+003;3.9883332520e+003;4.0003845215e+003;3.9824357910e+003;4.0096154785e+003;4.0071794434e+003;4.0052563477e+003;4.0138461914e+003;3.9744870605e+003;3.9816667480e+003;3.9901281738e+003;3.9893588867e+003;3.9796154785e+003;
5.3906250000e-001;4.0160256348e+003;3.9794870605e+003;3.9958974609e+003;4.0098718262e+003;3.9926923828e+003;4.0205129395e+003;4.0169230957e+003;4.0112819824e+003;4.0164101563e+003;3.9815385742e+003;3.9889743652e+003;3.9948718262e+003;3.9966667480e+003;3.9884614258e+003;
5.4687500000e-001;3.9567949219e+003;3.9130769043e+003;3.9310256348e+003;3.9407692871e+003;3.9320512695e+003;3.9624357910e+003;3.9571794434e+003;3.9335898438e+003;3.9329487305e+003;3.9075642090e+003;3.9262819824e+003;3.9356411133e+003;3.9333332520e+003;3.9356411133e+003;
5.5468750000e-001;3.9257692871e+003;3.8805129395e+003;3.9007692871e+003;3.9089743652e+003;3.8958974609e+003;3.9316667480e+003;3.9260256348e+003;3.8985898438e+003;3.8965385742e+003;3.8715385742e+003;3.8935898438e+003;3.9047436523e+003;3.9011538086e+003;3.9050000000e+003;
5.6250000000e-001;4.0008974609e+003;3.9553845215e+003;3.9711538086e+003;3.9829487305e+003;3.9710256348e+003;3.9951281738e+003;3.9976923828e+003;3.9697436523e+003;3.9729487305e+003;3.9523076172e+003;3.9753845215e+003;3.9723076172e+003;3.9774357910e+003;3.9751281738e+003;
5.7031250000e-001;3.9876923828e+003;3.9446154785e+003;3.9547436523e+003;3.9608974609e+003;3.9530769043e+003;3.9785898438e+003;3.9761538086e+003;3.9702563477e+003;3.9832050781e+003;3.9588461914e+003;3.9678205566e+003;3.9688461914e+003;3.9760256348e+003;3.9658974609e+003;
5.7812500000e-001;3.9561538086e+003;3.9114101563e+003;3.9241025391e+003;3.9273076172e+003;3.9173076172e+003;3.9446154785e+003;3.9437180176e+003;3.9430769043e+003;3.9557692871e+003;3.9280769043e+003;3.9351281738e+003;3.9370512695e+003;3.9451281738e+003;3.9361538086e+003;
5.8593750000e-001;3.9194870605e+003;3.8701281738e+003;3.8874357910e+003;3.8898718262e+003;3.8753845215e+003;3.8975642090e+003;3.9061538086e+003;3.9197436523e+003;3.9333332520e+003;3.8975642090e+003;3.9010256348e+003;3.8989743652e+003;3.9028205566e+003;3.8973076172e+003;
5.9375000000e-001;3.7921794434e+003;3.7250000000e+003;3.7552563477e+003;3.7605129395e+003;3.7362819824e+003;3.7633332520e+003;3.7682050781e+003;3.7846154785e+003;3.8012819824e+003;3.7482050781e+003;3.7592307129e+003;3.7683332520e+003;3.7602563477e+003;3.7598718262e+003;
6.0156250000e-001;3.7476923828e+003;3.6738461914e+003;3.7102563477e+003;3.7146154785e+003;3.6856411133e+003;3.7152563477e+003;3.7216667480e+003;3.7347436523e+003;3.7469230957e+003;3.6903845215e+003;3.7062819824e+003;3.7217949219e+003;3.7083332520e+003;3.7123076172e+003;
6.0937500000e-001;3.7157692871e+003;3.6369230957e+003;3.6771794434e+003;3.6816667480e+003;3.6479487305e+003;3.6801281738e+003;3.6898718262e+003;3.6974357910e+003;3.7039743652e+003;3.6483332520e+003;3.6673076172e+003;3.6876923828e+003;3.6706411133e+003;3.6775642090e+003;
6.1718750000e-001;3.6832050781e+003;3.5987180176e+003;3.6357692871e+003;3.6476923828e+003;3.6093588867e+003;3.6479487305e+003;3.6592307129e+003;3.6565385742e+003;3.6565385742e+003;3.6111538086e+003;3.6273076172e+003;3.6461538086e+003;3.6334614258e+003;3.6362819824e+003;
6.2500000000e-001;3.6838461914e+003;3.5888461914e+003;3.6253845215e+003;3.6419230957e+003;3.6085898438e+003;3.6570512695e+003;3.6591025391e+003;3.6387180176e+003;3.6397436523e+003;3.5953845215e+003;3.6150000000e+003;3.6315385742e+003;3.6151281738e+003;3.6221794434e+003;
6.3281250000e-001;3.7217949219e+003;3.6223076172e+003;3.6616667480e+003;3.6730769043e+003;3.6433332520e+003;3.6907692871e+003;3.6919230957e+003;3.6644870605e+003;3.6639743652e+003;3.6205129395e+003;3.6462819824e+003;3.6656411133e+003;3.6448718262e+003;3.6564101563e+003;
6.4062500000e-001;3.7703845215e+003;3.6683332520e+003;3.7075642090e+003;3.7148718262e+003;3.6885898438e+003;3.7330769043e+003;3.7332050781e+003;3.7019230957e+003;3.6989743652e+003;3.6608974609e+003;3.6908974609e+003;3.7106411133e+003;3.6905129395e+003;3.7024357910e+003;
6.4843750000e-001;3.8093588867e+003;3.7052563477e+003;3.7398718262e+003;3.7475642090e+003;3.7229487305e+003;3.7655129395e+003;3.7637180176e+003;3.7306411133e+003;3.7217949219e+003;3.7007692871e+003;3.7287180176e+003;3.7443588867e+003;3.7360256348e+003;3.7380769043e+003;
6.5625000000e-001;3.7989743652e+003;3.6926923828e+003;3.7271794434e+003;3.7365385742e+003;3.7101281738e+003;3.7551281738e+003;3.7547436523e+003;3.7182050781e+003;3.7051281738e+003;3.6891025391e+003;3.7160256348e+003;3.7316667480e+003;3.7266667480e+003;3.7252563477e+003;
6.6406250000e-001;3.8084614258e+003;3.6997436523e+003;3.7351281738e+003;3.7437180176e+003;3.7167949219e+003;3.7632050781e+003;3.7653845215e+003;3.7237180176e+003;3.7064101563e+003;3.6926923828e+003;3.7205129395e+003;3.7382050781e+003;3.7325642090e+003;3.7315385742e+003;
6.7187500000e-001;3.8610256348e+003;3.7520512695e+003;3.7867949219e+003;3.7915385742e+003;3.7670512695e+003;3.8111538086e+003;3.8153845215e+003;3.7712819824e+003;3.7511538086e+003;3.7393588867e+003;3.7683332520e+003;3.7889743652e+003;3.7797436523e+003;3.7817949219e+003;
6.7968750000e-001;4.0624357910e+003;3.9667949219e+003;3.9973076172e+003;3.9853845215e+003;3.9661538086e+003;3.9867949219e+003;3.9951281738e+003;3.9838461914e+003;3.9739743652e+003;3.9696154785e+003;3.9832050781e+003;4.0038461914e+003;3.9867949219e+003;3.9957692871e+003;
6.8750000000e-001;3.9700000000e+003;3.8844870605e+003;3.9116667480e+003;3.9032050781e+003;3.8816667480e+003;3.9008974609e+003;3.9060256348e+003;3.9180769043e+003;3.9296154785e+003;3.9048718262e+003;3.9053845215e+003;3.9246154785e+003;3.9079487305e+003;3.9121794434e+003;
6.9531250000e-001;3.8906411133e+003;3.8066667480e+003;3.8344870605e+003;3.8300000000e+003;3.8041025391e+003;3.8284614258e+003;3.8311538086e+003;3.8483332520e+003;3.8584614258e+003;3.8312819824e+003;3.8307692871e+003;3.8510256348e+003;3.8319230957e+003;3.8378205566e+003;
7.0312500000e-001;3.7585898438e+003;3.6720512695e+003;3.6978205566e+003;3.7067949219e+003;3.6729487305e+003;3.7011538086e+003;3.7071794434e+003;3.7260256348e+003;3.7320512695e+003;3.6992307129e+003;3.7019230957e+003;3.7160256348e+003;3.7002563477e+003;3.7047436523e+003;
7.1093750000e-001;3.6935898438e+003;3.5908974609e+003;3.6270512695e+003;3.6400000000e+003;3.5912819824e+003;3.6201281738e+003;3.6256411133e+003;3.6376923828e+003;3.6424357910e+003;3.6007692871e+003;3.6082050781e+003;3.6355129395e+003;3.6048718262e+003;3.6269230957e+003;
7.1875000000e-001;3.6992307129e+003;3.5957692871e+003;3.6298718262e+003;3.6437180176e+003;3.5961538086e+003;3.6244870605e+003;3.6292307129e+003;3.6394870605e+003;3.6410256348e+003;3.6043588867e+003;3.6129487305e+003;3.6378205566e+003;3.6101281738e+003;3.6305129395e+003;
7.2656250000e-001;3.7184614258e+003;3.6143588867e+003;3.6394870605e+003;3.6578205566e+003;3.6162819824e+003;3.6451281738e+003;3.6515385742e+003;3.6534614258e+003;3.6500000000e+003;3.6262819824e+003;3.6380769043e+003;3.6483332520e+003;3.6375642090e+003;3.6434614258e+003;
7.3437500000e-001;3.7247436523e+003;3.6180769043e+003;3.6423076172e+003;3.6600000000e+003;3.6202563477e+003;3.6508974609e+003;3.6582050781e+003;3.6525642090e+003;3.6507692871e+003;3.6296154785e+003;3.6430769043e+003;3.6498718262e+003;3.6451281738e+003;3.6464101563e+003;
7.4218750000e-001;3.7253845215e+003;3.6065385742e+003;3.6400000000e+003;3.6475642090e+003;3.6074357910e+003;3.6460256348e+003;3.6526923828e+003;3.6269230957e+003;3.6314101563e+003;3.6041025391e+003;3.6225642090e+003;3.6451281738e+003;3.6275642090e+003;3.6408974609e+003;
7.5000000000e-001;3.7119230957e+003;3.5908974609e+003;3.6253845215e+003;3.6335898438e+003;3.5916667480e+003;3.6341025391e+003;3.6406411133e+003;3.6102563477e+003;3.6102563477e+003;3.5830769043e+003;3.6048718262e+003;3.6334614258e+003;3.6069230957e+003;3.6264101563e+003;
7.5781250000e-001;3.6992307129e+003;3.5764101563e+003;3.6097436523e+003;3.6219230957e+003;3.5776923828e+003;3.6241025391e+003;3.6291025391e+003;3.5930769043e+003;3.5814101563e+003;3.5597436523e+003;3.5889743652e+003;3.6196154785e+003;3.5914101563e+003;3.6114101563e+003;
7.6562500000e-001;3.6987180176e+003;3.5742307129e+003;3.6080769043e+003;3.6208974609e+003;3.5766667480e+003;3.6224357910e+003;3.6239743652e+003;3.5897436523e+003;3.5748718262e+003;3.5560256348e+003;3.5876923828e+003;3.6160256348e+003;3.5939743652e+003;3.6098718262e+003;
7.7343750000e-001;3.6830769043e+003;3.5551281738e+003;3.5919230957e+003;3.6042307129e+003;3.5601281738e+003;3.6056411133e+003;3.6026923828e+003;3.5712819824e+003;3.5564101563e+003;3.5378205566e+003;3.5715385742e+003;3.5983332520e+003;3.5801281738e+003;3.5941025391e+003;
7.8125000000e-001;3.6482050781e+003;3.5155129395e+003;3.5564101563e+003;3.5687180176e+003;3.5238461914e+003;3.5706411133e+003;3.5644870605e+003;3.5338461914e+003;3.5215385742e+003;3.4997436523e+003;3.5355129395e+003;3.5635898438e+003;3.5433332520e+003;3.5598718262e+003;
7.8906250000e-001;3.6566667480e+003;3.5171794434e+003;3.5546154785e+003;3.5708974609e+003;3.5273076172e+003;3.5696154785e+003;3.5758974609e+003;3.5648718262e+003;3.5785898438e+003;3.5314101563e+003;3.5416667480e+003;3.5691025391e+003;3.5447436523e+003;3.5665385742e+003;
7.9687500000e-001;3.6252563477e+003;3.4760256348e+003;3.5176923828e+003;3.5401281738e+003;3.5042307129e+003;3.5507692871e+003;3.5483332520e+003;3.5451281738e+003;3.5552563477e+003;3.5101281738e+003;3.5107692871e+003;3.5335898438e+003;3.5125642090e+003;3.5332050781e+003;
8.0468750000e-001;3.6457692871e+003;3.4987180176e+003;3.5353845215e+003;3.5594870605e+003;3.5233332520e+003;3.5671794434e+003;3.5641025391e+003;3.5626923828e+003;3.5716667480e+003;3.5305129395e+003;3.5296154785e+003;3.5510256348e+003;3.5321794434e+003;3.5510256348e+003;
8.1250000000e-001;3.7160256348e+003;3.5787180176e+003;3.6029487305e+003;3.6230769043e+003;3.5802563477e+003;3.6065385742e+003;3.6128205566e+003;3.6158974609e+003;3.6291025391e+003;3.5970512695e+003;3.5923076172e+003;3.6114101563e+003;3.5987180176e+003;3.6132050781e+003;
8.2031250000e-001;3.7830769043e+003;3.6478205566e+003;3.6723076172e+003;3.6876923828e+003;3.6507692871e+003;3.6666667480e+003;3.6734614258e+003;3.6779487305e+003;3.6928205566e+003;3.6696154785e+003;3.6623076172e+003;3.6811538086e+003;3.6723076172e+003;3.6896154785e+003;
8.2812500000e-001;3.7930769043e+003;3.6582050781e+003;3.6844870605e+003;3.6970512695e+003;3.6587180176e+003;3.6755129395e+003;3.6815385742e+003;3.6862819824e+003;3.6987180176e+003;3.6807692871e+003;3.6729487305e+003;3.6955129395e+003;3.6865385742e+003;3.7008974609e+003;
8.3593750000e-001;3.8120512695e+003;3.6811538086e+003;3.7025642090e+003;3.7152563477e+003;3.6770512695e+003;3.6928205566e+003;3.7030769043e+003;3.6928205566e+003;3.6934614258e+003;3.6858974609e+003;3.6841025391e+003;3.7079487305e+003;3.6970512695e+003;3.7089743652e+003;
8.4375000000e-001;3.7989743652e+003;3.6702563477e+003;3.6916667480e+003;3.7062819824e+003;3.6700000000e+003;3.6879487305e+003;3.6973076172e+003;3.6817949219e+003;3.6773076172e+003;3.6692307129e+003;3.6705129395e+003;3.6950000000e+003;3.6796154785e+003;3.6970512695e+003;
8.5156250000e-001;3.7458974609e+003;3.6183332520e+003;3.6448718262e+003;3.6596154785e+003;3.6225642090e+003;3.6519230957e+003;3.6553845215e+003;3.6324357910e+003;3.6198718262e+003;3.6094870605e+003;3.6179487305e+003;3.6471794434e+003;3.6279487305e+003;3.6502563477e+003;
8.5937500000e-001;3.7342307129e+003;3.6065385742e+003;3.6338461914e+003;3.6466667480e+003;3.6098718262e+003;3.6425642090e+003;3.6453845215e+003;3.6185898438e+003;3.6048718262e+003;3.5957692871e+003;3.6071794434e+003;3.6356411133e+003;3.6203845215e+003;3.6388461914e+003;
8.6718750000e-001;3.7182050781e+003;3.5885898438e+003;3.6126923828e+003;3.6298718262e+003;3.5974357910e+003;3.6265385742e+003;3.6367949219e+003;3.6030769043e+003;3.5901281738e+003;3.5858974609e+003;3.5957692871e+003;3.6189743652e+003;3.6041025391e+003;3.6208974609e+003;
8.7500000000e-001;3.7092307129e+003;3.5779487305e+003;3.6012819824e+003;3.6217949219e+003;3.5893588867e+003;3.6197436523e+003;3.6288461914e+003;3.5976923828e+003;3.5856411133e+003;3.5788461914e+003;3.5851281738e+003;3.6098718262e+003;3.5925642090e+003;3.6115385742e+003;
8.8281250000e-001;3.7197436523e+003;3.5884614258e+003;3.6100000000e+003;3.6319230957e+003;3.5994870605e+003;3.6319230957e+003;3.6374357910e+003;3.6119230957e+003;3.6023076172e+003;3.5920512695e+003;3.5935898438e+003;3.6197436523e+003;3.6039743652e+003;3.6211538086e+003;
8.9062500000e-001;3.7523076172e+003;3.6233332520e+003;3.6426923828e+003;3.6630769043e+003;3.6311538086e+003;3.6651281738e+003;3.6665385742e+003;3.6480769043e+003;3.6428205566e+003;3.6300000000e+003;3.6266667480e+003;3.6529487305e+003;3.6417949219e+003;3.6533332520e+003;
8.9843750000e-001;3.8088461914e+003;3.6839743652e+003;3.7044870605e+003;3.7142307129e+003;3.6944870605e+003;3.7164101563e+003;3.7173076172e+003;3.7173076172e+003;3.7294870605e+003;3.7108974609e+003;3.7029487305e+003;3.7184614258e+003;3.7070512695e+003;3.7187180176e+003;
9.0625000000e-001;3.7724357910e+003;3.6462819824e+003;3.6657692871e+003;3.6758974609e+003;3.6579487305e+003;3.6775642090e+003;3.6785898438e+003;3.6841025391e+003;3.6987180176e+003;3.6782050781e+003;3.6675642090e+003;3.6808974609e+003;3.6675642090e+003;3.6817949219e+003;
9.1406250000e-001;3.6360256348e+003;3.5106411133e+003;3.5320512695e+003;3.5434614258e+003;3.5134614258e+003;3.5434614258e+003;3.5376923828e+003;3.5476923828e+003;3.5638461914e+003;3.5408974609e+003;3.5243588867e+003;3.5452563477e+003;3.5360256348e+003;3.5464101563e+003;
9.2187500000e-001;3.6824357910e+003;3.5550000000e+003;3.5738461914e+003;3.5841025391e+003;3.5569230957e+003;3.5758974609e+003;3.5770512695e+003;3.5794870605e+003;3.5979487305e+003;3.5830769043e+003;3.5716667480e+003;3.5876923828e+003;3.5783332520e+003;3.5894870605e+003;
9.2968750000e-001;3.6785898438e+003;3.5450000000e+003;3.5676923828e+003;3.5755129395e+003;3.5475642090e+003;3.5647436523e+003;3.5689743652e+003;3.5716667480e+003;3.5879487305e+003;3.5764101563e+003;3.5634614258e+003;3.5819230957e+003;3.5676923828e+003;3.5828205566e+003;
9.3750000000e-001;3.6191025391e+003;3.4752563477e+003;3.5141025391e+003;3.5135898438e+003;3.4800000000e+003;3.5023076172e+003;3.5051281738e+003;3.5039743652e+003;3.5085898438e+003;3.5033332520e+003;3.4926923828e+003;3.5239743652e+003;3.5030769043e+003;3.5207692871e+003;
9.4531250000e-001;3.6679487305e+003;3.5261538086e+003;3.5551281738e+003;3.5656411133e+003;3.5360256348e+003;3.5516667480e+003;3.5646154785e+003;3.5455129395e+003;3.5496154785e+003;3.5507692871e+003;3.5475642090e+003;3.5678205566e+003;3.5538461914e+003;3.5682050781e+003;
9.5312500000e-001;3.6696154785e+003;3.5255129395e+003;3.5520512695e+003;3.5675642090e+003;3.5383332520e+003;3.5517949219e+003;3.5676923828e+003;3.5439743652e+003;3.5465385742e+003;3.5500000000e+003;3.5457692871e+003;3.5644870605e+003;3.5515385742e+003;3.5666667480e+003;
9.6093750000e-001;3.5594870605e+003;3.4115385742e+003;3.4429487305e+003;3.4626923828e+003;3.4289743652e+003;3.4584614258e+003;3.4601281738e+003;3.4328205566e+003;3.4297436523e+003;3.4314101563e+003;3.4257692871e+003;3.4553845215e+003;3.4334614258e+003;3.4515385742e+003;
9.6875000000e-001;3.5329487305e+003;3.3850000000e+003;3.4170512695e+003;3.4378205566e+003;3.4021794434e+003;3.4360256348e+003;3.4347436523e+003;3.4046154785e+003;3.4010256348e+003;3.3982050781e+003;3.3962819824e+003;3.4300000000e+003;3.4028205566e+003;3.4214101563e+003;
9.7656250000e-001;3.6058974609e+003;3.4578205566e+003;3.4824357910e+003;3.5066667480e+003;3.4737180176e+003;3.4998718262e+003;3.5035898438e+003;3.4691025391e+003;3.4687180176e+003;3.4584614258e+003;3.4606411133e+003;3.4929487305e+003;3.4637180176e+003;3.4819230957e+003;
9.8437500000e-001;3.6735898438e+003;3.5248718262e+003;3.5448718262e+003;3.5689743652e+003;3.5407692871e+003;3.5610256348e+003;3.5667949219e+003;3.5353845215e+003;3.5374357910e+003;3.5252563477e+003;3.5251281738e+003;3.5548718262e+003;3.5276923828e+003;3.5469230957e+003;
9.9218750000e-001;3.7628205566e+003;3.6211538086e+003;3.6332050781e+003;3.6530769043e+003;3.6405129395e+003;3.6526923828e+003;3.6525642090e+003;3.6398718262e+003;3.6503845215e+003;3.6361538086e+003;3.6242307129e+003;3.6511538086e+003;3.6323076172e+003;3.6461538086e+003;
1.0000000000e+000;3.7748718262e+003;3.6393588867e+003;3.6485898438e+003;3.6689743652e+003;3.6591025391e+003;3.6687180176e+003;3.6673076172e+003;3.6606411133e+003;3.6737180176e+003;3.6601281738e+003;3.6451281738e+003;3.6683332520e+003;3.6543588867e+003;3.6610256348e+003;
1.0078125000e+000;3.7853845215e+003;3.6550000000e+003;3.6623076172e+003;3.6835898438e+003;3.6741025391e+003;3.6826923828e+003;3.6812819824e+003;3.6801281738e+003;3.6946154785e+003;3.6816667480e+003;3.6637180176e+003;3.6821794434e+003;3.6728205566e+003;3.6725642090e+003;
1.0156250000e+000;3.7884614258e+003;3.6603845215e+003;3.6670512695e+003;3.6885898438e+003;3.6782050781e+003;3.6876923828e+003;3.6871794434e+003;3.6897436523e+003;3.7055129395e+003;3.6919230957e+003;3.6715385742e+003;3.6860256348e+003;3.6793588867e+003;3.6750000000e+003;
1.0234375000e+000;3.7729487305e+003;3.6417949219e+003;3.6483332520e+003;3.6684614258e+003;3.6633332520e+003;3.6710256348e+003;3.6737180176e+003;3.6766667480e+003;3.6982050781e+003;3.6830769043e+003;3.6542307129e+003;3.6719230957e+003;3.6575642090e+003;3.6565385742e+003;
1.0312500000e+000;3.7578205566e+003;3.6271794434e+003;3.6378205566e+003;3.6579487305e+003;3.6514101563e+003;3.6567949219e+003;3.6584614258e+003;3.6623076172e+003;3.6839743652e+003;3.6693588867e+003;3.6393588867e+003;3.6621794434e+003;3.6424357910e+003;3.6434614258e+003;
1.0390625000e+000;3.7156411133e+003;3.5892307129e+003;3.6052563477e+003;3.6194870605e+003;3.6082050781e+003;3.6083332520e+003;3.6161538086e+003;3.6132050781e+003;3.6387180176e+003;3.6171794434e+003;3.5955129395e+003;3.6196154785e+003;3.5987180176e+003;3.5987180176e+003;
1.0468750000e+000;3.6930769043e+003;3.5641025391e+003;3.5791025391e+003;3.5928205566e+003;3.5779487305e+003;3.5774357910e+003;3.5901281738e+003;3.5842307129e+003;3.5969230957e+003;3.5825642090e+003;3.5691025391e+003;3.5955129395e+003;3.5678205566e+003;3.5715385742e+003;
1.0546875000e+000;3.6755129395e+003;3.5437180176e+003;3.5587180176e+003;3.5755129395e+003;3.5575642090e+003;3.5600000000e+003;3.5687180176e+003;3.5619230957e+003;3.5684614258e+003;3.5611538086e+003;3.5466667480e+003;3.5773076172e+003;3.5489743652e+003;3.5520512695e+003;
1.0625000000e+000;3.6275642090e+003;3.4897436523e+003;3.5026923828e+003;3.5266667480e+003;3.5042307129e+003;3.5169230957e+003;3.5212819824e+003;3.5015385742e+003;3.5017949219e+003;3.5032050781e+003;3.4900000000e+003;3.5239743652e+003;3.5058974609e+003;3.5002563477e+003;
1.0703125000e+000;3.6524357910e+003;3.5100000000e+003;3.5276923828e+003;3.5482050781e+003;3.5242307129e+003;3.5394870605e+003;3.5533332520e+003;3.5144870605e+003;3.5162819824e+003;3.5141025391e+003;3.5132050781e+003;3.5510256348e+003;3.5205129395e+003;3.5278205566e+003;
1.0781250000e+000;3.6757692871e+003;3.5355129395e+003;3.5501281738e+003;3.5702563477e+003;3.5474357910e+003;3.5611538086e+003;3.5738461914e+003;3.5383332520e+003;3.5388461914e+003;3.5401281738e+003;3.5376923828e+003;3.5767949219e+003;3.5450000000e+003;3.5521794434e+003;
1.0859375000e+000;3.6838461914e+003;3.5461538086e+003;3.5576923828e+003;3.5783332520e+003;3.5564101563e+003;3.5691025391e+003;3.5796154785e+003;3.5496154785e+003;3.5497436523e+003;3.5533332520e+003;3.5485898438e+003;3.5880769043e+003;3.5576923828e+003;3.5615385742e+003;
1.0937500000e+000;3.6887180176e+003;3.5516667480e+003;3.5624357910e+003;3.5843588867e+003;3.5643588867e+003;3.5757692871e+003;3.5847436523e+003;3.5616667480e+003;3.5676923828e+003;3.5662819824e+003;3.5626923828e+003;3.5948718262e+003;3.5706411133e+003;3.5691025391e+003;
1.1015625000e+000;3.7635898438e+003;3.6328205566e+003;3.6425642090e+003;3.6573076172e+003;3.6447436523e+003;3.6552563477e+003;3.6628205566e+003;3.6508974609e+003;3.6666667480e+003;3.6651281738e+003;3.6478205566e+003;3.6707692871e+003;3.6524357910e+003;3.6491025391e+003;
1.1093750000e+000;3.7810256348e+003;3.6546154785e+003;3.6615385742e+003;3.6744870605e+003;3.6637180176e+003;3.6738461914e+003;3.6807692871e+003;3.6723076172e+003;3.6876923828e+003;3.6878205566e+003;3.6633332520e+003;3.6883332520e+003;3.6729487305e+003;3.6673076172e+003;
1.1171875000e+000;3.8093588867e+003;3.6867949219e+003;3.6893588867e+003;3.7023076172e+003;3.6946154785e+003;3.7014101563e+003;3.7092307129e+003;3.7032050781e+003;3.7178205566e+003;3.7179487305e+003;3.6897436523e+003;3.7141025391e+003;3.7043588867e+003;3.6948718262e+003;
1.1250000000e+000;3.8985898438e+003;3.7842307129e+003;3.7758974609e+003;3.7912819824e+003;3.7941025391e+003;3.7866667480e+003;3.7982050781e+003;3.8012819824e+003;3.8166667480e+003;3.8169230957e+003;3.7853845215e+003;3.7975642090e+003;3.8026923828e+003;3.7825642090e+003;
1.1328125000e+000;3.9033332520e+003;3.7934614258e+003;3.7825642090e+003;3.7985898438e+003;3.8038461914e+003;3.7938461914e+003;3.8046154785e+003;3.8151281738e+003;3.8307692871e+003;3.8326923828e+003;3.7978205566e+003;3.8057692871e+003;3.8133332520e+003;3.7898718262e+003;
1.1406250000e+000;3.8501281738e+003;3.7429487305e+003;3.7341025391e+003;3.7494870605e+003;3.7528205566e+003;3.7470512695e+003;3.7547436523e+003;3.7708974609e+003;3.7862819824e+003;3.7896154785e+003;3.7519230957e+003;3.7601281738e+003;3.7650000000e+003;3.7415385742e+003;
1.1484375000e+000;3.5123076172e+003;3.3751281738e+003;3.3979487305e+003;3.4089743652e+003;3.3891025391e+003;3.4026923828e+003;3.4101281738e+003;3.4085898438e+003;3.4246154785e+003;3.4170512695e+003;3.3896154785e+003;3.4205129395e+003;3.4035898438e+003;3.3941025391e+003;
1.1562500000e+000;3.4903845215e+003;3.3492307129e+003;3.3743588867e+003;3.3865385742e+003;3.3632050781e+003;3.3778205566e+003;3.3865385742e+003;3.3803845215e+003;3.3947436523e+003;3.3871794434e+003;3.3592307129e+003;3.3929487305e+003;3.3766667480e+003;3.3678205566e+003;
1.1640625000e+000;3.3982050781e+003;3.2532050781e+003;3.2784614258e+003;3.3001281738e+003;3.2679487305e+003;3.2941025391e+003;3.2962819824e+003;3.2866667480e+003;3.2974357910e+003;3.2929487305e+003;3.2676923828e+003;3.2971794434e+003;3.2875642090e+003;3.2843588867e+003;
1.1718750000e+000;3.3247436523e+003;3.1625642090e+003;3.1912819824e+003;3.2156411133e+003;3.1844870605e+003;3.2150000000e+003;3.2214101563e+003;3.1894870605e+003;3.2003845215e+003;3.1938461914e+003;3.1878205566e+003;3.2174357910e+003;3.2041025391e+003;3.2014101563e+003;
1.1796875000e+000;3.3106411133e+003;3.1441025391e+003;3.1747436523e+003;3.1987180176e+003;3.1679487305e+003;3.1992307129e+003;3.2060256348e+003;3.1696154785e+003;3.1788461914e+003;3.1737180176e+003;3.1702563477e+003;3.2003845215e+003;3.1852563477e+003;3.1823076172e+003;
1.1875000000e+000;3.2094870605e+003;3.0317949219e+003;3.0680769043e+003;3.1001281738e+003;3.0519230957e+003;3.0989743652e+003;3.0958974609e+003;3.0679487305e+003;3.0684614258e+003;3.0693588867e+003;3.0632050781e+003;3.0989743652e+003;3.0676923828e+003;3.0773076172e+003;
1.1953125000e+000;3.1869230957e+003;3.0041025391e+003;3.0385898438e+003;3.0741025391e+003;3.0206411133e+003;3.0715385742e+003;3.0685898438e+003;3.0429487305e+003;3.0442307129e+003;3.0433332520e+003;3.0356411133e+003;3.0711538086e+003;3.0420512695e+003;3.0501281738e+003;
1.2031250000e+000;3.1866667480e+003;2.9933332520e+003;3.0251281738e+003;3.0612819824e+003;3.0103845215e+003;3.0596154785e+003;3.0625642090e+003;3.0406411133e+003;3.0512819824e+003;3.0362819824e+003;3.0269230957e+003;3.0571794434e+003;3.0412819824e+003;3.0396154785e+003;
1.2109375000e+000;3.1773076172e+003;2.9792307129e+003;3.0139743652e+003;3.0488461914e+003;3.0002563477e+003;3.0484614258e+003;3.0524357910e+003;3.0344870605e+003;3.0494870605e+003;3.0261538086e+003;3.0157692871e+003;3.0453845215e+003;3.0306411133e+003;3.0293588867e+003;
1.2187500000e+000;3.0607692871e+003;2.8555129395e+003;2.8917949219e+003;2.9408974609e+003;2.8747436523e+003;2.9296154785e+003;2.9265385742e+003;2.9201281738e+003;2.9400000000e+003;2.9060256348e+003;2.8941025391e+003;2.9228205566e+003;2.8969230957e+003;2.9097436523e+003;
1.2265625000e+000;3.0137180176e+003;2.8056411133e+003;2.8396154785e+003;2.8955129395e+003;2.8212819824e+003;2.8788461914e+003;2.8761538086e+003;2.8678205566e+003;2.8888461914e+003;2.8550000000e+003;2.8432050781e+003;2.8693588867e+003;2.8451281738e+003;2.8566667480e+003;
1.2343750000e+000;2.9474357910e+003;2.7279487305e+003;2.7629487305e+003;2.8220512695e+003;2.7433332520e+003;2.8007692871e+003;2.8046154785e+003;2.7864101563e+003;2.8085898438e+003;2.7725642090e+003;2.7625642090e+003;2.7901281738e+003;2.7720512695e+003;2.7770512695e+003;
1.2421875000e+000;2.9448718262e+003;2.7196154785e+003;2.7553845215e+003;2.8134614258e+003;2.7376923828e+003;2.7915385742e+003;2.7967949219e+003;2.7769230957e+003;2.7988461914e+003;2.7611538086e+003;2.7515385742e+003;2.7826923828e+003;2.7652563477e+003;2.7691025391e+003;
1.2500000000e+000;2.9556411133e+003;2.7224357910e+003;2.7566667480e+003;2.8215385742e+003;2.7438461914e+003;2.7948718262e+003;2.7914101563e+003;2.7771794434e+003;2.7962819824e+003;2.7629487305e+003;2.7494870605e+003;2.7852563477e+003;2.7629487305e+003;2.7660256348e+003;
1.2578125000e+000;2.9316667480e+003;2.6947436523e+003;2.7303845215e+003;2.7973076172e+003;2.7176923828e+003;2.7694870605e+003;2.7655129395e+003;2.7467949219e+003;2.7665385742e+003;2.7346154785e+003;2.7220512695e+003;2.7582050781e+003;2.7347436523e+003;2.7358974609e+003;
1.2656250000e+000;2.9096154785e+003;2.6675642090e+003;2.7041025391e+003;2.7714101563e+003;2.6935898438e+003;2.7433332520e+003;2.7407692871e+003;2.7150000000e+003;2.7367949219e+003;2.7046154785e+003;2.6946154785e+003;2.7317949219e+003;2.7080769043e+003;2.7074357910e+003;
1.2734375000e+000;2.9008974609e+003;2.6410256348e+003;2.6703845215e+003;2.7516667480e+003;2.6694870605e+003;2.7202563477e+003;2.7139743652e+003;2.6744870605e+003;2.6841025391e+003;2.6657692871e+003;2.6592307129e+003;2.7008974609e+003;2.6776923828e+003;2.6834614258e+003;
1.2812500000e+000;2.9100000000e+003;2.6488461914e+003;2.6770512695e+003;2.7584614258e+003;2.6771794434e+003;2.7262819824e+003;2.7221794434e+003;2.6774357910e+003;2.6844870605e+003;2.6703845215e+003;2.6641025391e+003;2.7047436523e+003;2.6820512695e+003;2.6874357910e+003;
1.2890625000e+000;2.9247436523e+003;2.6524357910e+003;2.6871794434e+003;2.7594870605e+003;2.6837180176e+003;2.7328205566e+003;2.7294870605e+003;2.6732050781e+003;2.6819230957e+003;2.6661538086e+003;2.6687180176e+003;2.7179487305e+003;2.6842307129e+003;2.6916667480e+003;
1.2968750000e+000;2.9432050781e+003;2.6662819824e+003;2.6994870605e+003;2.7798718262e+003;2.6982050781e+003;2.7510256348e+003;2.7466667480e+003;2.6980769043e+003;2.7047436523e+003;2.6930769043e+003;2.6902563477e+003;2.7369230957e+003;2.7034614258e+003;2.7074357910e+003;
1.3046875000e+000;2.9280769043e+003;2.6525642090e+003;2.6832050781e+003;2.7678205566e+003;2.6841025391e+003;2.7365385742e+003;2.7347436523e+003;2.6892307129e+003;2.6983332520e+003;2.6866667480e+003;2.6800000000e+003;2.7216667480e+003;2.6891025391e+003;2.6921794434e+003;
1.3125000000e+000;2.8915385742e+003;2.6097436523e+003;2.6393588867e+003;2.7220512695e+003;2.6375642090e+003;2.6911538086e+003;2.6939743652e+003;2.6561538086e+003;2.6766667480e+003;2.6505129395e+003;2.6398718262e+003;2.6764101563e+003;2.6497436523e+003;2.6465385742e+003;
1.3203125000e+000;2.9103845215e+003;2.6287180176e+003;2.6573076172e+003;2.7379487305e+003;2.6534614258e+003;2.7061538086e+003;2.7093588867e+003;2.6787180176e+003;2.6983332520e+003;2.6705129395e+003;2.6544870605e+003;2.6941025391e+003;2.6703845215e+003;2.6638461914e+003;
1.3281250000e+000;2.9396154785e+003;2.6598718262e+003;2.6883332520e+003;2.7710256348e+003;2.6819230957e+003;2.7312819824e+003;2.7360256348e+003;2.7189743652e+003;2.7341025391e+003;2.7084614258e+003;2.6807692871e+003;2.7282050781e+003;2.7008974609e+003;2.6969230957e+003;
1.3359375000e+000;2.9469230957e+003;2.6662819824e+003;2.6955129395e+003;2.7806411133e+003;2.6903845215e+003;2.7373076172e+003;2.7426923828e+003;2.7276923828e+003;2.7433332520e+003;2.7188461914e+003;2.6893588867e+003;2.7366667480e+003;2.7067949219e+003;2.7061538086e+003;
1.3437500000e+000;2.9432050781e+003;2.6589743652e+003;2.6861538086e+003;2.7723076172e+003;2.6852563477e+003;2.7273076172e+003;2.7325642090e+003;2.7169230957e+003;2.7416667480e+003;2.7152563477e+003;2.6902563477e+003;2.7273076172e+003;2.7033332520e+003;2.7000000000e+003;
1.3515625000e+000;2.9224357910e+003;2.6376923828e+003;2.6633332520e+003;2.7510256348e+003;2.6611538086e+003;2.7041025391e+003;2.7092307129e+003;2.6921794434e+003;2.7187180176e+003;2.6923076172e+003;2.6675642090e+003;2.7060256348e+003;2.6825642090e+003;2.6783332520e+003;
1.3593750000e+000;2.9079487305e+003;2.6200000000e+003;2.6434614258e+003;2.7358974609e+003;2.6417949219e+003;2.6833332520e+003;2.6862819824e+003;2.6664101563e+003;2.6955129395e+003;2.6734614258e+003;2.6451281738e+003;2.6885898438e+003;2.6655129395e+003;2.6625642090e+003;
1.3671875000e+000;2.9114101563e+003;2.6206411133e+003;2.6444870605e+003;2.7373076172e+003;2.6438461914e+003;2.6841025391e+003;2.6843588867e+003;2.6648718262e+003;2.6942307129e+003;2.6747436523e+003;2.6447436523e+003;2.6900000000e+003;2.6674357910e+003;2.6656411133e+003;
1.3750000000e+000;2.8685898438e+003;2.5705129395e+003;2.6002563477e+003;2.6916667480e+003;2.5952563477e+003;2.6388461914e+003;2.6356411133e+003;2.6066667480e+003;2.6319230957e+003;2.6139743652e+003;2.5926923828e+003;2.6442307129e+003;2.6146154785e+003;2.6185898438e+003;
1.3828125000e+000;2.8630769043e+003;2.5650000000e+003;2.5921794434e+003;2.6874357910e+003;2.5898718262e+003;2.6320512695e+003;2.6294870605e+003;2.5944870605e+003;2.6196154785e+003;2.6057692871e+003;2.5866667480e+003;2.6376923828e+003;2.6061538086e+003;2.6110256348e+003;
1.3906250000e+000;2.8596154785e+003;2.5619230957e+003;2.5858974609e+003;2.6860256348e+003;2.5885898438e+003;2.6289743652e+003;2.6253845215e+003;2.5857692871e+003;2.6115385742e+003;2.6039743652e+003;2.5847436523e+003;2.6342307129e+003;2.6028205566e+003;2.6070512695e+003;
1.3984375000e+000;2.8484614258e+003;2.5503845215e+003;2.5730769043e+003;2.6766667480e+003;2.5797436523e+003;2.6206411133e+003;2.6141025391e+003;2.5700000000e+003;2.5966667480e+003;2.5946154785e+003;2.5751281738e+003;2.6234614258e+003;2.5937180176e+003;2.5961538086e+003;
1.4062500000e+000;3.0374357910e+003;2.7452563477e+003;2.7608974609e+003;2.8589743652e+003;2.7700000000e+003;2.8038461914e+003;2.8023076172e+003;2.7405129395e+003;2.7603845215e+003;2.7651281738e+003;2.7517949219e+003;2.7955129395e+003;2.7756411133e+003;2.7724357910e+003;
1.4140625000e+000;3.2533332520e+003;2.9837180176e+003;2.9893588867e+003;3.0696154785e+003;3.0006411133e+003;3.0229487305e+003;3.0255129395e+003;2.9906411133e+003;3.0132050781e+003;3.0285898438e+003;2.9992307129e+003;3.0435898438e+003;3.0141025391e+003;3.0089743652e+003;
1.4218750000e+000;3.2535898438e+003;2.9846154785e+003;2.9924357910e+003;3.0653845215e+003;3.0000000000e+003;3.0215385742e+003;3.0256411133e+003;2.9993588867e+003;3.0273076172e+003;3.0378205566e+003;3.0071794434e+003;3.0512819824e+003;3.0197436523e+003;3.0152563477e+003;
1.4296875000e+000;3.1935898438e+003;2.9235898438e+003;2.9400000000e+003;3.0060256348e+003;2.9351281738e+003;2.9576923828e+003;2.9644870605e+003;2.9515385742e+003;2.9843588867e+003;2.9887180176e+003;2.9550000000e+003;3.0014101563e+003;2.9607692871e+003;2.9653845215e+003;
1.4375000000e+000;2.9970512695e+003;2.7283332520e+003;2.7408974609e+003;2.8214101563e+003;2.7373076172e+003;2.7684614258e+003;2.7734614258e+003;2.7621794434e+003;2.7938461914e+003;2.7946154785e+003;2.7519230957e+003;2.7980769043e+003;2.7739743652e+003;2.7634614258e+003;
1.4453125000e+000;2.9711538086e+003;2.6976923828e+003;2.7119230957e+003;2.7935898438e+003;2.7084614258e+003;2.7402563477e+003;2.7456411133e+003;2.7346154785e+003;2.7662819824e+003;2.7657692871e+003;2.7221794434e+003;2.7708974609e+003;2.7473076172e+003;2.7360256348e+003;
1.4531250000e+000;2.9337180176e+003;2.6496154785e+003;2.6701281738e+003;2.7548718262e+003;2.6660256348e+003;2.6958974609e+003;2.6996154785e+003;2.6884614258e+003;2.7185898438e+003;2.7171794434e+003;2.6776923828e+003;2.7301281738e+003;2.6976923828e+003;2.6985898438e+003;
1.4609375000e+000;2.9198718262e+003;2.6342307129e+003;2.6552563477e+003;2.7432050781e+003;2.6529487305e+003;2.6824357910e+003;2.6830769043e+003;2.6711538086e+003;2.7014101563e+003;2.7003845215e+003;2.6625642090e+003;2.7132050781e+003;2.6788461914e+003;2.6834614258e+003;
1.4687500000e+000;2.8760256348e+003;2.5965385742e+003;2.6107692871e+003;2.7039743652e+003;2.6151281738e+003;2.6479487305e+003;2.6441025391e+003;2.6216667480e+003;2.6562819824e+003;2.6537180176e+003;2.6153845215e+003;2.6625642090e+003;2.6325642090e+003;2.6280769043e+003;
1.4765625000e+000;2.8796154785e+003;2.6011538086e+003;2.6130769043e+003;2.7070512695e+003;2.6201281738e+003;2.6494870605e+003;2.6478205566e+003;2.6206411133e+003;2.6555129395e+003;2.6535898438e+003;2.6155129395e+003;2.6629487305e+003;2.6357692871e+003;2.6291025391e+003;
1.4843750000e+000;2.9076923828e+003;2.6291025391e+003;2.6421794434e+003;2.7392307129e+003;2.6494870605e+003;2.6728205566e+003;2.6728205566e+003;2.6388461914e+003;2.6714101563e+003;2.6755129395e+003;2.6385898438e+003;2.6874357910e+003;2.6606411133e+003;2.6580769043e+003;
1.4921875000e+000;2.9051281738e+003;2.6260256348e+003;2.6423076172e+003;2.7408974609e+003;2.6456411133e+003;2.6717949219e+003;2.6698718262e+003;2.6317949219e+003;2.6625642090e+003;2.6701281738e+003;2.6346154785e+003;2.6861538086e+003;2.6557692871e+003;2.6562819824e+003;
1.5000000000e+000;2.8669230957e+003;2.5842307129e+003;2.6003845215e+003;2.7000000000e+003;2.5952563477e+003;2.6323076172e+003;2.6267949219e+003;2.5734614258e+003;2.5983332520e+003;2.6143588867e+003;2.5892307129e+003;2.6437180176e+003;2.6083332520e+003;2.6065385742e+003;
1.5078125000e+000;2.8707692871e+003;2.5848718262e+003;2.5998718262e+003;2.6984614258e+003;2.5943588867e+003;2.6294870605e+003;2.6261538086e+003;2.5714101563e+003;2.5941025391e+003;2.6137180176e+003;2.5896154785e+003;2.6438461914e+003;2.6085898438e+003;2.6061538086e+003;
1.5156250000e+000;2.8771794434e+003;2.5871794434e+003;2.6030769043e+003;2.7005129395e+003;2.5964101563e+003;2.6288461914e+003;2.6285898438e+003;2.5735898438e+003;2.5950000000e+003;2.6178205566e+003;2.5921794434e+003;2.6484614258e+003;2.6115385742e+003;2.6107692871e+003;
1.5234375000e+000;2.9324357910e+003;2.6489743652e+003;2.6583332520e+003;2.7537180176e+003;2.6562819824e+003;2.6894870605e+003;2.6938461914e+003;2.6558974609e+003;2.6867949219e+003;2.7052563477e+003;2.6720512695e+003;2.7278205566e+003;2.6848718262e+003;2.6816667480e+003;
1.5312500000e+000;2.9256411133e+003;2.6416667480e+003;2.6526923828e+003;2.7485898438e+003;2.6532050781e+003;2.6864101563e+003;2.6920512695e+003;2.6593588867e+003;2.6905129395e+003;2.7028205566e+003;2.6697436523e+003;2.7215385742e+003;2.6817949219e+003;2.6751281738e+003;
1.5390625000e+000;2.9519230957e+003;2.6776923828e+003;2.6815385742e+003;2.7839743652e+003;2.6861538086e+003;2.7125642090e+003;2.7180769043e+003;2.6998718262e+003;2.7297436523e+003;2.7348718262e+003;2.6885898438e+003;2.7400000000e+003;2.7105129395e+003;2.6966667480e+003;
1.5468750000e+000;2.9560256348e+003;2.6856411133e+003;2.6867949219e+003;2.7883332520e+003;2.6888461914e+003;2.7147436523e+003;2.7187180176e+003;2.7042307129e+003;2.7337180176e+003;2.7414101563e+003;2.6901281738e+003;2.7458974609e+003;2.7134614258e+003;2.7021794434e+003;
1.5546875000e+000;2.9339743652e+003;2.6600000000e+003;2.6629487305e+003;2.7585898438e+003;2.6608974609e+003;2.6839743652e+003;2.6894870605e+003;2.6746154785e+003;2.7043588867e+003;2.7157692871e+003;2.6629487305e+003;2.7217949219e+003;2.6866667480e+003;2.6807692871e+003;
1.5625000000e+000;2.9176923828e+003;2.6429487305e+003;2.6394870605e+003;2.7360256348e+003;2.6435898438e+003;2.6620512695e+003;2.6653845215e+003;2.6488461914e+003;2.6857692871e+003;2.6944870605e+003;2.6465385742e+003;2.7060256348e+003;2.6635898438e+003;2.6605129395e+003;
1.5703125000e+000;2.9029487305e+003;2.6292307129e+003;2.6258974609e+003;2.7226923828e+003;2.6303845215e+003;2.6498718262e+003;2.6520512695e+003;2.6333332520e+003;2.6688461914e+003;2.6801281738e+003;2.6302563477e+003;2.6944870605e+003;2.6473076172e+003;2.6484614258e+003;
1.5781250000e+000;2.8800000000e+003;2.6042307129e+003;2.6055129395e+003;2.6991025391e+003;2.6111538086e+003;2.6300000000e+003;2.6335898438e+003;2.6055129395e+003;2.6382050781e+003;2.6555129395e+003;2.6021794434e+003;2.6679487305e+003;2.6273076172e+003;2.6248718262e+003;
1.5859375000e+000;2.8720512695e+003;2.5944870605e+003;2.5993588867e+003;2.6905129395e+003;2.6044870605e+003;2.6232050781e+003;2.6273076172e+003;2.5938461914e+003;2.6256411133e+003;2.6441025391e+003;2.5934614258e+003;2.6574357910e+003;2.6212819824e+003;2.6139743652e+003;
1.5937500000e+000;2.9232050781e+003;2.6448718262e+003;2.6535898438e+003;2.7393588867e+003;2.6573076172e+003;2.6779487305e+003;2.6805129395e+003;2.6338461914e+003;2.6607692871e+003;2.6825642090e+003;2.6489743652e+003;2.7107692871e+003;2.6643588867e+003;2.6656411133e+003;
1.6015625000e+000;2.9553845215e+003;2.6771794434e+003;2.6844870605e+003;2.7696154785e+003;2.6907692871e+003;2.7116667480e+003;2.7134614258e+003;2.6643588867e+003;2.6878205566e+003;2.7151281738e+003;2.6806411133e+003;2.7437180176e+003;2.6946154785e+003;2.6984614258e+003;
1.6093750000e+000;2.9728205566e+003;2.6920512695e+003;2.6984614258e+003;2.7815385742e+003;2.7093588867e+003;2.7289743652e+003;2.7305129395e+003;2.6752563477e+003;2.6917949219e+003;2.7297436523e+003;2.6908974609e+003;2.7592307129e+003;2.7130769043e+003;2.7070512695e+003;
1.6171875000e+000;2.9766667480e+003;2.6944870605e+003;2.7003845215e+003;2.7819230957e+003;2.7126923828e+003;2.7285898438e+003;2.7311538086e+003;2.6728205566e+003;2.6893588867e+003;2.7283332520e+003;2.6911538086e+003;2.7603845215e+003;2.7167949219e+003;2.7038461914e+003;
1.6250000000e+000;3.0305129395e+003;2.7553845215e+003;2.7576923828e+003;2.8392307129e+003;2.7671794434e+003;2.7743588867e+003;2.7774357910e+003;2.7333332520e+003;2.7576923828e+003;2.7884614258e+003;2.7533332520e+003;2.8208974609e+003;2.7721794434e+003;2.7628205566e+003;
1.6328125000e+000;3.0276923828e+003;2.7561538086e+003;2.7584614258e+003;2.8403845215e+003;2.7655129395e+003;2.7760256348e+003;2.7785898438e+003;2.7421794434e+003;2.7667949219e+003;2.7956411133e+003;2.7560256348e+003;2.8264101563e+003;2.7743588867e+003;2.7670512695e+003;
1.6406250000e+000;3.0210256348e+003;2.7526923828e+003;2.7542307129e+003;2.8348718262e+003;2.7616667480e+003;2.7744870605e+003;2.7774357910e+003;2.7465385742e+003;2.7711538086e+003;2.7987180176e+003;2.7538461914e+003;2.8266667480e+003;2.7751281738e+003;2.7643588867e+003;
1.6484375000e+000;3.0246154785e+003;2.7596154785e+003;2.7588461914e+003;2.8369230957e+003;2.7705129395e+003;2.7806411133e+003;2.7855129395e+003;2.7585898438e+003;2.7841025391e+003;2.8106411133e+003;2.7615385742e+003;2.8343588867e+003;2.7866667480e+003;2.7685898438e+003;
1.6562500000e+000;3.0932050781e+003;2.8365385742e+003;2.8300000000e+003;2.9067949219e+003;2.8416667480e+003;2.8402563477e+003;2.8508974609e+003;2.8367949219e+003;2.8662819824e+003;2.8862819824e+003;2.8441025391e+003;2.9102563477e+003;2.8626923828e+003;2.8423076172e+003;
1.6640625000e+000;3.1234614258e+003;2.8710256348e+003;2.8624357910e+003;2.9398718262e+003;2.8714101563e+003;2.8698718262e+003;2.8824357910e+003;2.8689743652e+003;2.8996154785e+003;2.9221794434e+003;2.8794870605e+003;2.9425642090e+003;2.8961538086e+003;2.8743588867e+003;
1.6718750000e+000;3.1908974609e+003;2.9598718262e+003;2.9397436523e+003;3.0141025391e+003;2.9608974609e+003;2.9464101563e+003;2.9665385742e+003;2.9520512695e+003;2.9869230957e+003;3.0182050781e+003;2.9603845215e+003;3.0178205566e+003;2.9789743652e+003;2.9501281738e+003;
1.6796875000e+000;3.2926923828e+003;3.0720512695e+003;3.0417949219e+003;3.1133332520e+003;3.0707692871e+003;3.0520512695e+003;3.0650000000e+003;3.0511538086e+003;3.0823076172e+003;3.1194870605e+003;3.0591025391e+003;3.1208974609e+003;3.0812819824e+003;3.0533332520e+003;
1.6875000000e+000;3.3284614258e+003;3.1119230957e+003;3.0792307129e+003;3.1489743652e+003;3.1098718262e+003;3.0887180176e+003;3.1014101563e+003;3.0878205566e+003;3.1166667480e+003;3.1606411133e+003;3.0984614258e+003;3.1585898438e+003;3.1193588867e+003;3.0884614258e+003;
1.6953125000e+000;3.3117949219e+003;3.1057692871e+003;3.0748718262e+003;3.1398718262e+003;3.1125642090e+003;3.0878205566e+003;3.1035898438e+003;3.0678205566e+003;3.1033332520e+003;3.1520512695e+003;3.0915385742e+003;3.1453845215e+003;3.1093588867e+003;3.0780769043e+003;
1.7031250000e+000;3.3106411133e+003;3.1098718262e+003;3.0778205566e+003;3.1424357910e+003;3.1171794434e+003;3.0944870605e+003;3.1083332520e+003;3.0651281738e+003;3.1032050781e+003;3.1510256348e+003;3.0932050781e+003;3.1476923828e+003;3.1107692871e+003;3.0816667480e+003;
1.7109375000e+000;3.3329487305e+003;3.1446154785e+003;3.1083332520e+003;3.1738461914e+003;3.1465385742e+003;3.1303845215e+003;3.1365385742e+003;3.0902563477e+003;3.1219230957e+003;3.1798718262e+003;3.1250000000e+003;3.1847436523e+003;3.1391025391e+003;3.1142307129e+003;
1.7187500000e+000;3.3447436523e+003;3.1600000000e+003;3.1232050781e+003;3.1885898438e+003;3.1597436523e+003;3.1442307129e+003;3.1474357910e+003;3.1024357910e+003;3.1276923828e+003;3.1948718262e+003;3.1394870605e+003;3.2012819824e+003;3.1526923828e+003;3.1273076172e+003;
1.7265625000e+000;3.3548718262e+003;3.1703845215e+003;3.1351281738e+003;3.1983332520e+003;3.1702563477e+003;3.1519230957e+003;3.1544870605e+003;3.1107692871e+003;3.1316667480e+003;3.2060256348e+003;3.1493588867e+003;3.2108974609e+003;3.1637180176e+003;3.1360256348e+003;
1.7343750000e+000;3.3253845215e+003;3.1394870605e+003;3.1212819824e+003;3.1661538086e+003;3.1394870605e+003;3.1180769043e+003;3.1353845215e+003;3.1035898438e+003;3.1339743652e+003;3.1883332520e+003;3.1294870605e+003;3.1961538086e+003;3.1453845215e+003;3.1262819824e+003;
1.7421875000e+000;3.3380769043e+003;3.1583332520e+003;3.1357692871e+003;3.1819230957e+003;3.1541025391e+003;3.1338461914e+003;3.1512819824e+003;3.1265385742e+003;3.1569230957e+003;3.2111538086e+003;3.1476923828e+003;3.2142307129e+003;3.1628205566e+003;3.1419230957e+003;
1.7500000000e+000;3.3226923828e+003;3.1482050781e+003;3.1217949219e+003;3.1703845215e+003;3.1400000000e+003;3.1233332520e+003;3.1396154785e+003;3.1338461914e+003;3.1656411133e+003;3.2143588867e+003;3.1401281738e+003;3.2025642090e+003;3.1575642090e+003;3.1265385742e+003;
1.7578125000e+000;3.3201281738e+003;3.1441025391e+003;3.1189743652e+003;3.1666667480e+003;3.1379487305e+003;3.1197436523e+003;3.1385898438e+003;3.1330769043e+003;3.1678205566e+003;3.2126923828e+003;3.1374357910e+003;3.1994870605e+003;3.1550000000e+003;3.1243588867e+003;
1.7656250000e+000;3.3642307129e+003;3.1924357910e+003;3.1657692871e+003;3.2084614258e+003;3.1871794434e+003;3.1621794434e+003;3.1858974609e+003;3.1796154785e+003;3.2194870605e+003;3.2647436523e+003;3.1850000000e+003;3.2478205566e+003;3.2005129395e+003;3.1743588867e+003;
1.7734375000e+000;3.4352563477e+003;3.2760256348e+003;3.2482050781e+003;3.2846154785e+003;3.2717949219e+003;3.2310256348e+003;3.2578205566e+003;3.2508974609e+003;3.2898718262e+003;3.3441025391e+003;3.2679487305e+003;3.3180769043e+003;3.2792307129e+003;3.2482050781e+003;
1.7812500000e+000;3.4415385742e+003;3.2860256348e+003;3.2591025391e+003;3.2948718262e+003;3.2850000000e+003;3.2423076172e+003;3.2664101563e+003;3.2565385742e+003;3.2982050781e+003;3.3523076172e+003;3.2778205566e+003;3.3266667480e+003;3.2893588867e+003;3.2591025391e+003;
1.7890625000e+000;3.4115385742e+003;3.2696154785e+003;3.2429487305e+003;3.2753845215e+003;3.2700000000e+003;3.2301281738e+003;3.2460256348e+003;3.2212819824e+003;3.2610256348e+003;3.3208974609e+003;3.2476923828e+003;3.3098718262e+003;3.2628205566e+003;3.2426923828e+003;
1.7968750000e+000;3.4173076172e+003;3.2779487305e+003;3.2488461914e+003;3.2825642090e+003;3.2783332520e+003;3.2374357910e+003;3.2524357910e+003;3.2261538086e+003;3.2585898438e+003;3.3243588867e+003;3.2517949219e+003;3.3141025391e+003;3.2685898438e+003;3.2470512695e+003;
1.8046875000e+000;3.4206411133e+003;3.2793588867e+003;3.2533332520e+003;3.2889743652e+003;3.2853845215e+003;3.2469230957e+003;3.2570512695e+003;3.2260256348e+003;3.2479487305e+003;3.3235898438e+003;3.2566667480e+003;3.3183332520e+003;3.2741025391e+003;3.2502563477e+003;
1.8125000000e+000;3.4082050781e+003;3.2650000000e+003;3.2432050781e+003;3.2770512695e+003;3.2733332520e+003;3.2389743652e+003;3.2460256348e+003;3.2067949219e+003;3.2289743652e+003;3.3062819824e+003;3.2450000000e+003;3.3092307129e+003;3.2611538086e+003;3.2411538086e+003;
1.8203125000e+000;3.4067949219e+003;3.2767949219e+003;3.2478205566e+003;3.2778205566e+003;3.2748718262e+003;3.2412819824e+003;3.2479487305e+003;3.1960256348e+003;3.2171794434e+003;3.3011538086e+003;3.2489743652e+003;3.3120512695e+003;3.2623076172e+003;3.2485898438e+003;
1.8281250000e+000;3.4055129395e+003;3.2798718262e+003;3.2474357910e+003;3.2794870605e+003;3.2762819824e+003;3.2397436523e+003;3.2503845215e+003;3.2024357910e+003;3.2201281738e+003;3.3061538086e+003;3.2511538086e+003;3.3112819824e+003;3.2657692871e+003;3.2471794434e+003;
1.8359375000e+000;3.3992307129e+003;3.2735898438e+003;3.2424357910e+003;3.2761538086e+003;3.2742307129e+003;3.2358974609e+003;3.2542307129e+003;3.2128205566e+003;3.2329487305e+003;3.3120512695e+003;3.2514101563e+003;3.3097436523e+003;3.2688461914e+003;3.2421794434e+003;
1.8437500000e+000;3.4074357910e+003;3.2819230957e+003;3.2523076172e+003;3.2841025391e+003;3.2833332520e+003;3.2469230957e+003;3.2651281738e+003;3.2283332520e+003;3.2546154785e+003;3.3271794434e+003;3.2643588867e+003;3.3229487305e+003;3.2816667480e+003;3.2546154785e+003;
1.8515625000e+000;3.4134614258e+003;3.2901281738e+003;3.2617949219e+003;3.2907692871e+003;3.2896154785e+003;3.2564101563e+003;3.2715385742e+003;3.2424357910e+003;3.2744870605e+003;3.3415385742e+003;3.2766667480e+003;3.3357692871e+003;3.2929487305e+003;3.2674357910e+003;
1.8593750000e+000;3.4061538086e+003;3.2866667480e+003;3.2593588867e+003;3.2855129395e+003;3.2826923828e+003;3.2520512695e+003;3.2638461914e+003;3.2438461914e+003;3.2787180176e+003;3.3425642090e+003;3.2760256348e+003;3.3355129395e+003;3.2906411133e+003;3.2678205566e+003;
1.8671875000e+000;3.4520512695e+003;3.3450000000e+003;3.3028205566e+003;3.3341025391e+003;3.3356411133e+003;3.2897436523e+003;3.3082050781e+003;3.3017949219e+003;3.3391025391e+003;3.4051281738e+003;3.3287180176e+003;3.3782050781e+003;3.3416667480e+003;3.3151281738e+003;
1.8750000000e+000;3.4947436523e+003;3.3965385742e+003;3.3489743652e+003;3.3782050781e+003;3.3825642090e+003;3.3344870605e+003;3.3487180176e+003;3.3537180176e+003;3.4029487305e+003;3.4671794434e+003;3.3803845215e+003;3.4252563477e+003;3.3928205566e+003;3.3602563477e+003;
1.8828125000e+000;3.4955129395e+003;3.3988461914e+003;3.3510256348e+003;3.3787180176e+003;3.3889743652e+003;3.3353845215e+003;3.3525642090e+003;3.3571794434e+003;3.4076923828e+003;3.4728205566e+003;3.3857692871e+003;3.4280769043e+003;3.3958974609e+003;3.3624357910e+003;
1.8906250000e+000;3.5185898438e+003;3.4247436523e+003;3.3761538086e+003;3.3975642090e+003;3.4158974609e+003;3.3567949219e+003;3.3797436523e+003;3.3796154785e+003;3.4306411133e+003;3.4970512695e+003;3.4114101563e+003;3.4562819824e+003;3.4224357910e+003;3.3870512695e+003;
1.8984375000e+000;3.5602563477e+003;3.4702563477e+003;3.4221794434e+003;3.4321794434e+003;3.4523076172e+003;3.3952563477e+003;3.4123076172e+003;3.4037180176e+003;3.4453845215e+003;3.5242307129e+003;3.4511538086e+003;3.5023076172e+003;3.4658974609e+003;3.4393588867e+003;
1.9062500000e+000;3.5503845215e+003;3.4617949219e+003;3.4144870605e+003;3.4243588867e+003;3.4458974609e+003;3.3900000000e+003;3.4073076172e+003;3.3921794434e+003;3.4307692871e+003;3.5125642090e+003;3.4441025391e+003;3.4944870605e+003;3.4552563477e+003;3.4317949219e+003;
1.9140625000e+000;3.5989743652e+003;3.5215385742e+003;3.4696154785e+003;3.4800000000e+003;3.5088461914e+003;3.4519230957e+003;3.4744870605e+003;3.4444870605e+003;3.4691025391e+003;3.5558974609e+003;3.4955129395e+003;3.5473076172e+003;3.5097436523e+003;3.4841025391e+003;
1.9218750000e+000;3.6133332520e+003;3.5388461914e+003;3.4866667480e+003;3.4970512695e+003;3.5262819824e+003;3.4705129395e+003;3.4925642090e+003;3.4632050781e+003;3.4814101563e+003;3.5703845215e+003;3.5107692871e+003;3.5648718262e+003;3.5253845215e+003;3.5000000000e+003;
1.9296875000e+000;3.5887180176e+003;3.5164101563e+003;3.4664101563e+003;3.4791025391e+003;3.5044870605e+003;3.4557692871e+003;3.4758974609e+003;3.4458974609e+003;3.4574357910e+003;3.5497436523e+003;3.4908974609e+003;3.5465385742e+003;3.5024357910e+003;3.4771794434e+003;
1.9375000000e+000;3.5841025391e+003;3.5141025391e+003;3.4621794434e+003;3.4767949219e+003;3.5024357910e+003;3.4543588867e+003;3.4756411133e+003;3.4442307129e+003;3.4588461914e+003;3.5501281738e+003;3.4903845215e+003;3.5430769043e+003;3.5015385742e+003;3.4732050781e+003;
1.9453125000e+000;3.6464101563e+003;3.5850000000e+003;3.5310256348e+003;3.5389743652e+003;3.5728205566e+003;3.5171794434e+003;3.5433332520e+003;3.5210256348e+003;3.5535898438e+003;3.6332050781e+003;3.5644870605e+003;3.6123076172e+003;3.5766667480e+003;3.5473076172e+003;
1.9531250000e+000;3.6646154785e+003;3.6011538086e+003;3.5520512695e+003;3.5555129395e+003;3.5897436523e+003;3.5334614258e+003;3.5588461914e+003;3.5420512695e+003;3.5758974609e+003;3.6542307129e+003;3.5829487305e+003;3.6312819824e+003;3.5947436523e+003;3.5679487305e+003;
1.9609375000e+000;3.6791025391e+003;3.6146154785e+003;3.5684614258e+003;3.5697436523e+003;3.6032050781e+003;3.5465385742e+003;3.5700000000e+003;3.5591025391e+003;3.5926923828e+003;3.6723076172e+003;3.5987180176e+003;3.6452563477e+003;3.6102563477e+003;3.5828205566e+003;
1.9687500000e+000;3.6858974609e+003;3.6238461914e+003;3.5767949219e+003;3.5789743652e+003;3.6110256348e+003;3.5543588867e+003;3.5750000000e+003;3.5705129395e+003;3.6043588867e+003;3.6864101563e+003;3.6096154785e+003;3.6529487305e+003;3.6211538086e+003;3.5901281738e+003;
1.9765625000e+000;3.6452563477e+003;3.5982050781e+003;3.5425642090e+003;3.5488461914e+003;3.5796154785e+003;3.5224357910e+003;3.5446154785e+003;3.5430769043e+003;3.5932050781e+003;3.6657692871e+003;3.5875642090e+003;3.6273076172e+003;3.5978205566e+003;3.5617949219e+003;
1.9843750000e+000;3.6489743652e+003;3.6094870605e+003;3.5598718262e+003;3.5598718262e+003;3.5947436523e+003;3.5355129395e+003;3.5551281738e+003;3.5665385742e+003;3.6111538086e+003;3.6896154785e+003;3.5983332520e+003;3.6337180176e+003;3.6065385742e+003;3.5716667480e+003;
1.9921875000e+000;3.6162819824e+003;3.5776923828e+003;3.5303845215e+003;3.5296154785e+003;3.5642307129e+003;3.5091025391e+003;3.5265385742e+003;3.5405129395e+003;3.5833332520e+003;3.6596154785e+003;3.5643588867e+003;3.6006411133e+003;3.5737180176e+003;3.5379487305e+003;
2.0000000000e+000;3.5606411133e+003;3.5188461914e+003;3.4702563477e+003;3.4794870605e+003;3.5166667480e+003;3.4660256348e+003;3.4814101563e+003;3.4864101563e+003;3.5314101563e+003;3.5956411133e+003;3.5075642090e+003;3.5402563477e+003;3.5126923828e+003;3.4766667480e+003;
2.0078125000e+000;3.5429487305e+003;3.5008974609e+003;3.4542307129e+003;3.4679487305e+003;3.5019230957e+003;3.4526923828e+003;3.4689743652e+003;3.4696154785e+003;3.5105129395e+003;3.5771794434e+003;3.4930769043e+003;3.5265385742e+003;3.4956411133e+003;3.4625642090e+003;
2.0156250000e+000;3.4880769043e+003;3.4493588867e+003;3.4060256348e+003;3.4212819824e+003;3.4483332520e+003;3.4032050781e+003;3.4229487305e+003;3.4165385742e+003;3.4425642090e+003;3.5189743652e+003;3.4396154785e+003;3.4801281738e+003;3.4492307129e+003;3.4176923828e+003;
2.0234375000e+000;3.4662819824e+003;3.4294870605e+003;3.3843588867e+003;3.3985898438e+003;3.4247436523e+003;3.3821794434e+003;3.4026923828e+003;3.3930769043e+003;3.4130769043e+003;3.4934614258e+003;3.4156411133e+003;3.4583332520e+003;3.4330769043e+003;3.3982050781e+003;
2.0312500000e+000;3.4244870605e+003;3.3797436523e+003;3.3338461914e+003;3.3506411133e+003;3.3729487305e+003;3.3389743652e+003;3.3583332520e+003;3.3305129395e+003;3.3437180176e+003;3.4283332520e+003;3.3669230957e+003;3.4097436523e+003;3.3832050781e+003;3.3502563477e+003;
2.0390625000e+000;3.4242307129e+003;3.3748718262e+003;3.3315385742e+003;3.3485898438e+003;3.3694870605e+003;3.3351281738e+003;3.3553845215e+003;3.3232050781e+003;3.3351281738e+003;3.4189743652e+003;3.3643588867e+003;3.4085898438e+003;3.3757692871e+003;3.3479487305e+003;
2.0468750000e+000;3.4842307129e+003;3.4316667480e+003;3.3903845215e+003;3.4005129395e+003;3.4233332520e+003;3.3829487305e+003;3.4103845215e+003;3.3787180176e+003;3.3975642090e+003;3.4760256348e+003;3.4216667480e+003;3.4714101563e+003;3.4397436523e+003;3.4074357910e+003;
2.0546875000e+000;3.5271794434e+003;3.4767949219e+003;3.4335898438e+003;3.4414101563e+003;3.4673076172e+003;3.4238461914e+003;3.4533332520e+003;3.4214101563e+003;3.4473076172e+003;3.5243588867e+003;3.4657692871e+003;3.5135898438e+003;3.4869230957e+003;3.4502563477e+003;
2.0625000000e+000;3.6460256348e+003;3.6029487305e+003;3.5553845215e+003;3.5573076172e+003;3.5942307129e+003;3.5394870605e+003;3.5697436523e+003;3.5479487305e+003;3.5844870605e+003;3.6596154785e+003;3.5919230957e+003;3.6305129395e+003;3.6071794434e+003;3.5710256348e+003;
2.0703125000e+000;3.6839743652e+003;3.6443588867e+003;3.5971794434e+003;3.5958974609e+003;3.6360256348e+003;3.5776923828e+003;3.6065385742e+003;3.5969230957e+003;3.6337180176e+003;3.7073076172e+003;3.6350000000e+003;3.6714101563e+003;3.6448718262e+003;3.6120512695e+003;
2.0781250000e+000;3.6862819824e+003;3.6494870605e+003;3.6039743652e+003;3.6012819824e+003;3.6403845215e+003;3.5828205566e+003;3.6092307129e+003;3.6111538086e+003;3.6460256348e+003;3.7176923828e+003;3.6412819824e+003;3.6788461914e+003;3.6484614258e+003;3.6176923828e+003;
2.0859375000e+000;3.6212819824e+003;3.5966667480e+003;3.5462819824e+003;3.5484614258e+003;3.5829487305e+003;3.5279487305e+003;3.5587180176e+003;3.5623076172e+003;3.6085898438e+003;3.6714101563e+003;3.5832050781e+003;3.6184614258e+003;3.5942307129e+003;3.5550000000e+003;
2.0937500000e+000;3.6151281738e+003;3.5919230957e+003;3.5423076172e+003;3.5433332520e+003;3.5798718262e+003;3.5234614258e+003;3.5555129395e+003;3.5608974609e+003;3.6056411133e+003;3.6674357910e+003;3.5788461914e+003;3.6138461914e+003;3.5879487305e+003;3.5514101563e+003;
2.1015625000e+000;3.6714101563e+003;3.6615385742e+003;3.6024357910e+003;3.6067949219e+003;3.6432050781e+003;3.5826923828e+003;3.6133332520e+003;3.6210256348e+003;3.6508974609e+003;3.7278205566e+003;3.6421794434e+003;3.6708974609e+003;3.6521794434e+003;3.6076923828e+003;
2.1093750000e+000;3.6833332520e+003;3.6752563477e+003;3.6160256348e+003;3.6192307129e+003;3.6544870605e+003;3.5923076172e+003;3.6224357910e+003;3.6305129395e+003;3.6583332520e+003;3.7396154785e+003;3.6544870605e+003;3.6829487305e+003;3.6673076172e+003;3.6193588867e+003;
2.1171875000e+000;3.6592307129e+003;3.6456411133e+003;3.5950000000e+003;3.5915385742e+003;3.6256411133e+003;3.5607692871e+003;3.5910256348e+003;3.5965385742e+003;3.6260256348e+003;3.7053845215e+003;3.6250000000e+003;3.6579487305e+003;3.6403845215e+003;3.5983332520e+003;
2.1250000000e+000;3.6811538086e+003;3.6778205566e+003;3.6260256348e+003;3.6180769043e+003;3.6591025391e+003;3.5941025391e+003;3.6201281738e+003;3.6026923828e+003;3.6256411133e+003;3.7208974609e+003;3.6562819824e+003;3.6892307129e+003;3.6641025391e+003;3.6278205566e+003;
2.1328125000e+000;3.7158974609e+003;3.7171794434e+003;3.6630769043e+003;3.6552563477e+003;3.6992307129e+003;3.6339743652e+003;3.6593588867e+003;3.6332050781e+003;3.6541025391e+003;3.7555129395e+003;3.6915385742e+003;3.7244870605e+003;3.7010256348e+003;3.6617949219e+003;
2.1406250000e+000;3.8176923828e+003;3.8258974609e+003;3.7698718262e+003;3.7573076172e+003;3.8093588867e+003;3.7406411133e+003;3.7667949219e+003;3.7305129395e+003;3.7506411133e+003;3.8582050781e+003;3.7894870605e+003;3.8228205566e+003;3.8044870605e+003;3.7638461914e+003;
2.1484375000e+000;3.8462819824e+003;3.8566667480e+003;3.8024357910e+003;3.7861538086e+003;3.8401281738e+003;3.7719230957e+003;3.7974357910e+003;3.7616667480e+003;3.7825642090e+003;3.8889743652e+003;3.8175642090e+003;3.8539743652e+003;3.8334614258e+003;3.7952563477e+003;
2.1562500000e+000;3.8158974609e+003;3.8335898438e+003;3.7789743652e+003;3.7593588867e+003;3.8153845215e+003;3.7511538086e+003;3.7725642090e+003;3.7489743652e+003;3.7743588867e+003;3.8714101563e+003;3.7965385742e+003;3.8446154785e+003;3.8103845215e+003;3.7762819824e+003;
2.1640625000e+000;3.8121794434e+003;3.8334614258e+003;3.7762819824e+003;3.7562819824e+003;3.8148718262e+003;3.7494870605e+003;3.7721794434e+003;3.7529487305e+003;3.7806411133e+003;3.8758974609e+003;3.7991025391e+003;3.8450000000e+003;3.8133332520e+003;3.7771794434e+003;
2.1718750000e+000;3.8215385742e+003;3.8452563477e+003;3.7953845215e+003;3.7669230957e+003;3.8307692871e+003;3.7655129395e+003;3.7942307129e+003;3.7855129395e+003;3.8198718262e+003;3.9007692871e+003;3.8247436523e+003;3.8614101563e+003;3.8311538086e+003;3.8001281738e+003;
2.1796875000e+000;3.8284614258e+003;3.8533332520e+003;3.8034614258e+003;3.7752563477e+003;3.8400000000e+003;3.7734614258e+003;3.8016667480e+003;3.8000000000e+003;3.8350000000e+003;3.9115385742e+003;3.8350000000e+003;3.8706411133e+003;3.8373076172e+003;3.8076923828e+003;
2.1875000000e+000;3.8230769043e+003;3.8558974609e+003;3.7966667480e+003;3.7780769043e+003;3.8406411133e+003;3.7721794434e+003;3.7994870605e+003;3.8093588867e+003;3.8406411133e+003;3.9193588867e+003;3.8348718262e+003;3.8732050781e+003;3.8362819824e+003;3.8017949219e+003;
2.1953125000e+000;3.8152563477e+003;3.8516667480e+003;3.7894870605e+003;3.7742307129e+003;3.8357692871e+003;3.7665385742e+003;3.7962819824e+003;3.8062819824e+003;3.8346154785e+003;3.9164101563e+003;3.8273076172e+003;3.8688461914e+003;3.8323076172e+003;3.7946154785e+003;
2.2031250000e+000;3.8266667480e+003;3.8652563477e+003;3.8029487305e+003;3.7869230957e+003;3.8503845215e+003;3.7785898438e+003;3.8117949219e+003;3.8201281738e+003;3.8467949219e+003;3.9294870605e+003;3.8373076172e+003;3.8807692871e+003;3.8461538086e+003;3.8065385742e+003;
2.2109375000e+000;3.8706411133e+003;3.9114101563e+003;3.8494870605e+003;3.8296154785e+003;3.8978205566e+003;3.8214101563e+003;3.8569230957e+003;3.8652563477e+003;3.8923076172e+003;3.9737180176e+003;3.8800000000e+003;3.9223076172e+003;3.8902563477e+003;3.8503845215e+003;
2.2187500000e+000;4.1717949219e+003;4.2343588867e+003;4.1557690430e+003;4.1271796875e+003;4.2112822266e+003;4.1135898438e+003;4.1515385742e+003;4.1635898438e+003;4.1897436523e+003;4.2832050781e+003;4.1880771484e+003;4.2223076172e+003;4.1925639648e+003;4.1503847656e+003;
2.2265625000e+000;4.5170512695e+003;4.6180771484e+003;4.5216665039e+003;4.4802563477e+003;4.5961538086e+003;4.4724360352e+003;4.5120512695e+003;4.5107690430e+003;4.5247436523e+003;4.6497436523e+003;4.5578203125e+003;4.5808974609e+003;4.5647436523e+003;4.5071796875e+003;
2.2343750000e+000;4.5703847656e+003;4.6833334961e+003;4.5871796875e+003;4.5394873047e+003;4.6585898438e+003;4.5329487305e+003;4.5720512695e+003;4.5679487305e+003;4.5794873047e+003;4.7106411133e+003;4.6216665039e+003;4.6458974609e+003;4.6255126953e+003;4.5719228516e+003;
2.2421875000e+000;4.6544873047e+003;4.7943588867e+003;4.6898715820e+003;4.6341025391e+003;4.7588461914e+003;4.6284614258e+003;4.6705126953e+003;4.6608974609e+003;4.6687177734e+003;4.8135898438e+003;4.7248715820e+003;4.7528203125e+003;4.7305126953e+003;4.6750000000e+003;
2.2500000000e+000;4.6998715820e+003;4.8688461914e+003;4.7635898438e+003;4.6924360352e+003;4.8355126953e+003;4.6994873047e+003;4.7374360352e+003;4.7389741211e+003;4.7575639648e+003;4.8893588867e+003;4.7969228516e+003;4.8285898438e+003;4.8082050781e+003;4.7473076172e+003;
2.2578125000e+000;4.6953847656e+003;4.8675639648e+003;4.7683334961e+003;4.6901284180e+003;4.8350000000e+003;4.7001284180e+003;4.7378203125e+003;4.7423076172e+003;4.7643588867e+003;4.8924360352e+003;4.8006411133e+003;4.8296152344e+003;4.8097436523e+003;4.7515385742e+003;
2.2656250000e+000;4.6925639648e+003;4.8767949219e+003;4.7787177734e+003;4.6964101563e+003;4.8387177734e+003;4.7069228516e+003;4.7491025391e+003;4.7550000000e+003;4.7797436523e+003;4.9064101563e+003;4.8174360352e+003;4.8408974609e+003;4.8194873047e+003;4.7641025391e+003;
2.2734375000e+000;4.7158974609e+003;4.9091025391e+003;4.8056411133e+003;4.7256411133e+003;4.8674360352e+003;4.7358974609e+003;4.7800000000e+003;4.7855126953e+003;4.8114101563e+003;4.9371796875e+003;4.8497436523e+003;4.8708974609e+003;4.8497436523e+003;4.7932050781e+003;
2.2812500000e+000;4.8603847656e+003;5.0839741211e+003;4.9683334961e+003;4.8883334961e+003;5.0414101563e+003;4.9035898438e+003;4.9428203125e+003;4.9670512695e+003;4.9950000000e+003;5.1155126953e+003;5.0188461914e+003;5.0366665039e+003;5.0244873047e+003;4.9602563477e+003;
2.2890625000e+000;4.8506411133e+003;5.0802563477e+003;4.9693588867e+003;4.8858974609e+003;5.0396152344e+003;4.9038461914e+003;4.9410258789e+003;4.9730771484e+003;4.9978203125e+003;5.1169228516e+003;5.0152563477e+003;5.0348715820e+003;5.0226923828e+003;4.9589741211e+003;
2.2968750000e+000;4.8110258789e+003;5.0442309570e+003;4.9391025391e+003;4.8532050781e+003;5.0052563477e+003;4.8739741211e+003;4.9108974609e+003;4.9450000000e+003;4.9660258789e+003;5.0844873047e+003;4.9801284180e+003;5.0014101563e+003;4.9879487305e+003;4.9261538086e+003;
2.3046875000e+000;4.7664101563e+003;5.0078203125e+003;4.9055126953e+003;4.8170512695e+003;4.9710258789e+003;4.8435898438e+003;4.8855126953e+003;4.9132050781e+003;4.9333334961e+003;5.0514101563e+003;4.9476923828e+003;4.9665385742e+003;4.9510258789e+003;4.8932050781e+003;
2.3125000000e+000;4.7420512695e+003;4.9962822266e+003;4.8960258789e+003;4.8037177734e+003;4.9655126953e+003;4.8325639648e+003;4.8811538086e+003;4.9091025391e+003;4.9342309570e+003;5.0403847656e+003;4.9394873047e+003;4.9600000000e+003;4.9392309570e+003;4.8851284180e+003;
2.3203125000e+000;4.7083334961e+003;4.9628203125e+003;4.8639741211e+003;4.7742309570e+003;4.9325639648e+003;4.8008974609e+003;4.8493588867e+003;4.8764101563e+003;4.8996152344e+003;5.0010258789e+003;4.9032050781e+003;4.9241025391e+003;4.9041025391e+003;4.8514101563e+003;
2.3281250000e+000;4.6856411133e+003;4.9402563477e+003;4.8414101563e+003;4.7555126953e+003;4.9087177734e+003;4.7797436523e+003;4.8266665039e+003;4.8514101563e+003;4.8720512695e+003;4.9717949219e+003;4.8773076172e+003;4.8964101563e+003;4.8789741211e+003;4.8276923828e+003;
2.3359375000e+000;4.6852563477e+003;4.9415385742e+003;4.8421796875e+003;4.7588461914e+003;4.9073076172e+003;4.7812822266e+003;4.8261538086e+003;4.8473076172e+003;4.8662822266e+003;4.9679487305e+003;4.8761538086e+003;4.8919228516e+003;4.8774360352e+003;4.8273076172e+003;
2.3437500000e+000;4.8494873047e+003;5.1203847656e+003;5.0196152344e+003;4.9232050781e+003;5.0819228516e+003;4.9453847656e+003;4.9903847656e+003;4.9970512695e+003;5.0182050781e+003;5.1388461914e+003;5.0439741211e+003;5.0617949219e+003;5.0482050781e+003;4.9960258789e+003;
2.3515625000e+000;4.8908974609e+003;5.1797436523e+003;5.0798715820e+003;4.9808974609e+003;5.1417949219e+003;5.0088461914e+003;5.0452563477e+003;5.0550000000e+003;5.0788461914e+003;5.1997436523e+003;5.1097436523e+003;5.1252563477e+003;5.1106411133e+003;5.0657690430e+003;
2.3593750000e+000;4.8901284180e+003;5.1861538086e+003;5.0833334961e+003;4.9834614258e+003;5.1469228516e+003;5.0151284180e+003;5.0492309570e+003;5.0594873047e+003;5.0850000000e+003;5.2051284180e+003;5.1157690430e+003;5.1274360352e+003;5.1176923828e+003;5.0688461914e+003;
2.3671875000e+000;4.8785898438e+003;5.1825639648e+003;5.0774360352e+003;4.9756411133e+003;5.1426923828e+003;5.0148715820e+003;5.0475639648e+003;5.0606411133e+003;5.0926923828e+003;5.2048715820e+003;5.1114101563e+003;5.1225639648e+003;5.1162822266e+003;5.0661538086e+003;
2.3750000000e+000;4.8721796875e+003;5.1765385742e+003;5.0743588867e+003;4.9724360352e+003;5.1388461914e+003;5.0134614258e+003;5.0476923828e+003;5.0614101563e+003;5.0956411133e+003;5.2028203125e+003;5.1061538086e+003;5.1226923828e+003;5.1114101563e+003;5.0669228516e+003;
2.3828125000e+000;4.9344873047e+003;5.2464101563e+003;5.1506411133e+003;5.0484614258e+003;5.2147436523e+003;5.0878203125e+003;5.1297436523e+003;5.1514101563e+003;5.1721796875e+003;5.2796152344e+003;5.1778203125e+003;5.2015385742e+003;5.1783334961e+003;5.1428203125e+003;
2.3906250000e+000;4.9284614258e+003;5.2478203125e+003;5.1521796875e+003;5.0464101563e+003;5.2083334961e+003;5.0850000000e+003;5.1334614258e+003;5.1616665039e+003;5.1732050781e+003;5.2752563477e+003;5.1803847656e+003;5.1994873047e+003;5.1742309570e+003;5.1403847656e+003;
2.3984375000e+000;4.9403847656e+003;5.2630771484e+003;5.1656411133e+003;5.0607690430e+003;5.2237177734e+003;5.0989741211e+003;5.1489741211e+003;5.1765385742e+003;5.1912822266e+003;5.2889741211e+003;5.1955126953e+003;5.2157690430e+003;5.1902563477e+003;5.1562822266e+003;
2.4062500000e+000;4.9537177734e+003;5.2897436523e+003;5.1920512695e+003;5.0910258789e+003;5.2532050781e+003;5.1257690430e+003;5.1734614258e+003;5.2125639648e+003;5.2207690430e+003;5.3215385742e+003;5.2267949219e+003;5.2487177734e+003;5.2238461914e+003;5.1823076172e+003;
2.4140625000e+000;4.9146152344e+003;5.2502563477e+003;5.1556411133e+003;5.0534614258e+003;5.2125639648e+003;5.0870512695e+003;5.1333334961e+003;5.1748715820e+003;5.1798715820e+003;5.2826923828e+003;5.1892309570e+003;5.2091025391e+003;5.1852563477e+003;5.1441025391e+003;
2.4218750000e+000;4.8751284180e+003;5.2082050781e+003;5.1164101563e+003;5.0121796875e+003;5.1701284180e+003;5.0458974609e+003;5.0906411133e+003;5.1314101563e+003;5.1371796875e+003;5.2405126953e+003;5.1484614258e+003;5.1665385742e+003;5.1441025391e+003;5.1051284180e+003;
2.4296875000e+000;4.8511538086e+003;5.1811538086e+003;5.0906411133e+003;4.9847436523e+003;5.1470512695e+003;5.0230771484e+003;5.0626923828e+003;5.0956411133e+003;5.1093588867e+003;5.2103847656e+003;5.1207690430e+003;5.1414101563e+003;5.1201284180e+003;5.0870512695e+003;
2.4375000000e+000;4.9900000000e+003;5.3341025391e+003;5.2392309570e+003;5.1357690430e+003;5.3021796875e+003;5.1711538086e+003;5.2093588867e+003;5.2343588867e+003;5.2511538086e+003;5.3533334961e+003;5.2755126953e+003;5.2866665039e+003;5.2721796875e+003;5.2382050781e+003;
2.4453125000e+000;5.0408974609e+003;5.3924360352e+003;5.2950000000e+003;5.1900000000e+003;5.3589741211e+003;5.2232050781e+003;5.2630771484e+003;5.2910258789e+003;5.3076923828e+003;5.4146152344e+003;5.3355126953e+003;5.3407690430e+003;5.3289741211e+003;5.2916665039e+003;
2.4531250000e+000;5.0643588867e+003;5.4216665039e+003;5.3229487305e+003;5.2148715820e+003;5.3874360352e+003;5.2491025391e+003;5.2896152344e+003;5.3193588867e+003;5.3371796875e+003;5.4479487305e+003;5.3643588867e+003;5.3684614258e+003;5.3574360352e+003;5.3174360352e+003;
2.4609375000e+000;5.0702563477e+003;5.4306411133e+003;5.3319228516e+003;5.2208974609e+003;5.3967949219e+003;5.2588461914e+003;5.2983334961e+003;5.3260258789e+003;5.3456411133e+003;5.4575639648e+003;5.3701284180e+003;5.3773076172e+003;5.3665385742e+003;5.3251284180e+003;
2.4687500000e+000;5.2471796875e+003;5.6289741211e+003;5.5198715820e+003;5.4082050781e+003;5.5880771484e+003;5.4419228516e+003;5.4835898438e+003;5.5070512695e+003;5.5243588867e+003;5.6417949219e+003;5.5596152344e+003;5.5646152344e+003;5.5567949219e+003;5.5161538086e+003;
2.4765625000e+000;5.2669228516e+003;5.6548715820e+003;5.5471796875e+003;5.4319228516e+003;5.6139741211e+003;5.4667949219e+003;5.5107690430e+003;5.5396152344e+003;5.5529487305e+003;5.6737177734e+003;5.5885898438e+003;5.5937177734e+003;5.5832050781e+003;5.5423076172e+003;
2.4843750000e+000;5.2405126953e+003;5.6317949219e+003;5.5316665039e+003;5.4057690430e+003;5.5991025391e+003;5.4575639648e+003;5.4985898438e+003;5.5334614258e+003;5.5457690430e+003;5.6564101563e+003;5.5658974609e+003;5.5730771484e+003;5.5665385742e+003;5.5246152344e+003;
2.4921875000e+000;5.2751284180e+003;5.6775639648e+003;5.5683334961e+003;5.4448715820e+003;5.6362822266e+003;5.4975639648e+003;5.5408974609e+003;5.5744873047e+003;5.5823076172e+003;5.6884614258e+003;5.6069228516e+003;5.6082050781e+003;5.6014101563e+003;5.5624360352e+003;
2.5000000000e+000;5.3151284180e+003;5.7235898438e+003;5.6124360352e+003;5.4857690430e+003;5.6805126953e+003;5.5397436523e+003;5.5842309570e+003;5.6201284180e+003;5.6258974609e+003;5.7330771484e+003;5.6529487305e+003;5.6533334961e+003;5.6442309570e+003;5.6046152344e+003;
2.5078125000e+000;5.2344873047e+003;5.6511538086e+003;5.5476923828e+003;5.4200000000e+003;5.6034614258e+003;5.4735898438e+003;5.5060258789e+003;5.5612822266e+003;5.5694873047e+003;5.6723076172e+003;5.5869228516e+003;5.5942309570e+003;5.5757690430e+003;5.5443588867e+003;
2.5156250000e+000;4.8512822266e+003;5.2508974609e+003;5.1638461914e+003;5.0551284180e+003;5.2080771484e+003;5.1019228516e+003;5.1305126953e+003;5.1717949219e+003;5.1860258789e+003;5.2732050781e+003;5.1958974609e+003;5.2057690430e+003;5.1957690430e+003;5.1620512695e+003;
2.5234375000e+000;4.7839741211e+003;5.1770512695e+003;5.0958974609e+003;4.9894873047e+003;5.1387177734e+003;5.0337177734e+003;5.0643588867e+003;5.0970512695e+003;5.1146152344e+003;5.1971796875e+003;5.1261538086e+003;5.1338461914e+003;5.1267949219e+003;5.0892309570e+003;
2.5312500000e+000;4.7410258789e+003;5.1275639648e+003;5.0532050781e+003;4.9471796875e+003;5.0915385742e+003;4.9875639648e+003;5.0187177734e+003;5.0461538086e+003;5.0670512695e+003;5.1448715820e+003;5.0820512695e+003;5.0885898438e+003;5.0791025391e+003;5.0433334961e+003;
2.5390625000e+000;4.6448715820e+003;5.0179487305e+003;4.9548715820e+003;4.8516665039e+003;4.9780771484e+003;4.8814101563e+003;4.9089741211e+003;4.9373076172e+003;4.9593588867e+003;5.0297436523e+003;4.9808974609e+003;4.9908974609e+003;4.9684614258e+003;4.9485898438e+003;
2.5468750000e+000;4.5774360352e+003;4.9429487305e+003;4.8828203125e+003;4.7832050781e+003;4.9000000000e+003;4.8092309570e+003;4.8350000000e+003;4.8653847656e+003;4.8848715820e+003;4.9539741211e+003;4.9073076172e+003;4.9201284180e+003;4.8955126953e+003;4.8800000000e+003;
2.5546875000e+000;4.5034614258e+003;4.8603847656e+003;4.8034614258e+003;4.7069228516e+003;4.8164101563e+003;4.7316665039e+003;4.7573076172e+003;4.7876923828e+003;4.8032050781e+003;4.8719228516e+003;4.8252563477e+003;4.8407690430e+003;4.8179487305e+003;4.8012822266e+003;
2.5625000000e+000;4.3110258789e+003;4.6228203125e+003;4.5825639648e+003;4.4979487305e+003;4.5985898438e+003;4.5374360352e+003;4.5651284180e+003;4.5721796875e+003;4.5856411133e+003;4.6312822266e+003;4.5950000000e+003;4.6180771484e+003;4.5898715820e+003;4.5802563477e+003;
2.5703125000e+000;4.3155126953e+003;4.6228203125e+003;4.5841025391e+003;4.5012822266e+003;4.6002563477e+003;4.5456411133e+003;4.5708974609e+003;4.5748715820e+003;4.5900000000e+003;4.6305126953e+003;4.5935898438e+003;4.6157690430e+003;4.5885898438e+003;4.5803847656e+003;
2.5781250000e+000;4.3869228516e+003;4.6866665039e+003;4.6460258789e+003;4.5694873047e+003;4.6737177734e+003;4.6229487305e+003;4.6500000000e+003;4.6496152344e+003;4.6602563477e+003;4.7003847656e+003;4.6584614258e+003;4.6703847656e+003;4.6526923828e+003;4.6352563477e+003;
2.5859375000e+000;4.4150000000e+003;4.7126923828e+003;4.6694873047e+003;4.5953847656e+003;4.7037177734e+003;4.6524360352e+003;4.6800000000e+003;4.6808974609e+003;4.6910258789e+003;4.7321796875e+003;4.6897436523e+003;4.6975639648e+003;4.6794873047e+003;4.6623076172e+003;
2.5937500000e+000;4.4602563477e+003;4.7500000000e+003;4.7064101563e+003;4.6306411133e+003;4.7414101563e+003;4.6930771484e+003;4.7180771484e+003;4.7216665039e+003;4.7364101563e+003;4.7761538086e+003;4.7342309570e+003;4.7400000000e+003;4.7210258789e+003;4.7065385742e+003;
2.6015625000e+000;4.4139741211e+003;4.6898715820e+003;4.6461538086e+003;4.5696152344e+003;4.6675639648e+003;4.6202563477e+003;4.6397436523e+003;4.6698715820e+003;4.6802563477e+003;4.7226923828e+003;4.6744873047e+003;4.6852563477e+003;4.6705126953e+003;4.6539741211e+003;
2.6093750000e+000;4.3458974609e+003;4.6150000000e+003;4.5764101563e+003;4.5003847656e+003;4.5938461914e+003;4.5508974609e+003;4.5697436523e+003;4.5980771484e+003;4.6091025391e+003;4.6487177734e+003;4.6046152344e+003;4.6176923828e+003;4.5982050781e+003;4.5848715820e+003;
2.6171875000e+000;4.3139741211e+003;4.5700000000e+003;4.5388461914e+003;4.4573076172e+003;4.5503847656e+003;4.5082050781e+003;4.5296152344e+003;4.5437177734e+003;4.5621796875e+003;4.5964101563e+003;4.5643588867e+003;4.5767949219e+003;4.5582050781e+003;4.5455126953e+003;
2.6250000000e+000;4.3533334961e+003;4.6062822266e+003;4.5741025391e+003;4.4900000000e+003;4.5838461914e+003;4.5371796875e+003;4.5607690430e+003;4.5737177734e+003;4.5947436523e+003;4.6289741211e+003;4.5991025391e+003;4.6106411133e+003;4.5938461914e+003;4.5819228516e+003;
2.6328125000e+000;4.3782050781e+003;4.6241025391e+003;4.5862822266e+003;4.5088461914e+003;4.5862822266e+003;4.5369228516e+003;4.5617949219e+003;4.5834614258e+003;4.5961538086e+003;4.6403847656e+003;4.6082050781e+003;4.6244873047e+003;4.6001284180e+003;4.5992309570e+003;
2.6406250000e+000;4.3875639648e+003;4.6298715820e+003;4.5924360352e+003;4.5155126953e+003;4.5898715820e+003;4.5394873047e+003;4.5651284180e+003;4.5830771484e+003;4.5932050781e+003;4.6415385742e+003;4.6117949219e+003;4.6258974609e+003;4.6047436523e+003;4.6021796875e+003;
2.6484375000e+000;4.5114101563e+003;4.7484614258e+003;4.7173076172e+003;4.6288461914e+003;4.7120512695e+003;4.6489741211e+003;4.6796152344e+003;4.6903847656e+003;4.7012822266e+003;4.7533334961e+003;4.7301284180e+003;4.7417949219e+003;4.7243588867e+003;4.7194873047e+003;
2.6562500000e+000;4.6037177734e+003;4.8419228516e+003;4.8123076172e+003;4.7167949219e+003;4.8075639648e+003;4.7362822266e+003;4.7707690430e+003;4.7815385742e+003;4.7924360352e+003;4.8460258789e+003;4.8232050781e+003;4.8380771484e+003;4.8151284180e+003;4.8144873047e+003;
2.6640625000e+000;4.7873076172e+003;5.0473076172e+003;5.0043588867e+003;4.9044873047e+003;5.0066665039e+003;4.9266665039e+003;4.9630771484e+003;4.9858974609e+003;4.9916665039e+003;5.0607690430e+003;5.0243588867e+003;5.0360258789e+003;5.0100000000e+003;5.0117949219e+003;
2.6718750000e+000;4.7614101563e+003;5.0266665039e+003;4.9835898438e+003;4.8856411133e+003;4.9875639648e+003;4.9112822266e+003;4.9444873047e+003;4.9678203125e+003;4.9738461914e+003;5.0435898438e+003;5.0052563477e+003;5.0119228516e+003;4.9928203125e+003;4.9882050781e+003;
2.6796875000e+000;4.7355126953e+003;5.0028203125e+003;4.9607690430e+003;4.8655126953e+003;4.9689741211e+003;4.8961538086e+003;4.9270512695e+003;4.9442309570e+003;4.9519228516e+003;5.0166665039e+003;4.9819228516e+003;4.9841025391e+003;4.9728203125e+003;4.9615385742e+003;
2.6875000000e+000;4.7887177734e+003;5.0584614258e+003;5.0125639648e+003;4.9192309570e+003;5.0306411133e+003;4.9553847656e+003;4.9867949219e+003;4.9932050781e+003;5.0039741211e+003;5.0619228516e+003;5.0338461914e+003;5.0310258789e+003;5.0278203125e+003;5.0105126953e+003;
2.6953125000e+000;5.9507690430e+003;6.2929487305e+003;6.1724360352e+003;6.0512822266e+003;6.2407690430e+003;6.0970512695e+003;6.1456411133e+003;6.1580771484e+003;6.1669228516e+003;6.2698715820e+003;6.2158974609e+003;6.1898715820e+003;6.2078203125e+003;6.1755126953e+003;
2.7031250000e+000;6.5160258789e+003;6.9429487305e+003;6.8141025391e+003;6.6303847656e+003;6.8889741211e+003;6.6951284180e+003;6.7456411133e+003;6.8080771484e+003;6.8110258789e+003;6.9505126953e+003;6.8739741211e+003;6.8289741211e+003;6.8497436523e+003;6.8123076172e+003;
2.7109375000e+000;6.3832050781e+003;6.8234614258e+003;6.7024360352e+003;6.5117949219e+003;6.7687177734e+003;6.5852563477e+003;6.6289741211e+003;6.7028203125e+003;6.7075639648e+003;6.8403847656e+003;6.7612822266e+003;6.7192309570e+003;6.7341025391e+003;6.6996152344e+003;
2.7187500000e+000;5.9261538086e+003;6.3810258789e+003;6.2782050781e+003;6.0928203125e+003;6.3242309570e+003;6.1774360352e+003;6.2058974609e+003;6.2806411133e+003;6.2900000000e+003;6.4043588867e+003;6.3215385742e+003;6.2962822266e+003;6.2952563477e+003;6.2696152344e+003;
2.7265625000e+000;5.4862822266e+003;5.9339741211e+003;5.8560258789e+003;5.6884614258e+003;5.8919228516e+003;5.7728203125e+003;5.8012822266e+003;5.8429487305e+003;5.8437177734e+003;5.9297436523e+003;5.8796152344e+003;5.8606411133e+003;5.8596152344e+003;5.8412822266e+003;
2.7343750000e+000;5.4510258789e+003;5.8948715820e+003;5.8187177734e+003;5.6529487305e+003;5.8526923828e+003;5.7347436523e+003;5.7610258789e+003;5.8044873047e+003;5.8024360352e+003;5.8853847656e+003;5.8421796875e+003;5.8230771484e+003;5.8215385742e+003;5.8061538086e+003;
2.7421875000e+000;5.2960258789e+003;5.7337177734e+003;5.6605126953e+003;5.5043588867e+003;5.6916665039e+003;5.5820512695e+003;5.6042309570e+003;5.6479487305e+003;5.6400000000e+003;5.7200000000e+003;5.6847436523e+003;5.6688461914e+003;5.6628203125e+003;5.6494873047e+003;
2.7500000000e+000;5.2182050781e+003;5.6529487305e+003;5.5821796875e+003;5.4319228516e+003;5.6128203125e+003;5.5079487305e+003;5.5329487305e+003;5.5689741211e+003;5.5589741211e+003;5.6361538086e+003;5.6060258789e+003;5.5910258789e+003;5.5855126953e+003;5.5710258789e+003;
2.7578125000e+000;5.2244873047e+003;5.6482050781e+003;5.5823076172e+003;5.4361538086e+003;5.6141025391e+003;5.5046152344e+003;5.5385898438e+003;5.5683334961e+003;5.5598715820e+003;5.6244873047e+003;5.6056411133e+003;5.5887177734e+003;5.5916665039e+003;5.5778203125e+003;
2.7656250000e+000;5.2291025391e+003;5.6487177734e+003;5.5841025391e+003;5.4380771484e+003;5.6125639648e+003;5.5050000000e+003;5.5351284180e+003;5.5732050781e+003;5.5637177734e+003;5.6273076172e+003;5.6078203125e+003;5.5929487305e+003;5.5930771484e+003;5.5821796875e+003;
2.7734375000e+000;5.1533334961e+003;5.5679487305e+003;5.5080771484e+003;5.3658974609e+003;5.5232050781e+003;5.4310258789e+003;5.4535898438e+003;5.4964101563e+003;5.4864101563e+003;5.5483334961e+003;5.5325639648e+003;5.5198715820e+003;5.5129487305e+003;5.5025639648e+003;
2.7812500000e+000;5.1144873047e+003;5.5291025391e+003;5.4710258789e+003;5.3307690430e+003;5.4814101563e+003;5.3947436523e+003;5.4175639648e+003;5.4558974609e+003;5.4503847656e+003;5.5070512695e+003;5.4962822266e+003;5.4802563477e+003;5.4755126953e+003;5.4615385742e+003;
2.7890625000e+000;5.0878203125e+003;5.4893588867e+003;5.4382050781e+003;5.2992309570e+003;5.4532050781e+003;5.3652563477e+003;5.3891025391e+003;5.4244873047e+003;5.4344873047e+003;5.4705126953e+003;5.4655126953e+003;5.4456411133e+003;5.4430771484e+003;5.4316665039e+003;
2.7968750000e+000;5.0693588867e+003;5.4624360352e+003;5.4142309570e+003;5.2771796875e+003;5.4316665039e+003;5.3465385742e+003;5.3674360352e+003;5.4051284180e+003;5.4152563477e+003;5.4489741211e+003;5.4429487305e+003;5.4270512695e+003;5.4188461914e+003;5.4108974609e+003;
2.8046875000e+000;5.0357690430e+003;5.4230771484e+003;5.3757690430e+003;5.2437177734e+003;5.3946152344e+003;5.3155126953e+003;5.3337177734e+003;5.3716665039e+003;5.3814101563e+003;5.4135898438e+003;5.4062822266e+003;5.3930771484e+003;5.3821796875e+003;5.3729487305e+003;
2.8125000000e+000;4.9906411133e+003;5.3765385742e+003;5.3282050781e+003;5.2039741211e+003;5.3467949219e+003;5.2758974609e+003;5.2920512695e+003;5.3280771484e+003;5.3387177734e+003;5.3679487305e+003;5.3588461914e+003;5.3465385742e+003;5.3376923828e+003;5.3217949219e+003;
2.8203125000e+000;4.7980771484e+003;5.1641025391e+003;5.1276923828e+003;5.0274360352e+003;5.1408974609e+003;5.0900000000e+003;5.1016665039e+003;5.1258974609e+003;5.1334614258e+003;5.1470512695e+003;5.1383334961e+003;5.1343588867e+003;5.1250000000e+003;5.1083334961e+003;
2.8281250000e+000;4.6734614258e+003;5.0115385742e+003;4.9834614258e+003;4.8923076172e+003;4.9962822266e+003;4.9593588867e+003;4.9728203125e+003;4.9903847656e+003;4.9844873047e+003;4.9889741211e+003;4.9958974609e+003;4.9896152344e+003;4.9784614258e+003;4.9661538086e+003;
2.8359375000e+000;4.6532050781e+003;4.9871796875e+003;4.9598715820e+003;4.8726923828e+003;4.9703847656e+003;4.9364101563e+003;4.9506411133e+003;4.9673076172e+003;4.9587177734e+003;4.9606411133e+003;4.9689741211e+003;4.9607690430e+003;4.9547436523e+003;4.9387177734e+003;
2.8437500000e+000;4.6600000000e+003;4.9819228516e+003;4.9523076172e+003;4.8710258789e+003;4.9616665039e+003;4.9241025391e+003;4.9405126953e+003;4.9562822266e+003;4.9444873047e+003;4.9453847656e+003;4.9607690430e+003;4.9505126953e+003;4.9455126953e+003;4.9348715820e+003;
2.8515625000e+000;4.7396152344e+003;5.0410258789e+003;5.0124360352e+003;4.9353847656e+003;5.0134614258e+003;4.9594873047e+003;4.9847436523e+003;5.0088461914e+003;4.9921796875e+003;4.9998715820e+003;5.0198715820e+003;5.0182050781e+003;5.0076923828e+003;5.0044873047e+003;
2.8593750000e+000;4.7328203125e+003;5.0301284180e+003;5.0060258789e+003;4.9267949219e+003;5.0002563477e+003;4.9455126953e+003;4.9721796875e+003;5.0019228516e+003;4.9828203125e+003;4.9928203125e+003;5.0108974609e+003;5.0087177734e+003;4.9975639648e+003;4.9950000000e+003;
2.8671875000e+000;4.6862822266e+003;4.9706411133e+003;4.9566665039e+003;4.8732050781e+003;4.9385898438e+003;4.8883334961e+003;4.9151284180e+003;4.9442309570e+003;4.9298715820e+003;4.9360258789e+003;4.9587177734e+003;4.9600000000e+003;4.9403847656e+003;4.9446152344e+003;
2.8750000000e+000;4.6861538086e+003;4.9651284180e+003;4.9521796875e+003;4.8688461914e+003;4.9329487305e+003;4.8847436523e+003;4.9107690430e+003;4.9353847656e+003;4.9275639648e+003;4.9296152344e+003;4.9556411133e+003;4.9589741211e+003;4.9379487305e+003;4.9430771484e+003;
2.8828125000e+000;4.8002563477e+003;5.0787177734e+003;5.0567949219e+003;4.9785898438e+003;5.0483334961e+003;4.9966665039e+003;5.0205126953e+003;5.0475639648e+003;5.0524360352e+003;5.0526923828e+003;5.0702563477e+003;5.0673076172e+003;5.0591025391e+003;5.0553847656e+003;
2.8906250000e+000;4.8087177734e+003;5.0857690430e+003;5.0633334961e+003;4.9855126953e+003;5.0576923828e+003;5.0065385742e+003;5.0293588867e+003;5.0593588867e+003;5.0650000000e+003;5.0647436523e+003;5.0794873047e+003;5.0726923828e+003;5.0639741211e+003;5.0629487305e+003;
2.8984375000e+000;4.7467949219e+003;5.0189741211e+003;4.9952563477e+003;4.9191025391e+003;4.9947436523e+003;4.9538461914e+003;4.9708974609e+003;5.0000000000e+003;5.0076923828e+003;5.0003847656e+003;5.0176923828e+003;5.0047436523e+003;4.9906411133e+003;4.9971796875e+003;
2.9062500000e+000;4.6948715820e+003;4.9658974609e+003;4.9415385742e+003;4.8683334961e+003;4.9425639648e+003;4.9101284180e+003;4.9232050781e+003;4.9506411133e+003;4.9594873047e+003;4.9478203125e+003;4.9661538086e+003;4.9520512695e+003;4.9379487305e+003;4.9444873047e+003;
2.9140625000e+000;4.5629487305e+003;4.8207690430e+003;4.8065385742e+003;4.7433334961e+003;4.8078203125e+003;4.7879487305e+003;4.7962822266e+003;4.8193588867e+003;4.8320512695e+003;4.8080771484e+003;4.8215385742e+003;4.8076923828e+003;4.8071796875e+003;4.8029487305e+003;
2.9218750000e+000;4.5496152344e+003;4.8005126953e+003;4.7882050781e+003;4.7273076172e+003;4.7921796875e+003;4.7694873047e+003;4.7782050781e+003;4.7993588867e+003;4.8144873047e+003;4.7866665039e+003;4.7993588867e+003;4.7837177734e+003;4.7878203125e+003;4.7806411133e+003;
2.9296875000e+000;4.5365385742e+003;4.7821796875e+003;4.7697436523e+003;4.7101284180e+003;4.7756411133e+003;4.7510258789e+003;4.7601284180e+003;4.7792309570e+003;4.7958974609e+003;4.7650000000e+003;4.7784614258e+003;4.7620512695e+003;4.7662822266e+003;4.7589741211e+003;
2.9375000000e+000;4.5060258789e+003;4.7483334961e+003;4.7361538086e+003;4.6770512695e+003;4.7406411133e+003;4.7175639648e+003;4.7266665039e+003;4.7435898438e+003;4.7589741211e+003;4.7258974609e+003;4.7423076172e+003;4.7283334961e+003;4.7269228516e+003;4.7234614258e+003;
2.9453125000e+000;4.4325639648e+003;4.6560258789e+003;4.6503847656e+003;4.5973076172e+003;4.6403847656e+003;4.6275639648e+003;4.6358974609e+003;4.6475639648e+003;4.6429487305e+003;4.6134614258e+003;4.6475639648e+003;4.6461538086e+003;4.6305126953e+003;4.6434614258e+003;
2.9531250000e+000;4.4661538086e+003;4.6826923828e+003;4.6761538086e+003;4.6232050781e+003;4.6665385742e+003;4.6497436523e+003;4.6616665039e+003;4.6714101563e+003;4.6626923828e+003;4.6393588867e+003;4.6739741211e+003;4.6742309570e+003;4.6576923828e+003;4.6716665039e+003;
2.9609375000e+000;4.5679487305e+003;4.7726923828e+003;4.7682050781e+003;4.7050000000e+003;4.7528203125e+003;4.7189741211e+003;4.7438461914e+003;4.7444873047e+003;4.7320512695e+003;4.7178203125e+003;4.7616665039e+003;4.7653847656e+003;4.7416665039e+003;4.7639741211e+003;
2.9687500000e+000;4.5791025391e+003;4.7787177734e+003;4.7816665039e+003;4.7256411133e+003;4.7607690430e+003;4.7276923828e+003;4.7476923828e+003;4.7653847656e+003;4.7560258789e+003;4.7460258789e+003;4.7861538086e+003;4.7848715820e+003;4.7635898438e+003;4.7874360352e+003;
2.9765625000e+000;4.4984614258e+003;4.6924360352e+003;4.6983334961e+003;4.6464101563e+003;4.6752563477e+003;4.6491025391e+003;4.6667949219e+003;4.6885898438e+003;4.6802563477e+003;4.6680771484e+003;4.7083334961e+003;4.7069228516e+003;4.6824360352e+003;4.7088461914e+003;
2.9843750000e+000;4.2202563477e+003;4.3887177734e+003;4.4098715820e+003;4.3606411133e+003;4.3735898438e+003;4.3693588867e+003;4.3807690430e+003;4.3974360352e+003;4.4019228516e+003;4.3700000000e+003;4.4160258789e+003;4.4194873047e+003;4.3883334961e+003;4.4229487305e+003;
2.9921875000e+000;4.1491025391e+003;4.3006411133e+003;4.3264101563e+003;4.2942309570e+003;4.2925639648e+003;4.2978203125e+003;4.3003847656e+003;4.3184614258e+003;4.3265385742e+003;4.2844873047e+003;4.3247436523e+003;4.3375639648e+003;4.3053847656e+003;4.3365385742e+003;
3.0000000000e+000;4.1282050781e+003;4.2782050781e+003;4.2992309570e+003;4.2741025391e+003;4.2737177734e+003;4.2784614258e+003;4.2785898438e+003;4.2994873047e+003;4.3082050781e+003;4.2639741211e+003;4.3015385742e+003;4.3108974609e+003;4.2821796875e+003;4.3105126953e+003;
3.0078125000e+000;3.9737180176e+003;4.0978203125e+003;4.1287177734e+003;4.1120512695e+003;4.1069228516e+003;4.1275639648e+003;4.1257690430e+003;4.1328203125e+003;4.1471796875e+003;4.0825642090e+003;4.1301284180e+003;4.1323076172e+003;4.1096152344e+003;4.1387177734e+003;
3.0156250000e+000;3.9689743652e+003;4.0828205566e+003;4.1160258789e+003;4.1025639648e+003;4.0941025391e+003;4.1188461914e+003;4.1192309570e+003;4.1212822266e+003;4.1343588867e+003;4.0657692871e+003;4.1160258789e+003;4.1197436523e+003;4.0967949219e+003;4.1253847656e+003;
3.0234375000e+000;4.0117949219e+003;4.1165385742e+003;4.1453847656e+003;4.1406411133e+003;4.1288461914e+003;4.1555126953e+003;4.1603847656e+003;4.1660258789e+003;4.1706411133e+003;4.1071796875e+003;4.1507690430e+003;4.1571796875e+003;4.1326923828e+003;4.1564101563e+003;
3.0312500000e+000;4.0079487305e+003;4.1089741211e+003;4.1387177734e+003;4.1369228516e+003;4.1225639648e+003;4.1516665039e+003;4.1574360352e+003;4.1653847656e+003;4.1665385742e+003;4.1067949219e+003;4.1465385742e+003;4.1529487305e+003;4.1273076172e+003;4.1505126953e+003;
3.0390625000e+000;3.9764101563e+003;4.0533332520e+003;4.0952563477e+003;4.0894870605e+003;4.0738461914e+003;4.1035898438e+003;4.1075639648e+003;4.1093588867e+003;4.1111538086e+003;4.0482050781e+003;4.0905129395e+003;4.0964101563e+003;4.0752563477e+003;4.1016665039e+003;
3.0468750000e+000;3.9721794434e+003;4.0419230957e+003;4.0850000000e+003;4.0779487305e+003;4.0621794434e+003;4.0897436523e+003;4.0921794434e+003;4.0935898438e+003;4.0943588867e+003;4.0298718262e+003;4.0743588867e+003;4.0843588867e+003;4.0612819824e+003;4.0892307129e+003;
3.0546875000e+000;3.9507692871e+003;4.0143588867e+003;4.0578205566e+003;4.0526923828e+003;4.0330769043e+003;4.0605129395e+003;4.0634614258e+003;4.0629487305e+003;4.0606411133e+003;3.9971794434e+003;4.0443588867e+003;4.0600000000e+003;4.0315385742e+003;4.0620512695e+003;
3.0625000000e+000;3.9187180176e+003;3.9769230957e+003;4.0210256348e+003;4.0202563477e+003;3.9938461914e+003;4.0224357910e+003;4.0285898438e+003;4.0228205566e+003;4.0169230957e+003;3.9571794434e+003;4.0079487305e+003;4.0274357910e+003;3.9941025391e+003;4.0267949219e+003;
3.0703125000e+000;3.9338461914e+003;3.9694870605e+003;4.0184614258e+003;4.0246154785e+003;3.9832050781e+003;3.9989743652e+003;4.0123076172e+003;4.0043588867e+003;4.0029487305e+003;3.9515385742e+003;4.0102563477e+003;4.0191025391e+003;3.9935898438e+003;4.0205129395e+003;
3.0781250000e+000;3.9398718262e+003;3.9723076172e+003;4.0210256348e+003;4.0266667480e+003;3.9825642090e+003;3.9952563477e+003;4.0087180176e+003;4.0038461914e+003;4.0037180176e+003;3.9517949219e+003;4.0102563477e+003;4.0194870605e+003;3.9911538086e+003;4.0203845215e+003;
3.0859375000e+000;3.9393588867e+003;3.9670512695e+003;4.0125642090e+003;4.0223076172e+003;3.9698718262e+003;3.9865385742e+003;4.0060256348e+003;3.9960256348e+003;3.9937180176e+003;3.9483332520e+003;4.0020512695e+003;4.0141025391e+003;3.9812819824e+003;4.0141025391e+003;
3.0937500000e+000;3.8625642090e+003;3.8707692871e+003;3.9237180176e+003;3.9332050781e+003;3.8816667480e+003;3.9041025391e+003;3.9133332520e+003;3.9088461914e+003;3.9184614258e+003;3.8593588867e+003;3.9073076172e+003;3.9247436523e+003;3.8952563477e+003;3.9241025391e+003;
3.1015625000e+000;3.8380769043e+003;3.8402563477e+003;3.8935898438e+003;3.9048718262e+003;3.8535898438e+003;3.8776923828e+003;3.8835898438e+003;3.8807692871e+003;3.8935898438e+003;3.8316667480e+003;3.8794870605e+003;3.8946154785e+003;3.8655129395e+003;3.8938461914e+003;
3.1093750000e+000;3.7225642090e+003;3.7098718262e+003;3.7665385742e+003;3.7906411133e+003;3.7247436523e+003;3.7684614258e+003;3.7735898438e+003;3.7728205566e+003;3.7746154785e+003;3.7173076172e+003;3.7630769043e+003;3.7779487305e+003;3.7441025391e+003;3.7751281738e+003;
3.1171875000e+000;3.6930769043e+003;3.6629487305e+003;3.7246154785e+003;3.7500000000e+003;3.6834614258e+003;3.7306411133e+003;3.7375642090e+003;3.7335898438e+003;3.7285898438e+003;3.6608974609e+003;3.7084614258e+003;3.7265385742e+003;3.6962819824e+003;3.7247436523e+003;
3.1250000000e+000;3.7157692871e+003;3.6819230957e+003;3.7438461914e+003;3.7689743652e+003;3.7029487305e+003;3.7483332520e+003;3.7528205566e+003;3.7502563477e+003;3.7452563477e+003;3.6765385742e+003;3.7251281738e+003;3.7428205566e+003;3.7092307129e+003;3.7403845215e+003;
3.1328125000e+000;3.6542307129e+003;3.6060256348e+003;3.6707692871e+003;3.7029487305e+003;3.6303845215e+003;3.6810256348e+003;3.6794870605e+003;3.6794870605e+003;3.6771794434e+003;3.6106411133e+003;3.6500000000e+003;3.6702563477e+003;3.6376923828e+003;3.6673076172e+003;
3.1406250000e+000;3.5953845215e+003;3.5406411133e+003;3.6066667480e+003;3.6433332520e+003;3.5687180176e+003;3.6229487305e+003;3.6234614258e+003;3.6187180176e+003;3.6187180176e+003;3.5502563477e+003;3.5875642090e+003;3.6058974609e+003;3.5792307129e+003;3.6047436523e+003;
3.1484375000e+000;3.5133332520e+003;3.4465385742e+003;3.5151281738e+003;3.5605129395e+003;3.4817949219e+003;3.5424357910e+003;3.5469230957e+003;3.5253845215e+003;3.5298718262e+003;3.4533332520e+003;3.4991025391e+003;3.5141025391e+003;3.4851281738e+003;3.5130769043e+003;
3.1562500000e+000;3.5130769043e+003;3.4414101563e+003;3.5097436523e+003;3.5592307129e+003;3.4787180176e+003;3.5402563477e+003;3.5434614258e+003;3.5173076172e+003;3.5217949219e+003;3.4441025391e+003;3.4942307129e+003;3.5097436523e+003;3.4738461914e+003;3.5074357910e+003;
3.1640625000e+000;3.5510256348e+003;3.4655129395e+003;3.5328205566e+003;3.5814101563e+003;3.5019230957e+003;3.5585898438e+003;3.5538461914e+003;3.5360256348e+003;3.5316667480e+003;3.4739743652e+003;3.5080769043e+003;3.5343588867e+003;3.4991025391e+003;3.5316667480e+003;
3.1718750000e+000;3.5614101563e+003;3.4697436523e+003;3.5375642090e+003;3.5825642090e+003;3.5035898438e+003;3.5562819824e+003;3.5538461914e+003;3.5358974609e+003;3.5291025391e+003;3.4791025391e+003;3.5102563477e+003;3.5366667480e+003;3.5097436523e+003;3.5385898438e+003;
3.1796875000e+000;3.5933332520e+003;3.4973076172e+003;3.5626923828e+003;3.6056411133e+003;3.5269230957e+003;3.5723076172e+003;3.5751281738e+003;3.5556411133e+003;3.5491025391e+003;3.5041025391e+003;3.5380769043e+003;3.5597436523e+003;3.5401281738e+003;3.5675642090e+003;
3.1875000000e+000;3.6452563477e+003;3.5484614258e+003;3.6079487305e+003;3.6512819824e+003;3.5716667480e+003;3.6080769043e+003;3.6164101563e+003;3.5978205566e+003;3.5939743652e+003;3.5515385742e+003;3.5905129395e+003;3.6052563477e+003;3.5896154785e+003;3.6174357910e+003;
3.1953125000e+000;3.6708974609e+003;3.5757692871e+003;3.6294870605e+003;3.6664101563e+003;3.5820512695e+003;3.6143588867e+003;3.6225642090e+003;3.6203845215e+003;3.6257692871e+003;3.5829487305e+003;3.6255129395e+003;3.6388461914e+003;3.6176923828e+003;3.6371794434e+003;
3.2031250000e+000;3.6682050781e+003;3.5687180176e+003;3.6251281738e+003;3.6584614258e+003;3.5774357910e+003;3.6084614258e+003;3.6173076172e+003;3.6156411133e+003;3.6223076172e+003;3.5794870605e+003;3.6235898438e+003;3.6341025391e+003;3.6158974609e+003;3.6320512695e+003;
3.2109375000e+000;3.6708974609e+003;3.5673076172e+003;3.6224357910e+003;3.6597436523e+003;3.5798718262e+003;3.6132050781e+003;3.6214101563e+003;3.6230769043e+003;3.6343588867e+003;3.5851281738e+003;3.6271794434e+003;3.6366667480e+003;3.6189743652e+003;3.6387180176e+003;
3.2187500000e+000;3.6279487305e+003;3.5279487305e+003;3.5685898438e+003;3.6161538086e+003;3.5458974609e+003;3.5950000000e+003;3.5920512695e+003;3.5952563477e+003;3.5956411133e+003;3.5403845215e+003;3.5726923828e+003;3.5787180176e+003;3.5726923828e+003;3.5815385742e+003;
3.2265625000e+000;3.6398718262e+003;3.5355129395e+003;3.5751281738e+003;3.6238461914e+003;3.5588461914e+003;3.6074357910e+003;3.6067949219e+003;3.6078205566e+003;3.6080769043e+003;3.5512819824e+003;3.5814101563e+003;3.5829487305e+003;3.5793588867e+003;3.5853845215e+003;
3.2343750000e+000;3.7006411133e+003;3.5878205566e+003;3.6285898438e+003;3.6769230957e+003;3.6161538086e+003;3.6624357910e+003;3.6664101563e+003;3.6569230957e+003;3.6598718262e+003;3.6050000000e+003;3.6361538086e+003;3.6352563477e+003;3.6230769043e+003;3.6375642090e+003;
3.2421875000e+000;3.7310256348e+003;3.6292307129e+003;3.6533332520e+003;3.7064101563e+003;3.6502563477e+003;3.6975642090e+003;3.6914101563e+003;3.6817949219e+003;3.6776923828e+003;3.6335898438e+003;3.6573076172e+003;3.6574357910e+003;3.6565385742e+003;3.6665385742e+003;
3.2500000000e+000;3.7320512695e+003;3.6283332520e+003;3.6520512695e+003;3.7048718262e+003;3.6501281738e+003;3.6964101563e+003;3.6912819824e+003;3.6782050781e+003;3.6744870605e+003;3.6303845215e+003;3.6508974609e+003;3.6525642090e+003;3.6556411133e+003;3.6644870605e+003;
3.2578125000e+000;3.7473076172e+003;3.6410256348e+003;3.6661538086e+003;3.7162819824e+003;3.6633332520e+003;3.7073076172e+003;3.7044870605e+003;3.6869230957e+003;3.6855129395e+003;3.6408974609e+003;3.6601281738e+003;3.6630769043e+003;3.6671794434e+003;3.6766667480e+003;
3.2656250000e+000;3.7928205566e+003;3.6853845215e+003;3.7130769043e+003;3.7556411133e+003;3.7058974609e+003;3.7453845215e+003;3.7423076172e+003;3.7205129395e+003;3.7224357910e+003;3.6824357910e+003;3.7043588867e+003;3.7108974609e+003;3.7071794434e+003;3.7208974609e+003;
3.2734375000e+000;3.8150000000e+003;3.7094870605e+003;3.7342307129e+003;3.7741025391e+003;3.7279487305e+003;3.7523076172e+003;3.7498718262e+003;3.7258974609e+003;3.7226923828e+003;3.6980769043e+003;3.7256411133e+003;3.7347436523e+003;3.7316667480e+003;3.7458974609e+003;
3.2812500000e+000;3.8411538086e+003;3.7375642090e+003;3.7601281738e+003;3.7987180176e+003;3.7528205566e+003;3.7689743652e+003;3.7703845215e+003;3.7466667480e+003;3.7434614258e+003;3.7234614258e+003;3.7516667480e+003;3.7583332520e+003;3.7594870605e+003;3.7723076172e+003;
3.2890625000e+000;3.8674357910e+003;3.7661538086e+003;3.7875642090e+003;3.8244870605e+003;3.7758974609e+003;3.7864101563e+003;3.7907692871e+003;3.7697436523e+003;3.7684614258e+003;3.7515385742e+003;3.7807692871e+003;3.7850000000e+003;3.7870512695e+003;3.8000000000e+003;
3.2968750000e+000;3.8858974609e+003;3.7853845215e+003;3.8088461914e+003;3.8407692871e+003;3.7828205566e+003;3.7925642090e+003;3.7964101563e+003;3.7852563477e+003;3.7892307129e+003;3.7737180176e+003;3.8044870605e+003;3.8085898438e+003;3.8047436523e+003;3.8208974609e+003;
3.3046875000e+000;3.8873076172e+003;3.7860256348e+003;3.8103845215e+003;3.8393588867e+003;3.7807692871e+003;3.7905129395e+003;3.7935898438e+003;3.7875642090e+003;3.7928205566e+003;3.7764101563e+003;3.8053845215e+003;3.8111538086e+003;3.8058974609e+003;3.8221794434e+003;
3.3125000000e+000;3.8889743652e+003;3.7875642090e+003;3.8126923828e+003;3.8387180176e+003;3.7835898438e+003;3.7916667480e+003;3.7953845215e+003;3.7946154785e+003;3.7994870605e+003;3.7817949219e+003;3.8073076172e+003;3.8138461914e+003;3.8089743652e+003;3.8241025391e+003;
3.3203125000e+000;3.8878205566e+003;3.7861538086e+003;3.8141025391e+003;3.8442307129e+003;3.8089743652e+003;3.8205129395e+003;3.8253845215e+003;3.8321794434e+003;3.8491025391e+003;3.8073076172e+003;3.8260256348e+003;3.8235898438e+003;3.8182050781e+003;3.8300000000e+003;
3.3281250000e+000;3.9034614258e+003;3.8039743652e+003;3.8278205566e+003;3.8575642090e+003;3.8235898438e+003;3.8380769043e+003;3.8406411133e+003;3.8488461914e+003;3.8637180176e+003;3.8232050781e+003;3.8398718262e+003;3.8364101563e+003;3.8319230957e+003;3.8421794434e+003;
3.3359375000e+000;3.8588461914e+003;3.7656411133e+003;3.7843588867e+003;3.8184614258e+003;3.7837180176e+003;3.8083332520e+003;3.8091025391e+003;3.8134614258e+003;3.8061538086e+003;3.7771794434e+003;3.7947436523e+003;3.7939743652e+003;3.7847436523e+003;3.7948718262e+003;
3.3437500000e+000;3.7952563477e+003;3.6978205566e+003;3.7220512695e+003;3.7602563477e+003;3.7302563477e+003;3.7607692871e+003;3.7565385742e+003;3.7547436523e+003;3.7561538086e+003;3.7166667480e+003;3.7282050781e+003;3.7366667480e+003;3.7300000000e+003;3.7305129395e+003;
3.3515625000e+000;3.7830769043e+003;3.6807692871e+003;3.7083332520e+003;3.7453845215e+003;3.7134614258e+003;3.7461538086e+003;3.7411538086e+003;3.7356411133e+003;3.7405129395e+003;3.6984614258e+003;3.7112819824e+003;3.7229487305e+003;3.7146154785e+003;3.7155129395e+003;
3.3593750000e+000;3.7692307129e+003;3.6566667480e+003;3.6862819824e+003;3.7293588867e+003;3.6888461914e+003;3.7241025391e+003;3.7164101563e+003;3.7008974609e+003;3.7053845215e+003;3.6692307129e+003;3.6917949219e+003;3.6978205566e+003;3.6871794434e+003;3.6901281738e+003;
3.3671875000e+000;3.7292307129e+003;3.6143588867e+003;3.6456411133e+003;3.6901281738e+003;3.6488461914e+003;3.6864101563e+003;3.6756411133e+003;3.6582050781e+003;3.6628205566e+003;3.6267949219e+003;3.6507692871e+003;3.6564101563e+003;3.6467949219e+003;3.6479487305e+003;
3.3750000000e+000;3.5987180176e+003;3.4779487305e+003;3.5121794434e+003;3.5566667480e+003;3.5120512695e+003;3.5535898438e+003;3.5387180176e+003;3.5171794434e+003;3.5220512695e+003;3.4828205566e+003;3.5125642090e+003;3.5242307129e+003;3.5157692871e+003;3.5129487305e+003;
3.3828125000e+000;3.5407692871e+003;3.4166667480e+003;3.4496154785e+003;3.4969230957e+003;3.4461538086e+003;3.4885898438e+003;3.4735898438e+003;3.4506411133e+003;3.4547436523e+003;3.4162819824e+003;3.4501281738e+003;3.4648718262e+003;3.4556411133e+003;3.4517949219e+003;
3.3906250000e+000;3.4155129395e+003;3.2717949219e+003;3.3126923828e+003;3.3710256348e+003;3.2917949219e+003;3.3382050781e+003;3.3243588867e+003;3.2992307129e+003;3.3035898438e+003;3.2696154785e+003;3.3130769043e+003;3.3338461914e+003;3.3148718262e+003;3.3142307129e+003;
3.3984375000e+000;3.3901281738e+003;3.2366667480e+003;3.2850000000e+003;3.3414101563e+003;3.2587180176e+003;3.3035898438e+003;3.2900000000e+003;3.2661538086e+003;3.2728205566e+003;3.2355129395e+003;3.2816667480e+003;3.3034614258e+003;3.2834614258e+003;3.2847436523e+003;
3.4062500000e+000;3.3534614258e+003;3.1853845215e+003;3.2384614258e+003;3.2910256348e+003;3.2091025391e+003;3.2505129395e+003;3.2373076172e+003;3.2235898438e+003;3.2314101563e+003;3.1855129395e+003;3.2333332520e+003;3.2576923828e+003;3.2361538086e+003;3.2415385742e+003;
3.4140625000e+000;3.3196154785e+003;3.1473076172e+003;3.1991025391e+003;3.2539743652e+003;3.1688461914e+003;3.2138461914e+003;3.2011538086e+003;3.1923076172e+003;3.1979487305e+003;3.1493588867e+003;3.1956411133e+003;3.2224357910e+003;3.1985898438e+003;3.2055129395e+003;
3.4218750000e+000;3.2752563477e+003;3.0885898438e+003;3.1402563477e+003;3.2053845215e+003;3.1070512695e+003;3.1635898438e+003;3.1571794434e+003;3.1483332520e+003;3.1541025391e+003;3.0996154785e+003;3.1364101563e+003;3.1626923828e+003;3.1496154785e+003;3.1487180176e+003;
3.4296875000e+000;3.3067949219e+003;3.1152563477e+003;3.1691025391e+003;3.2312819824e+003;3.1351281738e+003;3.1893588867e+003;3.1844870605e+003;3.1779487305e+003;3.1861538086e+003;3.1287180176e+003;3.1630769043e+003;3.1875642090e+003;3.1791025391e+003;3.1771794434e+003;
