Time (s),AF3,F7,F3,FC5,T7,P7,O1,O2,P8,T8,FC6,F4,F8,AF4,Sampling Rate
0.0000000000e+000,4.1441025391e+003,4.1778203125e+003,4.1814101563e+003,4.1570512695e+003,4.1885898438e+003,4.1705126953e+003,4.1475639648e+003,4.1610258789e+003,4.1676923828e+003,4.1810258789e+003,4.1962822266e+003,4.1900000000e+003,4.1825639648e+003,4.1688461914e+003,128
7.8125000000e-003,4.1171796875e+003,4.1494873047e+003,4.1542309570e+003,4.1276923828e+003,4.1758974609e+003,4.1470512695e+003,4.1285898438e+003,4.1384614258e+003,4.1373076172e+003,4.1515385742e+003,4.1601284180e+003,4.1629487305e+003,4.1573076172e+003,4.1429487305e+003,
1.5625000000e-002,4.0992309570e+003,4.1292309570e+003,4.1358974609e+003,4.1111538086e+003,4.1571796875e+003,4.1315385742e+003,4.1180771484e+003,4.1243588867e+003,4.1164101563e+003,4.1293588867e+003,4.1323076172e+003,4.1435898438e+003,4.1357690430e+003,4.1223076172e+003,
2.3437500000e-002,4.0891025391e+003,4.1156411133e+003,4.1252563477e+003,4.1050000000e+003,4.1341025391e+003,4.1225639648e+003,4.1138461914e+003,4.1174360352e+003,4.1056411133e+003,4.1142309570e+003,4.1164101563e+003,4.1316665039e+003,4.1183334961e+003,4.1067949219e+003,
3.1250000000e-002,4.0848718262e+003,4.1079487305e+003,4.1082050781e+003,4.0971796875e+003,4.1264101563e+003,4.1451284180e+003,4.1358974609e+003,4.1337177734e+003,4.1279487305e+003,4.1064101563e+003,4.1114101563e+003,4.1152563477e+003,4.1075639648e+003,4.0897436523e+003,
3.9062500000e-002,4.0870512695e+003,4.1097436523e+003,4.1120512695e+003,4.0957692871e+003,4.1253847656e+003,4.1488461914e+003,4.1407690430e+003,4.1389741211e+003,4.1339741211e+003,4.1106411133e+003,4.1129487305e+003,4.1174360352e+003,4.1142309570e+003,4.0907692871e+003,
4.6875000000e-002,4.0924357910e+003,4.1043588867e+003,4.1182050781e+003,4.1088461914e+003,4.1217949219e+003,4.1446152344e+003,4.1406411133e+003,4.1425639648e+003,4.1401284180e+003,4.1193588867e+003,4.1191025391e+003,4.1226923828e+003,4.1233334961e+003,4.0955129395e+003,
5.4687500000e-002,4.0776923828e+003,4.0807692871e+003,4.0908974609e+003,4.0958974609e+003,4.0761538086e+003,4.1166665039e+003,4.1025639648e+003,4.0960258789e+003,4.1044873047e+003,4.0878205566e+003,4.0796154785e+003,4.0874357910e+003,4.0851281738e+003,4.0714101563e+003,
6.2500000000e-002,4.0844870605e+003,4.0914101563e+003,4.0966665039e+003,4.0952563477e+003,4.0698718262e+003,4.1160258789e+003,4.1021796875e+003,4.0916667480e+003,4.1057690430e+003,4.0876923828e+003,4.0828205566e+003,4.0906411133e+003,4.0870512695e+003,4.0753845215e+003,
7.0312500000e-002,4.1120512695e+003,4.1241025391e+003,4.1179487305e+003,4.1203847656e+003,4.1151284180e+003,4.1283334961e+003,4.1129487305e+003,4.1080771484e+003,4.1287177734e+003,4.1157690430e+003,4.1155126953e+003,4.1201284180e+003,4.1158974609e+003,4.1053847656e+003,
7.8125000000e-002,4.1160258789e+003,4.1267949219e+003,4.1176923828e+003,4.1253847656e+003,4.1376923828e+003,4.1278203125e+003,4.1083334961e+003,4.1093588867e+003,4.1292309570e+003,4.1215385742e+003,4.1226923828e+003,4.1269228516e+003,4.1217949219e+003,4.1117949219e+003,
8.5937500000e-002,4.1185898438e+003,4.1201284180e+003,4.1166665039e+003,4.1098715820e+003,4.1278203125e+003,4.1126923828e+003,4.0837180176e+003,4.0876923828e+003,4.1100000000e+003,4.1108974609e+003,4.1229487305e+003,4.1253847656e+003,4.1224360352e+003,4.1114101563e+003,
9.3750000000e-002,4.1174360352e+003,4.1180771484e+003,4.1182050781e+003,4.1042309570e+003,4.1121796875e+003,4.1024360352e+003,4.0769230957e+003,4.0814101563e+003,4.1041025391e+003,4.1083334961e+003,4.1230771484e+003,4.1244873047e+003,4.1220512695e+003,4.1120512695e+003,
1.0156250000e-001,4.0852563477e+003,4.0801281738e+003,4.0902563477e+003,4.0755129395e+003,4.0751281738e+003,4.0578205566e+003,4.0461538086e+003,4.0546154785e+003,4.0662819824e+003,4.0792307129e+003,4.0925642090e+003,4.0993588867e+003,4.0915385742e+003,4.0878205566e+003,
1.0937500000e-001,4.0669230957e+003,4.0551281738e+003,4.0712819824e+003,4.0589743652e+003,4.0589743652e+003,4.0385898438e+003,4.0332050781e+003,4.0428205566e+003,4.0462819824e+003,4.0593588867e+003,4.0723076172e+003,4.0826923828e+003,4.0714101563e+003,4.0696154785e+003,
1.1718750000e-001,4.0646154785e+003,4.0460256348e+003,4.0655129395e+003,4.0526923828e+003,4.0505129395e+003,4.0546154785e+003,4.0596154785e+003,4.0611538086e+003,4.0557692871e+003,4.0475642090e+003,4.0623076172e+003,4.0742307129e+003,4.0600000000e+003,4.0558974609e+003,
1.2500000000e-001,4.0793588867e+003,4.0661538086e+003,4.0814101563e+003,4.0696154785e+003,4.0684614258e+003,4.0798718262e+003,4.0856411133e+003,4.0829487305e+003,4.0778205566e+003,4.0635898438e+003,4.0748718262e+003,4.0876923828e+003,4.0733332520e+003,4.0688461914e+003,
1.3281250000e-001,4.1034614258e+003,4.0967949219e+003,4.1060258789e+003,4.0987177734e+003,4.0980771484e+003,4.1152563477e+003,4.1194873047e+003,4.1152563477e+003,4.1092309570e+003,4.0925642090e+003,4.0989741211e+003,4.1114101563e+003,4.0974360352e+003,4.0928205566e+003,
1.4062500000e-001,4.1339741211e+003,4.1323076172e+003,4.1350000000e+003,4.1352563477e+003,4.1317949219e+003,4.1566665039e+003,4.1575639648e+003,4.1553847656e+003,4.1475639648e+003,4.1307690430e+003,4.1325639648e+003,4.1416665039e+003,4.1287177734e+003,4.1237177734e+003,
1.4843750000e-001,4.1728203125e+003,4.1735898438e+003,4.1741025391e+003,4.1751284180e+003,4.1835898438e+003,4.2164101563e+003,4.2084614258e+003,4.2167949219e+003,4.2144873047e+003,4.1919228516e+003,4.1853847656e+003,4.1807690430e+003,4.1706411133e+003,4.1644873047e+003,
1.5625000000e-001,4.1161538086e+003,4.1200000000e+003,4.1203847656e+003,4.1347436523e+003,4.1434614258e+003,4.1582050781e+003,4.1385898438e+003,4.1474360352e+003,4.1539741211e+003,4.1380771484e+003,4.1205126953e+003,4.1250000000e+003,4.1178203125e+003,4.1098715820e+003,
1.6406250000e-001,4.0987177734e+003,4.0998715820e+003,4.1025639648e+003,4.1173076172e+003,4.1258974609e+003,4.1358974609e+003,4.1166665039e+003,4.1200000000e+003,4.1307690430e+003,4.1133334961e+003,4.1002563477e+003,4.1067949219e+003,4.1006411133e+003,4.0930769043e+003,
1.7187500000e-001,4.0948718262e+003,4.0955129395e+003,4.0967949219e+003,4.1028203125e+003,4.1262822266e+003,4.1203847656e+003,4.0991025391e+003,4.0953845215e+003,4.1112822266e+003,4.0991025391e+003,4.0960258789e+003,4.0982050781e+003,4.1002563477e+003,4.0866667480e+003,
1.7968750000e-001,4.1385898438e+003,4.1388461914e+003,4.1357690430e+003,4.1474360352e+003,4.1394873047e+003,4.1396152344e+003,4.1132050781e+003,4.1167949219e+003,4.1339741211e+003,4.1451284180e+003,4.1507690430e+003,4.1471796875e+003,4.1369228516e+003,4.1302563477e+003,
1.8750000000e-001,4.1358974609e+003,4.1285898438e+003,4.1348715820e+003,4.1402563477e+003,4.1232050781e+003,4.1314101563e+003,4.1051284180e+003,4.1093588867e+003,4.1271796875e+003,4.1388461914e+003,4.1478203125e+003,4.1428203125e+003,4.1328203125e+003,4.1279487305e+003,
1.9531250000e-001,4.1978203125e+003,4.1860258789e+003,4.2024360352e+003,4.2006411133e+003,4.1871796875e+003,4.1842309570e+003,4.1628203125e+003,4.1650000000e+003,4.1792309570e+003,4.1952563477e+003,4.2079487305e+003,4.2024360352e+003,4.1969228516e+003,4.1914101563e+003,
2.0312500000e-001,4.2889741211e+003,4.2851284180e+003,4.2944873047e+003,4.2984614258e+003,4.2930771484e+003,4.2719228516e+003,4.2548715820e+003,4.2575639648e+003,4.2669228516e+003,4.2906411133e+003,4.3000000000e+003,4.2967949219e+003,4.2915385742e+003,4.2842309570e+003,
2.1093750000e-001,4.5853847656e+003,4.6043588867e+003,4.5901284180e+003,4.5997436523e+003,4.6130771484e+003,4.5730771484e+003,4.5646152344e+003,4.5826923828e+003,4.5705126953e+003,4.6155126953e+003,4.6169228516e+003,4.6076923828e+003,4.6051284180e+003,4.5824360352e+003,
2.1875000000e-001,4.6237177734e+003,4.6443588867e+003,4.6321796875e+003,4.6305126953e+003,4.6503847656e+003,4.6221796875e+003,4.6141025391e+003,4.6350000000e+003,4.6162822266e+003,4.6591025391e+003,4.6647436523e+003,4.6493588867e+003,4.6478203125e+003,4.6214101563e+003,
2.2656250000e-001,4.6520512695e+003,4.6861538086e+003,4.6687177734e+003,4.6591025391e+003,4.6947436523e+003,4.6820512695e+003,4.6715385742e+003,4.6928203125e+003,4.6662822266e+003,4.7023076172e+003,4.7091025391e+003,4.6839741211e+003,4.6824360352e+003,4.6538461914e+003,
2.3437500000e-001,4.6523076172e+003,4.6992309570e+003,4.6730771484e+003,4.6707690430e+003,4.7101284180e+003,4.6997436523e+003,4.6865385742e+003,4.7091025391e+003,4.6812822266e+003,4.7165385742e+003,4.7153847656e+003,4.6893588867e+003,4.6873076172e+003,4.6584614258e+003,
2.4218750000e-001,4.5634614258e+003,4.6316665039e+003,4.6032050781e+003,4.6030771484e+003,4.6325639648e+003,4.6442309570e+003,4.6278203125e+003,4.6503847656e+003,4.6267949219e+003,4.6465385742e+003,4.6252563477e+003,4.6130771484e+003,4.6092309570e+003,4.5793588867e+003,
2.5000000000e-001,4.5565385742e+003,4.6252563477e+003,4.5987177734e+003,4.5907690430e+003,4.6297436523e+003,4.6367949219e+003,4.6208974609e+003,4.6397436523e+003,4.6211538086e+003,4.6338461914e+003,4.6146152344e+003,4.6042309570e+003,4.6029487305e+003,4.5714101563e+003,
2.5781250000e-001,4.5803847656e+003,4.6515385742e+003,4.6210258789e+003,4.6088461914e+003,4.6653847656e+003,4.6578203125e+003,4.6405126953e+003,4.6569228516e+003,4.6434614258e+003,4.6551284180e+003,4.6394873047e+003,4.6258974609e+003,4.6271796875e+003,4.5944873047e+003,
2.6562500000e-001,4.6130771484e+003,4.6884614258e+003,4.6514101563e+003,4.6394873047e+003,4.7106411133e+003,4.6891025391e+003,4.6676923828e+003,4.6847436523e+003,4.6742309570e+003,4.6915385742e+003,4.6788461914e+003,4.6598715820e+003,4.6602563477e+003,4.6289741211e+003,
2.7343750000e-001,4.4561538086e+003,4.5267949219e+003,4.5148715820e+003,4.4902563477e+003,4.5251284180e+003,4.5306411133e+003,4.5051284180e+003,4.5193588867e+003,4.5152563477e+003,4.5325639648e+003,4.5312822266e+003,4.5112822266e+003,4.5026923828e+003,4.4833334961e+003,
2.8125000000e-001,4.2801284180e+003,4.3408974609e+003,4.3306411133e+003,4.3114101563e+003,4.3580771484e+003,4.3303847656e+003,4.3079487305e+003,4.3052563477e+003,4.3065385742e+003,4.3247436523e+003,4.3285898438e+003,4.3351284180e+003,4.3066665039e+003,4.3105126953e+003,
2.8906250000e-001,4.2603847656e+003,4.3178203125e+003,4.3100000000e+003,4.2916665039e+003,4.3305126953e+003,4.3033334961e+003,4.2805126953e+003,4.2794873047e+003,4.2787177734e+003,4.3016665039e+003,4.3046152344e+003,4.3170512695e+003,4.2815385742e+003,4.2914101563e+003,
2.9687500000e-001,4.1823076172e+003,4.2275639648e+003,4.2344873047e+003,4.2094873047e+003,4.2233334961e+003,4.2112822266e+003,4.1930771484e+003,4.1955126953e+003,4.1932050781e+003,4.2119228516e+003,4.2175639648e+003,4.2411538086e+003,4.2024360352e+003,4.2134614258e+003,
3.0468750000e-001,4.1476923828e+003,4.1853847656e+003,4.1994873047e+003,4.1714101563e+003,4.1750000000e+003,4.1696152344e+003,4.1555126953e+003,4.1571796875e+003,4.1557690430e+003,4.1698715820e+003,4.1794873047e+003,4.2041025391e+003,4.1683334961e+003,4.1775639648e+003,
3.1250000000e-001,4.2702563477e+003,4.3011538086e+003,4.3096152344e+003,4.2971796875e+003,4.2880771484e+003,4.2793588867e+003,4.2692309570e+003,4.2801284180e+003,4.2753847656e+003,4.2935898438e+003,4.3066665039e+003,4.3108974609e+003,4.2888461914e+003,4.2939741211e+003,
3.2031250000e-001,4.2576923828e+003,4.2884614258e+003,4.3002563477e+003,4.3051284180e+003,4.2685898438e+003,4.2839741211e+003,4.2760258789e+003,4.2987177734e+003,4.2839741211e+003,4.2937177734e+003,4.3089741211e+003,4.3060258789e+003,4.2820512695e+003,4.2871796875e+003,
3.2812500000e-001,4.1875639648e+003,4.2185898438e+003,4.2302563477e+003,4.2347436523e+003,4.2050000000e+003,4.2235898438e+003,4.2170512695e+003,4.2357690430e+003,4.2221796875e+003,4.2246152344e+003,4.2360258789e+003,4.2360258789e+003,4.2116665039e+003,4.2178203125e+003,
3.3593750000e-001,4.1337177734e+003,4.1662822266e+003,4.1748715820e+003,4.1791025391e+003,4.1664101563e+003,4.1791025391e+003,4.1724360352e+003,4.1861538086e+003,4.1744873047e+003,4.1717949219e+003,4.1737177734e+003,4.1794873047e+003,4.1556411133e+003,4.1628203125e+003,
3.4375000000e-001,4.1115385742e+003,4.1461538086e+003,4.1505126953e+003,4.1570512695e+003,4.1641025391e+003,4.1644873047e+003,4.1561538086e+003,4.1661538086e+003,4.1560258789e+003,4.1503847656e+003,4.1406411133e+003,4.1530771484e+003,4.1305126953e+003,4.1383334961e+003,
3.5156250000e-001,4.0850000000e+003,4.1225639648e+003,4.1174360352e+003,4.1341025391e+003,4.1442309570e+003,4.1505126953e+003,4.1378203125e+003,4.1453847656e+003,4.1430771484e+003,4.1258974609e+003,4.1191025391e+003,4.1092309570e+003,4.0935898438e+003,4.1041025391e+003,
3.5937500000e-001,4.0557692871e+003,4.0885898438e+003,4.0897436523e+003,4.0992309570e+003,4.1034614258e+003,4.1237177734e+003,4.1108974609e+003,4.1161538086e+003,4.1164101563e+003,4.0971796875e+003,4.0923076172e+003,4.0788461914e+003,4.0634614258e+003,4.0732050781e+003,
3.6718750000e-001,4.0692307129e+003,4.0874357910e+003,4.1002563477e+003,4.1105126953e+003,4.1126923828e+003,4.1289741211e+003,4.1130771484e+003,4.1134614258e+003,4.1200000000e+003,4.1021796875e+003,4.0858974609e+003,4.0898718262e+003,4.0823076172e+003,4.0829487305e+003,
3.7500000000e-001,4.0866667480e+003,4.1046152344e+003,4.1124360352e+003,4.1285898438e+003,4.1238461914e+003,4.1402563477e+003,4.1228203125e+003,4.1211538086e+003,4.1288461914e+003,4.1138461914e+003,4.1003847656e+003,4.1062822266e+003,4.0992309570e+003,4.1001284180e+003,
3.8281250000e-001,4.0988461914e+003,4.1112822266e+003,4.1162822266e+003,4.1303847656e+003,4.1141025391e+003,4.1421796875e+003,4.1226923828e+003,4.1130771484e+003,4.1211538086e+003,4.1128203125e+003,4.1080771484e+003,4.1150000000e+003,4.1050000000e+003,4.1098715820e+003,
3.9062500000e-001,4.1237177734e+003,4.1376923828e+003,4.1410258789e+003,4.1764101563e+003,4.1314101563e+003,4.1439741211e+003,4.1294873047e+003,4.1182050781e+003,4.1285898438e+003,4.1334614258e+003,4.1384614258e+003,4.1370512695e+003,4.1441025391e+003,4.1314101563e+003,
3.9843750000e-001,4.1441025391e+003,4.1638461914e+003,4.1598715820e+003,4.1991025391e+003,4.1442309570e+003,4.1566665039e+003,4.1467949219e+003,4.1325639648e+003,4.1425639648e+003,4.1512822266e+003,4.1651284180e+003,4.1597436523e+003,4.1662822266e+003,4.1534614258e+003,
4.0625000000e-001,4.3241025391e+003,4.3382050781e+003,4.3332050781e+003,4.3552563477e+003,4.3389741211e+003,4.3241025391e+003,4.3134614258e+003,4.3125639648e+003,4.3143588867e+003,4.3264101563e+003,4.3383334961e+003,4.3448715820e+003,4.3473076172e+003,4.3329487305e+003,
4.1406250000e-001,4.3537177734e+003,4.3682050781e+003,4.3653847656e+003,4.3852563477e+003,4.3842309570e+003,4.3574360352e+003,4.3455126953e+003,4.3580771484e+003,4.3548715820e+003,4.3643588867e+003,4.3710258789e+003,4.3817949219e+003,4.3825639648e+003,4.3660258789e+003,
4.2187500000e-001,4.2560258789e+003,4.2765385742e+003,4.2771796875e+003,4.2914101563e+003,4.2925639648e+003,4.2697436523e+003,4.2639741211e+003,4.2921796875e+003,4.2838461914e+003,4.2862822266e+003,4.2928203125e+003,4.2978203125e+003,4.2924360352e+003,4.2771796875e+003,
4.2968750000e-001,4.1608974609e+003,4.1803847656e+003,4.1850000000e+003,4.1939741211e+003,4.1884614258e+003,4.1783334961e+003,4.1765385742e+003,4.2050000000e+003,4.1975639648e+003,4.1961538086e+003,4.2038461914e+003,4.2041025391e+003,4.1973076172e+003,4.1828203125e+003,
4.3750000000e-001,3.9634614258e+003,3.9693588867e+003,3.9838461914e+003,4.0076923828e+003,3.9853845215e+003,3.9971794434e+003,3.9937180176e+003,4.0205129395e+003,4.0207692871e+003,3.9955129395e+003,3.9870512695e+003,4.0034614258e+003,4.0019230957e+003,3.9771794434e+003,
4.4531250000e-001,3.9465385742e+003,3.9520512695e+003,3.9621794434e+003,3.9976923828e+003,3.9687180176e+003,3.9862819824e+003,3.9805129395e+003,4.0051281738e+003,4.0087180176e+003,3.9752563477e+003,3.9623076172e+003,3.9839743652e+003,3.9837180176e+003,3.9569230957e+003,
4.5312500000e-001,3.9448718262e+003,3.9494870605e+003,3.9523076172e+003,3.9939743652e+003,3.9580769043e+003,3.9888461914e+003,3.9807692871e+003,3.9939743652e+003,4.0051281738e+003,3.9675642090e+003,3.9561538086e+003,3.9707692871e+003,3.9746154785e+003,3.9485898438e+003,
4.6093750000e-001,3.9470512695e+003,3.9476923828e+003,3.9532050781e+003,3.9942307129e+003,3.9578205566e+003,3.9884614258e+003,3.9806411133e+003,3.9869230957e+003,4.0014101563e+003,3.9664101563e+003,3.9562819824e+003,3.9674357910e+003,3.9725642090e+003,3.9487180176e+003,
4.6875000000e-001,3.9553845215e+003,3.9514101563e+003,3.9608974609e+003,4.0062819824e+003,3.9673076172e+003,3.9925642090e+003,3.9852563477e+003,3.9860256348e+003,4.0025642090e+003,3.9707692871e+003,3.9594870605e+003,3.9729487305e+003,3.9770512695e+003,3.9557692871e+003,
4.7656250000e-001,3.9761538086e+003,3.9703845215e+003,3.9789743652e+003,4.0350000000e+003,3.9900000000e+003,4.0092307129e+003,4.0021794434e+003,3.9997436523e+003,4.0164101563e+003,3.9875642090e+003,3.9732050781e+003,3.9928205566e+003,3.9944870605e+003,3.9747436523e+003,
4.8437500000e-001,3.9985898438e+003,3.9962819824e+003,3.9878205566e+003,4.0400000000e+003,4.0041025391e+003,4.0279487305e+003,4.0210256348e+003,4.0053845215e+003,4.0243588867e+003,4.0001281738e+003,3.9905129395e+003,4.0029487305e+003,4.0065385742e+003,3.9807692871e+003,
4.9218750000e-001,4.1594873047e+003,4.1548715820e+003,4.1485898438e+003,4.2016665039e+003,4.1771796875e+003,4.1721796875e+003,4.1628203125e+003,4.1394873047e+003,4.1510258789e+003,4.1461538086e+003,4.1544873047e+003,4.1564101563e+003,4.1632050781e+003,4.1416665039e+003,
5.0000000000e-001,4.2065385742e+003,4.2053847656e+003,4.1917949219e+003,4.2482050781e+003,4.2244873047e+003,4.2116665039e+003,4.2019228516e+003,4.1789741211e+003,4.1864101563e+003,4.1916665039e+003,4.1960258789e+003,4.2034614258e+003,4.2130771484e+003,4.1852563477e+003,
5.0781250000e-001,4.2252563477e+003,4.2292309570e+003,4.2133334961e+003,4.2601284180e+003,4.2423076172e+003,4.2165385742e+003,4.2116665039e+003,4.1855126953e+003,4.1898715820e+003,4.2069228516e+003,4.2120512695e+003,4.2252563477e+003,4.2310258789e+003,4.1994873047e+003,
5.1562500000e-001,4.2469228516e+003,4.2456411133e+003,4.2365385742e+003,4.2743588867e+003,4.2305126953e+003,4.2367949219e+003,4.2348715820e+003,4.2419228516e+003,4.2419228516e+003,4.2448715820e+003,4.2544873047e+003,4.2623076172e+003,4.2544873047e+003,4.2362822266e+003,
5.2343750000e-001,4.2589741211e+003,4.2585898438e+003,4.2480771484e+003,4.2882050781e+003,4.2415385742e+003,4.2526923828e+003,4.2496152344e+003,4.2623076172e+003,4.2606411133e+003,4.2617949219e+003,4.2665385742e+003,4.2738461914e+003,4.2705126953e+003,4.2487177734e+003,
5.3125000000e-001,4.2969228516e+003,4.3151284180e+003,4.2930771484e+003,4.3412822266e+003,4.3144873047e+003,4.3042309570e+003,4.2953847656e+003,4.3157690430e+003,4.3194873047e+003,4.3188461914e+003,4.3112822266e+003,4.3106411133e+003,4.3162822266e+003,4.2874360352e+003,
5.3906250000e-001,4.2951284180e+003,4.3160258789e+003,4.2933334961e+003,4.3389741211e+003,4.3116665039e+003,4.3061538086e+003,4.2948715820e+003,4.3183334961e+003,4.3214101563e+003,4.3211538086e+003,4.3125639648e+003,4.3110258789e+003,4.3152563477e+003,4.2879487305e+003,
5.4687500000e-001,4.2753847656e+003,4.2974360352e+003,4.2766665039e+003,4.3143588867e+003,4.2765385742e+003,4.2944873047e+003,4.2823076172e+003,4.3053847656e+003,4.3016665039e+003,4.3064101563e+003,4.2956411133e+003,4.2937177734e+003,4.2989741211e+003,4.2742309570e+003,
5.5468750000e-001,4.2743588867e+003,4.2985898438e+003,4.2773076172e+003,4.3153847656e+003,4.2794873047e+003,4.2989741211e+003,4.2887177734e+003,4.3065385742e+003,4.3015385742e+003,4.3075639648e+003,4.2960258789e+003,4.2925639648e+003,4.2989741211e+003,4.2755126953e+003,
5.6250000000e-001,4.3312822266e+003,4.3565385742e+003,4.3348715820e+003,4.3837177734e+003,4.3853847656e+003,4.3689741211e+003,4.3575639648e+003,4.3657690430e+003,4.3703847656e+003,4.3707690430e+003,4.3579487305e+003,4.3432050781e+003,4.3553847656e+003,4.3319228516e+003,
5.7031250000e-001,4.3348715820e+003,4.3584614258e+003,4.3393588867e+003,4.3889741211e+003,4.3891025391e+003,4.3761538086e+003,4.3600000000e+003,4.3712822266e+003,4.3775639648e+003,4.3783334961e+003,4.3634614258e+003,4.3458974609e+003,4.3612822266e+003,4.3366665039e+003,
5.7812500000e-001,4.2847436523e+003,4.3132050781e+003,4.2947436523e+003,4.3421796875e+003,4.3166665039e+003,4.3308974609e+003,4.3111538086e+003,4.3226923828e+003,4.3288461914e+003,4.3315385742e+003,4.3175639648e+003,4.2987177734e+003,4.3111538086e+003,4.2916665039e+003,
5.8593750000e-001,4.2506411133e+003,4.2839741211e+003,4.2621796875e+003,4.3084614258e+003,4.2793588867e+003,4.2952563477e+003,4.2791025391e+003,4.2857690430e+003,4.2921796875e+003,4.2930771484e+003,4.2821796875e+003,4.2643588867e+003,4.2734614258e+003,4.2579487305e+003,
5.9375000000e-001,4.2248715820e+003,4.2602563477e+003,4.2350000000e+003,4.2805126953e+003,4.2607690430e+003,4.2653847656e+003,4.2535898438e+003,4.2550000000e+003,4.2615385742e+003,4.2597436523e+003,4.2508974609e+003,4.2356411133e+003,4.2439741211e+003,4.2300000000e+003,
6.0156250000e-001,4.2420512695e+003,4.2635898438e+003,4.2612822266e+003,4.2843588867e+003,4.2491025391e+003,4.2648715820e+003,4.2585898438e+003,4.2405126953e+003,4.2341025391e+003,4.2485898438e+003,4.2560258789e+003,4.2601284180e+003,4.2493588867e+003,4.2505126953e+003,
6.0937500000e-001,4.2621796875e+003,4.2865385742e+003,4.2817949219e+003,4.3034614258e+003,4.2596152344e+003,4.2753847656e+003,4.2744873047e+003,4.2560258789e+003,4.2503847656e+003,4.2669228516e+003,4.2825639648e+003,4.2823076172e+003,4.2692309570e+003,4.2696152344e+003,
6.1718750000e-001,4.3189741211e+003,4.3365385742e+003,4.3333334961e+003,4.3480771484e+003,4.3434614258e+003,4.3188461914e+003,4.3255126953e+003,4.3176923828e+003,4.3126923828e+003,4.3302563477e+003,4.3446152344e+003,4.3424360352e+003,4.3374360352e+003,4.3237177734e+003,
6.2500000000e-001,4.3589741211e+003,4.3765385742e+003,4.3739741211e+003,4.3800000000e+003,4.3926923828e+003,4.3635898438e+003,4.3669228516e+003,4.3639741211e+003,4.3584614258e+003,4.3773076172e+003,4.3837177734e+003,4.3816665039e+003,4.3825639648e+003,4.3656411133e+003,
6.3281250000e-001,4.4193588867e+003,4.4526923828e+003,4.4357690430e+003,4.4326923828e+003,4.4532050781e+003,4.4358974609e+003,4.4316665039e+003,4.4393588867e+003,4.4355126953e+003,4.4561538086e+003,4.4467949219e+003,4.4438461914e+003,4.4537177734e+003,4.4307690430e+003,
6.4062500000e-001,4.4057690430e+003,4.4464101563e+003,4.4233334961e+003,4.4217949219e+003,4.4367949219e+003,4.4265385742e+003,4.4211538086e+003,4.4320512695e+003,4.4289741211e+003,4.4480771484e+003,4.4364101563e+003,4.4356411133e+003,4.4429487305e+003,4.4200000000e+003,
6.4843750000e-001,4.3792309570e+003,4.4112822266e+003,4.4012822266e+003,4.3988461914e+003,4.4087177734e+003,4.4055126953e+003,4.3992309570e+003,4.4082050781e+003,4.4048715820e+003,4.4164101563e+003,4.4215385742e+003,4.4141025391e+003,4.4092309570e+003,4.3969228516e+003,
6.5625000000e-001,4.4146152344e+003,4.4452563477e+003,4.4357690430e+003,4.4341025391e+003,4.4416665039e+003,4.4443588867e+003,4.4358974609e+003,4.4460258789e+003,4.4430771484e+003,4.4535898438e+003,4.4606411133e+003,4.4453847656e+003,4.4438461914e+003,4.4298715820e+003,
6.6406250000e-001,4.4066665039e+003,4.4556411133e+003,4.4278203125e+003,4.4433334961e+003,4.4546152344e+003,4.4567949219e+003,4.4385898438e+003,4.4583334961e+003,4.4571796875e+003,4.4632050781e+003,4.4597436523e+003,4.4433334961e+003,4.4488461914e+003,4.4194873047e+003,
6.7187500000e-001,4.3993588867e+003,4.4466665039e+003,4.4225639648e+003,4.4434614258e+003,4.4562822266e+003,4.4483334961e+003,4.4292309570e+003,4.4485898438e+003,4.4488461914e+003,4.4592309570e+003,4.4456411133e+003,4.4384614258e+003,4.4456411133e+003,4.4193588867e+003,
6.7968750000e-001,4.4171796875e+003,4.4600000000e+003,4.4410258789e+003,4.4608974609e+003,4.4591025391e+003,4.4605126953e+003,4.4451284180e+003,4.4603847656e+003,4.4611538086e+003,4.4723076172e+003,4.4562822266e+003,4.4529487305e+003,4.4614101563e+003,4.4375639648e+003,
6.8750000000e-001,4.4662822266e+003,4.5182050781e+003,4.4850000000e+003,4.5021796875e+003,4.5143588867e+003,4.5023076172e+003,4.4850000000e+003,4.4885898438e+003,4.4858974609e+003,4.5115385742e+003,4.5094873047e+003,4.4951284180e+003,4.5087177734e+003,4.4837177734e+003,
6.9531250000e-001,4.4714101563e+003,4.5285898438e+003,4.4923076172e+003,4.5039741211e+003,4.5351284180e+003,4.5075639648e+003,4.4885898438e+003,4.4903847656e+003,4.4846152344e+003,4.5180771484e+003,4.5234614258e+003,4.5041025391e+003,4.5160258789e+003,4.4921796875e+003,
7.0312500000e-001,4.4764101563e+003,4.5279487305e+003,4.5087177734e+003,4.5016665039e+003,4.5441025391e+003,4.5056411133e+003,4.4942309570e+003,4.4910258789e+003,4.4798715820e+003,4.5175639648e+003,4.5270512695e+003,4.5169228516e+003,4.5230771484e+003,4.5035898438e+003,
7.1093750000e-001,4.4946152344e+003,4.5398715820e+003,4.5297436523e+003,4.5178203125e+003,4.5521796875e+003,4.5180771484e+003,4.5130771484e+003,4.5084614258e+003,4.4958974609e+003,4.5303847656e+003,4.5371796875e+003,4.5352563477e+003,4.5391025391e+003,4.5203847656e+003,
7.1875000000e-001,4.5243588867e+003,4.5669228516e+003,4.5588461914e+003,4.5494873047e+003,4.5728203125e+003,4.5439741211e+003,4.5438461914e+003,4.5401284180e+003,4.5266665039e+003,4.5580771484e+003,4.5625639648e+003,4.5643588867e+003,4.5656411133e+003,4.5470512695e+003,
7.2656250000e-001,4.5578203125e+003,4.6028203125e+003,4.5906411133e+003,4.5889741211e+003,4.6014101563e+003,4.5767949219e+003,4.5787177734e+003,4.5776923828e+003,4.5633334961e+003,4.5941025391e+003,4.5987177734e+003,4.5983334961e+003,4.5961538086e+003,4.5787177734e+003,
7.3437500000e-001,4.6639741211e+003,4.7348715820e+003,4.7008974609e+003,4.7148715820e+003,4.7246152344e+003,4.6917949219e+003,4.6856411133e+003,4.6992309570e+003,4.6833334961e+003,4.7162822266e+003,4.7324360352e+003,4.7148715820e+003,4.7097436523e+003,4.6938461914e+003,
7.4218750000e-001,4.6073076172e+003,4.6833334961e+003,4.6528203125e+003,4.6552563477e+003,4.6488461914e+003,4.6589741211e+003,4.6457690430e+003,4.6629487305e+003,4.6493588867e+003,4.6779487305e+003,4.6737177734e+003,4.6608974609e+003,4.6653847656e+003,4.6420512695e+003,
7.5000000000e-001,4.6087177734e+003,4.6898715820e+003,4.6542309570e+003,4.6567949219e+003,4.6561538086e+003,4.6655126953e+003,4.6489741211e+003,4.6673076172e+003,4.6562822266e+003,4.6801284180e+003,4.6724360352e+003,4.6626923828e+003,4.6680771484e+003,4.6458974609e+003,
7.5781250000e-001,4.6373076172e+003,4.7251284180e+003,4.6864101563e+003,4.6794873047e+003,4.7285898438e+003,4.7026923828e+003,4.6789741211e+003,4.7044873047e+003,4.6978203125e+003,4.7160258789e+003,4.7078203125e+003,4.6964101563e+003,4.7035898438e+003,4.6819228516e+003,
7.6562500000e-001,4.5438461914e+003,4.6351284180e+003,4.6043588867e+003,4.6043588867e+003,4.6448715820e+003,4.6301284180e+003,4.6003847656e+003,4.6312822266e+003,4.6289741211e+003,4.6551284180e+003,4.6507690430e+003,4.6129487305e+003,4.6302563477e+003,4.6028203125e+003,
7.7343750000e-001,4.5023076172e+003,4.5923076172e+003,4.5607690430e+003,4.5641025391e+003,4.5967949219e+003,4.5843588867e+003,4.5579487305e+003,4.5850000000e+003,4.5853847656e+003,4.6057690430e+003,4.6037177734e+003,4.5706411133e+003,4.5829487305e+003,4.5615385742e+003,
7.8125000000e-001,4.4788461914e+003,4.5669228516e+003,4.5351284180e+003,4.5371796875e+003,4.5717949219e+003,4.5539741211e+003,4.5324360352e+003,4.5535898438e+003,4.5555126953e+003,4.5702563477e+003,4.5707690430e+003,4.5452563477e+003,4.5511538086e+003,4.5369228516e+003,
7.8906250000e-001,4.4865385742e+003,4.5715385742e+003,4.5441025391e+003,4.5379487305e+003,4.5806411133e+003,4.5541025391e+003,4.5393588867e+003,4.5508974609e+003,4.5494873047e+003,4.5661538086e+003,4.5666665039e+003,4.5489741211e+003,4.5544873047e+003,4.5402563477e+003,
7.9687500000e-001,4.4747436523e+003,4.5447436523e+003,4.5361538086e+003,4.5369228516e+003,4.5482050781e+003,4.5420512695e+003,4.5353847656e+003,4.5417949219e+003,4.5274360352e+003,4.5508974609e+003,4.5434614258e+003,4.5346152344e+003,4.5439741211e+003,4.5226923828e+003,
8.0468750000e-001,4.4605126953e+003,4.5269228516e+003,4.5188461914e+003,4.5258974609e+003,4.5315385742e+003,4.5235898438e+003,4.5220512695e+003,4.5270512695e+003,4.5128203125e+003,4.5303847656e+003,4.5269228516e+003,4.5210258789e+003,4.5235898438e+003,4.5083334961e+003,
8.1250000000e-001,4.4493588867e+003,4.5165385742e+003,4.5057690430e+003,4.5153847656e+003,4.5219228516e+003,4.5087177734e+003,4.5117949219e+003,4.5160258789e+003,4.5039741211e+003,4.5160258789e+003,4.5196152344e+003,4.5130771484e+003,4.5087177734e+003,4.4997436523e+003,
8.2031250000e-001,4.4330771484e+003,4.5028203125e+003,4.4935898438e+003,4.4902563477e+003,4.4984614258e+003,4.4882050781e+003,4.4952563477e+003,4.5003847656e+003,4.4891025391e+003,4.5007690430e+003,4.5193588867e+003,4.5052563477e+003,4.4939741211e+003,4.4917949219e+003,
8.2812500000e-001,4.4112822266e+003,4.4612822266e+003,4.4706411133e+003,4.4476923828e+003,4.4407690430e+003,4.4542309570e+003,4.4562822266e+003,4.4683334961e+003,4.4525639648e+003,4.4610258789e+003,4.4796152344e+003,4.4693588867e+003,4.4623076172e+003,4.4641025391e+003,
8.3593750000e-001,4.3980771484e+003,4.4467949219e+003,4.4539741211e+003,4.4352563477e+003,4.4287177734e+003,4.4410258789e+003,4.4416665039e+003,4.4541025391e+003,4.4405126953e+003,4.4438461914e+003,4.4566665039e+003,4.4519228516e+003,4.4460258789e+003,4.4473076172e+003,
8.4375000000e-001,4.3846152344e+003,4.4365385742e+003,4.4383334961e+003,4.4271796875e+003,4.4257690430e+003,4.4311538086e+003,4.4306411133e+003,4.4415385742e+003,4.4306411133e+003,4.4305126953e+003,4.4389741211e+003,4.4379487305e+003,4.4320512695e+003,4.4316665039e+003,
8.5156250000e-001,4.3773076172e+003,4.4333334961e+003,4.4305126953e+003,4.4264101563e+003,4.4332050781e+003,4.4291025391e+003,4.4269228516e+003,4.4350000000e+003,4.4261538086e+003,4.4257690430e+003,4.4330771484e+003,4.4315385742e+003,4.4257690430e+003,4.4225639648e+003,
8.5937500000e-001,4.3643588867e+003,4.4134614258e+003,4.4107690430e+003,4.4046152344e+003,4.4351284180e+003,4.4314101563e+003,4.4150000000e+003,4.4203847656e+003,4.4143588867e+003,4.4169228516e+003,4.4246152344e+003,4.4093588867e+003,4.4126923828e+003,4.4066665039e+003,
8.6718750000e-001,4.3533334961e+003,4.4044873047e+003,4.3965385742e+003,4.3929487305e+003,4.4246152344e+003,4.4208974609e+003,4.4047436523e+003,4.4088461914e+003,4.4069228516e+003,4.4076923828e+003,4.4120512695e+003,4.3994873047e+003,4.4026923828e+003,4.3984614258e+003,
8.7500000000e-001,4.4069228516e+003,4.4717949219e+003,4.4452563477e+003,4.4544873047e+003,4.4816665039e+003,4.4684614258e+003,4.4519228516e+003,4.4607690430e+003,4.4678203125e+003,4.4779487305e+003,4.4738461914e+003,4.4508974609e+003,4.4615385742e+003,4.4473076172e+003,
8.8281250000e-001,4.4785898438e+003,4.5335898438e+003,4.5211538086e+003,4.5228203125e+003,4.5482050781e+003,4.5367949219e+003,4.5174360352e+003,4.5275639648e+003,4.5285898438e+003,4.5366665039e+003,4.5321796875e+003,4.5123076172e+003,4.5198715820e+003,4.5073076172e+003,
8.9062500000e-001,4.4833334961e+003,4.5403847656e+003,4.5250000000e+003,4.5330771484e+003,4.5498715820e+003,4.5407690430e+003,4.5220512695e+003,4.5307690430e+003,4.5298715820e+003,4.5393588867e+003,4.5329487305e+003,4.5192309570e+003,4.5237177734e+003,4.5151284180e+003,
8.9843750000e-001,4.5132050781e+003,4.5733334961e+003,4.5542309570e+003,4.5720512695e+003,4.5576923828e+003,4.5560258789e+003,4.5443588867e+003,4.5514101563e+003,4.5369228516e+003,4.5651284180e+003,4.5756411133e+003,4.5614101563e+003,4.5582050781e+003,4.5560258789e+003,
9.0625000000e-001,4.5558974609e+003,4.6106411133e+003,4.5991025391e+003,4.6087177734e+003,4.6021796875e+003,4.5902563477e+003,4.5833334961e+003,4.5897436523e+003,4.5706411133e+003,4.6010258789e+003,4.6205126953e+003,4.6051284180e+003,4.5998715820e+003,4.5971796875e+003,
9.1406250000e-001,4.6707690430e+003,4.7276923828e+003,4.7153847656e+003,4.7203847656e+003,4.7311538086e+003,4.6970512695e+003,4.7021796875e+003,4.7160258789e+003,4.6953847656e+003,4.7248715820e+003,4.7425639648e+003,4.7217949219e+003,4.7178203125e+003,4.7082050781e+003,
9.2187500000e-001,4.6475639648e+003,4.7174360352e+003,4.7021796875e+003,4.7010258789e+003,4.7097436523e+003,4.6982050781e+003,4.6969228516e+003,4.7173076172e+003,4.6961538086e+003,4.7301284180e+003,4.7267949219e+003,4.7053847656e+003,4.7089741211e+003,4.6929487305e+003,
9.2968750000e-001,4.6460258789e+003,4.7160258789e+003,4.7026923828e+003,4.6988461914e+003,4.7185898438e+003,4.7037177734e+003,4.6992309570e+003,4.7191025391e+003,4.6979487305e+003,4.7293588867e+003,4.7238461914e+003,4.7085898438e+003,4.7084614258e+003,4.6932050781e+003,
9.3750000000e-001,4.6387177734e+003,4.7098715820e+003,4.6957690430e+003,4.6935898438e+003,4.7221796875e+003,4.7016665039e+003,4.6958974609e+003,4.7139741211e+003,4.6937177734e+003,4.7200000000e+003,4.7176923828e+003,4.7075639648e+003,4.7008974609e+003,4.6880771484e+003,
9.4531250000e-001,4.6073076172e+003,4.6850000000e+003,4.6629487305e+003,4.6696152344e+003,4.6942309570e+003,4.6760258789e+003,4.6697436523e+003,4.6839741211e+003,4.6662822266e+003,4.6838461914e+003,4.6979487305e+003,4.6800000000e+003,4.6711538086e+003,4.6602563477e+003,
9.5312500000e-001,4.5787177734e+003,4.6616665039e+003,4.6388461914e+003,4.6387177734e+003,4.6667949219e+003,4.6524360352e+003,4.6324360352e+003,4.6530771484e+003,4.6414101563e+003,4.6582050781e+003,4.6734614258e+003,4.6400000000e+003,4.6458974609e+003,4.6324360352e+003,
9.6093750000e-001,4.5493588867e+003,4.6321796875e+003,4.6133334961e+003,4.6067949219e+003,4.6401284180e+003,4.6248715820e+003,4.6030771484e+003,4.6226923828e+003,4.6137177734e+003,4.6276923828e+003,4.6376923828e+003,4.6132050781e+003,4.6148715820e+003,4.6050000000e+003,
9.6875000000e-001,4.5164101563e+003,4.5980771484e+003,4.5829487305e+003,4.5721796875e+003,4.6016665039e+003,4.5917949219e+003,4.5720512695e+003,4.5867949219e+003,4.5807690430e+003,4.5916665039e+003,4.5976923828e+003,4.5820512695e+003,4.5803847656e+003,4.5737177734e+003,
9.7656250000e-001,4.4955126953e+003,4.5746152344e+003,4.5625639648e+003,4.5516665039e+003,4.5682050781e+003,4.5693588867e+003,4.5529487305e+003,4.5615385742e+003,4.5582050781e+003,4.5680771484e+003,4.5708974609e+003,4.5591025391e+003,4.5596152344e+003,4.5530771484e+003,
9.8437500000e-001,4.4770512695e+003,4.5462822266e+003,4.5450000000e+003,4.5578203125e+003,4.5625639648e+003,4.5498715820e+003,4.5280771484e+003,4.5389741211e+003,4.5420512695e+003,4.5514101563e+003,4.5444873047e+003,4.5333334961e+003,4.5388461914e+003,4.5335898438e+003,
9.9218750000e-001,4.4384614258e+003,4.5115385742e+003,4.5052563477e+003,4.5212822266e+003,4.5347436523e+003,4.5078203125e+003,4.4871796875e+003,4.5000000000e+003,4.5042309570e+003,4.5103847656e+003,4.5101284180e+003,4.4993588867e+003,4.5010258789e+003,4.4992309570e+003,
1.0000000000e+000,4.3639741211e+003,4.4260258789e+003,4.4210258789e+003,4.4187177734e+003,4.4123076172e+003,4.4075639648e+003,4.4006411133e+003,4.4026923828e+003,4.3993588867e+003,4.4080771484e+003,4.4379487305e+003,4.4230771484e+003,4.4292309570e+003,4.4257690430e+003,
1.0078125000e+000,4.4100000000e+003,4.4520512695e+003,4.4696152344e+003,4.4591025391e+003,4.4442309570e+003,4.4361538086e+003,4.4396152344e+003,4.4452563477e+003,4.4261538086e+003,4.4376923828e+003,4.4644873047e+003,4.4644873047e+003,4.4655126953e+003,4.4601284180e+003,
1.0156250000e+000,4.4033334961e+003,4.4489741211e+003,4.4634614258e+003,4.4564101563e+003,4.4487177734e+003,4.4315385742e+003,4.4376923828e+003,4.4484614258e+003,4.4279487305e+003,4.4332050781e+003,4.4591025391e+003,4.4619228516e+003,4.4616665039e+003,4.4552563477e+003,
1.0234375000e+000,4.3612822266e+003,4.4030771484e+003,4.4143588867e+003,4.4092309570e+003,4.4100000000e+003,4.3958974609e+003,4.4097436523e+003,4.4203847656e+003,4.4038461914e+003,4.3920512695e+003,4.4120512695e+003,4.4237177734e+003,4.4238461914e+003,4.4158974609e+003,
1.0312500000e+000,4.3557690430e+003,4.3919228516e+003,4.4074360352e+003,4.4005126953e+003,4.3991025391e+003,4.3925639648e+003,4.4061538086e+003,4.4153847656e+003,4.3991025391e+003,4.3858974609e+003,4.4000000000e+003,4.4144873047e+003,4.4143588867e+003,4.4046152344e+003,
1.0390625000e+000,4.3380771484e+003,4.3801284180e+003,4.3898715820e+003,4.3800000000e+003,4.3651284180e+003,4.3857690430e+003,4.3920512695e+003,4.3997436523e+003,4.3802563477e+003,4.3633334961e+003,4.3828203125e+003,4.3873076172e+003,4.3957690430e+003,4.3762822266e+003,
1.0468750000e+000,4.3539741211e+003,4.3998715820e+003,4.4025639648e+003,4.3934614258e+003,4.3851284180e+003,4.4030771484e+003,4.4055126953e+003,4.4124360352e+003,4.3942309570e+003,4.3775639648e+003,4.4028203125e+003,4.4023076172e+003,4.4148715820e+003,4.3942309570e+003,
1.0546875000e+000,4.3815385742e+003,4.4262822266e+003,4.4225639648e+003,4.4203847656e+003,4.4380771484e+003,4.4320512695e+003,4.4251284180e+003,4.4325639648e+003,4.4224360352e+003,4.4121796875e+003,4.4357690430e+003,4.4325639648e+003,4.4466665039e+003,4.4274360352e+003,
1.0625000000e+000,4.3544873047e+003,4.3962822266e+003,4.3955126953e+003,4.3979487305e+003,4.4203847656e+003,4.4074360352e+003,4.3967949219e+003,4.4043588867e+003,4.3992309570e+003,4.3908974609e+003,4.4096152344e+003,4.4070512695e+003,4.4206411133e+003,4.4017949219e+003,
1.0703125000e+000,4.1571796875e+003,4.2000000000e+003,4.2011538086e+003,4.2078203125e+003,4.2152563477e+003,4.2197436523e+003,4.2044873047e+003,4.2088461914e+003,4.2147436523e+003,4.1938461914e+003,4.2035898438e+003,4.2042309570e+003,4.2233334961e+003,4.2030771484e+003,
1.0781250000e+000,4.0971796875e+003,4.1247436523e+003,4.1271796875e+003,4.1266665039e+003,4.1348715820e+003,4.1438461914e+003,4.1300000000e+003,4.1293588867e+003,4.1398715820e+003,4.1137177734e+003,4.1203847656e+003,4.1288461914e+003,4.1458974609e+003,4.1319228516e+003,
1.0859375000e+000,4.1264101563e+003,4.1443588867e+003,4.1497436523e+003,4.1461538086e+003,4.1528203125e+003,4.1610258789e+003,4.1484614258e+003,4.1464101563e+003,4.1591025391e+003,4.1338461914e+003,4.1448715820e+003,4.1496152344e+003,4.1684614258e+003,4.1528203125e+003,
1.0937500000e+000,4.1598715820e+003,4.1710258789e+003,4.1782050781e+003,4.1711538086e+003,4.1760258789e+003,4.1835898438e+003,4.1719228516e+003,4.1701284180e+003,4.1835898438e+003,4.1605126953e+003,4.1769228516e+003,4.1766665039e+003,4.1980771484e+003,4.1794873047e+003,
1.1015625000e+000,4.1762822266e+003,4.1844873047e+003,4.1932050781e+003,4.1826923828e+003,4.1852563477e+003,4.1935898438e+003,4.1821796875e+003,4.1819228516e+003,4.1930771484e+003,4.1732050781e+003,4.1929487305e+003,4.1915385742e+003,4.2126923828e+003,4.1933334961e+003,
1.1093750000e+000,4.1228203125e+003,4.1283334961e+003,4.1456411133e+003,4.1321796875e+003,4.1253847656e+003,4.1362822266e+003,4.1330771484e+003,4.1361538086e+003,4.1280771484e+003,4.1105126953e+003,4.1348715820e+003,4.1471796875e+003,4.1434614258e+003,4.1462822266e+003,
1.1171875000e+000,4.1298715820e+003,4.1329487305e+003,4.1488461914e+003,4.1378203125e+003,4.1379487305e+003,4.1360258789e+003,4.1379487305e+003,4.1446152344e+003,4.1383334961e+003,4.1153847656e+003,4.1407690430e+003,4.1516665039e+003,4.1501284180e+003,4.1503847656e+003,
1.1250000000e+000,4.1223076172e+003,4.1143588867e+003,4.1410258789e+003,4.1341025391e+003,4.1406411133e+003,4.1229487305e+003,4.1365385742e+003,4.1470512695e+003,4.1437177734e+003,4.1076923828e+003,4.1226923828e+003,4.1434614258e+003,4.1467949219e+003,4.1397436523e+003,
1.1328125000e+000,4.0421794434e+003,4.0315385742e+003,4.0625642090e+003,4.0517949219e+003,4.0435898438e+003,4.0614101563e+003,4.0712819824e+003,4.0753845215e+003,4.0724357910e+003,4.0355129395e+003,4.0558974609e+003,4.0626923828e+003,4.0656411133e+003,4.0660256348e+003,
1.1406250000e+000,4.0257692871e+003,4.0137180176e+003,4.0451281738e+003,4.0316667480e+003,4.0242307129e+003,4.0430769043e+003,4.0544870605e+003,4.0537180176e+003,4.0528205566e+003,4.0106411133e+003,4.0371794434e+003,4.0424357910e+003,4.0450000000e+003,4.0478205566e+003,
1.1484375000e+000,4.1091025391e+003,4.0998715820e+003,4.1162822266e+003,4.1139741211e+003,4.1067949219e+003,4.1166665039e+003,4.1237177734e+003,4.1179487305e+003,4.1162822266e+003,4.0801281738e+003,4.1076923828e+003,4.1144873047e+003,4.1210258789e+003,4.1230771484e+003,
1.1562500000e+000,4.1384614258e+003,4.1314101563e+003,4.1428203125e+003,4.1458974609e+003,4.1361538086e+003,4.1491025391e+003,4.1507690430e+003,4.1450000000e+003,4.1429487305e+003,4.1170512695e+003,4.1379487305e+003,4.1451284180e+003,4.1530771484e+003,4.1525639648e+003,
1.1640625000e+000,4.1866665039e+003,4.1810258789e+003,4.1911538086e+003,4.1820512695e+003,4.1917949219e+003,4.1957690430e+003,4.1894873047e+003,4.1797436523e+003,4.1858974609e+003,4.1710258789e+003,4.1874360352e+003,4.1885898438e+003,4.2024360352e+003,4.1969228516e+003,
1.1718750000e+000,4.2134614258e+003,4.2073076172e+003,4.2171796875e+003,4.2044873047e+003,4.2164101563e+003,4.2183334961e+003,4.2111538086e+003,4.2032050781e+003,4.2105126953e+003,4.1947436523e+003,4.2158974609e+003,4.2110258789e+003,4.2247436523e+003,4.2205126953e+003,
1.1796875000e+000,4.2476923828e+003,4.2393588867e+003,4.2519228516e+003,4.2488461914e+003,4.2341025391e+003,4.2520512695e+003,4.2403847656e+003,4.2401284180e+003,4.2428203125e+003,4.2329487305e+003,4.2556411133e+003,4.2447436523e+003,4.2537177734e+003,4.2542309570e+003,
1.1875000000e+000,4.2400000000e+003,4.2312822266e+003,4.2455126953e+003,4.2500000000e+003,4.2200000000e+003,4.2460258789e+003,4.2315385742e+003,4.2342309570e+003,4.2347436523e+003,4.2298715820e+003,4.2476923828e+003,4.2392309570e+003,4.2480771484e+003,4.2476923828e+003,
1.1953125000e+000,4.2133334961e+003,4.2138461914e+003,4.2157690430e+003,4.2250000000e+003,4.2180771484e+003,4.2143588867e+003,4.2011538086e+003,4.2028203125e+003,4.2066665039e+003,4.2017949219e+003,4.2144873047e+003,4.2088461914e+003,4.2251284180e+003,4.2158974609e+003,
1.2031250000e+000,4.2314101563e+003,4.2329487305e+003,4.2342309570e+003,4.2391025391e+003,4.2469228516e+003,4.2288461914e+003,4.2179487305e+003,4.2194873047e+003,4.2228203125e+003,4.2158974609e+003,4.2324360352e+003,4.2267949219e+003,4.2397436523e+003,4.2320512695e+003,
1.2109375000e+000,4.2708974609e+003,4.2665385742e+003,4.2779487305e+003,4.2783334961e+003,4.2839741211e+003,4.2603847656e+003,4.2551284180e+003,4.2610258789e+003,4.2587177734e+003,4.2543588867e+003,4.2716665039e+003,4.2705126953e+003,4.2758974609e+003,4.2715385742e+003,
1.2187500000e+000,4.2773076172e+003,4.2700000000e+003,4.2852563477e+003,4.2874360352e+003,4.2828203125e+003,4.2623076172e+003,4.2624360352e+003,4.2715385742e+003,4.2661538086e+003,4.2638461914e+003,4.2775639648e+003,4.2784614258e+003,4.2832050781e+003,4.2779487305e+003,
1.2265625000e+000,4.2787177734e+003,4.2701284180e+003,4.2866665039e+003,4.2907690430e+003,4.2788461914e+003,4.2605126953e+003,4.2673076172e+003,4.2789741211e+003,4.2712822266e+003,4.2685898438e+003,4.2793588867e+003,4.2806411133e+003,4.2851284180e+003,4.2787177734e+003,
1.2343750000e+000,4.2943588867e+003,4.2810258789e+003,4.3043588867e+003,4.3087177734e+003,4.2989741211e+003,4.3051284180e+003,4.3151284180e+003,4.3275639648e+003,4.3111538086e+003,4.2874360352e+003,4.3028203125e+003,4.2958974609e+003,4.2946152344e+003,4.2893588867e+003,
1.2421875000e+000,4.2742309570e+003,4.2616665039e+003,4.2838461914e+003,4.2865385742e+003,4.2801284180e+003,4.2903847656e+003,4.3005126953e+003,4.3094873047e+003,4.2910258789e+003,4.2658974609e+003,4.2784614258e+003,4.2734614258e+003,4.2770512695e+003,4.2691025391e+003,
1.2500000000e+000,4.2400000000e+003,4.2320512695e+003,4.2476923828e+003,4.2523076172e+003,4.2358974609e+003,4.2675639648e+003,4.2687177734e+003,4.2685898438e+003,4.2551284180e+003,4.2325639648e+003,4.2329487305e+003,4.2397436523e+003,4.2448715820e+003,4.2379487305e+003,
1.2578125000e+000,4.2229487305e+003,4.2238461914e+003,4.2332050781e+003,4.2525639648e+003,4.2352563477e+003,4.2544873047e+003,4.2443588867e+003,4.2411538086e+003,4.2342309570e+003,4.2207690430e+003,4.2294873047e+003,4.2287177734e+003,4.2355126953e+003,4.2274360352e+003,
1.2656250000e+000,4.2255126953e+003,4.2260258789e+003,4.2343588867e+003,4.2488461914e+003,4.2497436523e+003,4.2528203125e+003,4.2429487305e+003,4.2393588867e+003,4.2352563477e+003,4.2246152344e+003,4.2347436523e+003,4.2291025391e+003,4.2437177734e+003,4.2292309570e+003,
1.2734375000e+000,4.2683334961e+003,4.2533334961e+003,4.2730771484e+003,4.2667949219e+003,4.2870512695e+003,4.2771796875e+003,4.2684614258e+003,4.2676923828e+003,4.2696152344e+003,4.2601284180e+003,4.2706411133e+003,4.2698715820e+003,4.2794873047e+003,4.2647436523e+003,
1.2812500000e+000,4.2653847656e+003,4.2489741211e+003,4.2702563477e+003,4.2648715820e+003,4.2752563477e+003,4.2715385742e+003,4.2610258789e+003,4.2620512695e+003,4.2648715820e+003,4.2543588867e+003,4.2678203125e+003,4.2698715820e+003,4.2700000000e+003,4.2634614258e+003,
1.2890625000e+000,4.1885898438e+003,4.1792309570e+003,4.1947436523e+003,4.1987177734e+003,4.1925639648e+003,4.1961538086e+003,4.1843588867e+003,4.1883334961e+003,4.1961538086e+003,4.1887177734e+003,4.1952563477e+003,4.1943588867e+003,4.2038461914e+003,4.1962822266e+003,
1.2968750000e+000,4.1747436523e+003,4.1630771484e+003,4.1819228516e+003,4.1800000000e+003,4.1755126953e+003,4.1774360352e+003,4.1701284180e+003,4.1711538086e+003,4.1801284180e+003,4.1735898438e+003,4.1762822266e+003,4.1796152344e+003,4.1932050781e+003,4.1815385742e+003,
1.3046875000e+000,4.2233334961e+003,4.2043588867e+003,4.2278203125e+003,4.2089741211e+003,4.2171796875e+003,4.2046152344e+003,4.2060258789e+003,4.2052563477e+003,4.2116665039e+003,4.2044873047e+003,4.2156411133e+003,4.2247436523e+003,4.2271796875e+003,4.2207690430e+003,
1.3125000000e+000,4.2637177734e+003,4.2433334961e+003,4.2652563477e+003,4.2434614258e+003,4.2564101563e+003,4.2365385742e+003,4.2391025391e+003,4.2443588867e+003,4.2474360352e+003,4.2405126953e+003,4.2587177734e+003,4.2638461914e+003,4.2584614258e+003,4.2575639648e+003,
1.3203125000e+000,4.2657690430e+003,4.2460258789e+003,4.2688461914e+003,4.2579487305e+003,4.2410258789e+003,4.2408974609e+003,4.2467949219e+003,4.2714101563e+003,4.2685898438e+003,4.2615385742e+003,4.2723076172e+003,4.2676923828e+003,4.2669228516e+003,4.2656411133e+003,
1.3281250000e+000,4.2561538086e+003,4.2391025391e+003,4.2601284180e+003,4.2510258789e+003,4.2297436523e+003,4.2366665039e+003,4.2448715820e+003,4.2680771484e+003,4.2657690430e+003,4.2555126953e+003,4.2628203125e+003,4.2587177734e+003,4.2633334961e+003,4.2580771484e+003,
1.3359375000e+000,4.2808974609e+003,4.2750000000e+003,4.2832050781e+003,4.2666665039e+003,4.2724360352e+003,4.2805126953e+003,4.2873076172e+003,4.3043588867e+003,4.2987177734e+003,4.2793588867e+003,4.2932050781e+003,4.2865385742e+003,4.2917949219e+003,4.2812822266e+003,
1.3437500000e+000,4.2955126953e+003,4.2946152344e+003,4.2984614258e+003,4.2755126953e+003,4.2994873047e+003,4.3074360352e+003,4.3123076172e+003,4.3267949219e+003,4.3167949219e+003,4.2946152344e+003,4.3097436523e+003,4.3030771484e+003,4.3047436523e+003,4.2944873047e+003,
1.3515625000e+000,4.3024360352e+003,4.3038461914e+003,4.3071796875e+003,4.2805126953e+003,4.3156411133e+003,4.3239741211e+003,4.3285898438e+003,4.3405126953e+003,4.3262822266e+003,4.3044873047e+003,4.3143588867e+003,4.3097436523e+003,4.3097436523e+003,4.3000000000e+003,
1.3593750000e+000,4.3551284180e+003,4.3593588867e+003,4.3544873047e+003,4.3473076172e+003,4.3839741211e+003,4.3805126953e+003,4.3721796875e+003,4.3744873047e+003,4.3683334961e+003,4.3539741211e+003,4.3716665039e+003,4.3520512695e+003,4.3689741211e+003,4.3574360352e+003,
1.3671875000e+000,4.3708974609e+003,4.3784614258e+003,4.3706411133e+003,4.3632050781e+003,4.4015385742e+003,4.3969228516e+003,4.3846152344e+003,4.3853847656e+003,4.3805126953e+003,4.3698715820e+003,4.3916665039e+003,4.3688461914e+003,4.3851284180e+003,4.3739741211e+003,
1.3750000000e+000,4.4165385742e+003,4.4256411133e+003,4.4216665039e+003,4.4169228516e+003,4.4394873047e+003,4.4317949219e+003,4.4176923828e+003,4.4157690430e+003,4.4170512695e+003,4.4243588867e+003,4.4291025391e+003,4.4092309570e+003,4.4338461914e+003,4.4158974609e+003,
1.3828125000e+000,4.3250000000e+003,4.3403847656e+003,4.3376923828e+003,4.3320512695e+003,4.3419228516e+003,4.3419228516e+003,4.3165385742e+003,4.3132050781e+003,4.3212822266e+003,4.3278203125e+003,4.3451284180e+003,4.3369228516e+003,4.3458974609e+003,4.3389741211e+003,
1.3906250000e+000,4.2824360352e+003,4.2988461914e+003,4.2948715820e+003,4.2864101563e+003,4.2851284180e+003,4.2955126953e+003,4.2706411133e+003,4.2652563477e+003,4.2744873047e+003,4.2784614258e+003,4.3002563477e+003,4.2952563477e+003,4.2993588867e+003,4.2962822266e+003,
1.3984375000e+000,4.3770512695e+003,4.3834614258e+003,4.3824360352e+003,4.3725639648e+003,4.3717949219e+003,4.3555126953e+003,4.3470512695e+003,4.3355126953e+003,4.3419228516e+003,4.3489741211e+003,4.3771796875e+003,4.3685898438e+003,4.3811538086e+003,4.3719228516e+003,
1.4062500000e+000,4.4488461914e+003,4.4544873047e+003,4.4543588867e+003,4.4411538086e+003,4.4589741211e+003,4.4229487305e+003,4.4142309570e+003,4.4130771484e+003,4.4167949219e+003,4.4296152344e+003,4.4544873047e+003,4.4408974609e+003,4.4580771484e+003,4.4426923828e+003,
1.4140625000e+000,4.3296152344e+003,4.3343588867e+003,4.3503847656e+003,4.3242309570e+003,4.3414101563e+003,4.3269228516e+003,4.3221796875e+003,4.3558974609e+003,4.3516665039e+003,4.3526923828e+003,4.3637177734e+003,4.3506411133e+003,4.3523076172e+003,4.3411538086e+003,
1.4218750000e+000,4.3087177734e+003,4.3121796875e+003,4.3310258789e+003,4.3092309570e+003,4.3141025391e+003,4.3119228516e+003,4.3161538086e+003,4.3450000000e+003,4.3388461914e+003,4.3302563477e+003,4.3443588867e+003,4.3307690430e+003,4.3311538086e+003,4.3201284180e+003,
1.4296875000e+000,4.6283334961e+003,4.6456411133e+003,4.6439741211e+003,4.6373076172e+003,4.6579487305e+003,4.6341025391e+003,4.6492309570e+003,4.6630771484e+003,4.6479487305e+003,4.6466665039e+003,4.6670512695e+003,4.6411538086e+003,4.6580771484e+003,4.6334614258e+003,
1.4375000000e+000,4.9079487305e+003,4.9405126953e+003,4.9206411133e+003,4.9148715820e+003,4.9614101563e+003,4.9150000000e+003,4.9271796875e+003,4.9414101563e+003,4.9185898438e+003,4.9360258789e+003,4.9535898438e+003,4.9207690430e+003,4.9446152344e+003,4.9139741211e+003,
1.4453125000e+000,5.3675639648e+003,5.4517949219e+003,5.3924360352e+003,5.3661538086e+003,5.4508974609e+003,5.3988461914e+003,5.3847436523e+003,5.4225639648e+003,5.3802563477e+003,5.4456411133e+003,5.4526923828e+003,5.4038461914e+003,5.4243588867e+003,5.3950000000e+003,
1.4531250000e+000,5.3225639648e+003,5.4211538086e+003,5.3573076172e+003,5.3315385742e+003,5.4089741211e+003,5.3684614258e+003,5.3482050781e+003,5.3884614258e+003,5.3450000000e+003,5.4121796875e+003,5.4215385742e+003,5.3665385742e+003,5.3889741211e+003,5.3567949219e+003,
1.4609375000e+000,5.1455126953e+003,5.2624360352e+003,5.2007690430e+003,5.1848715820e+003,5.2542309570e+003,5.2173076172e+003,5.1912822266e+003,5.2238461914e+003,5.1835898438e+003,5.2466665039e+003,5.2582050781e+003,5.2012822266e+003,5.2300000000e+003,5.1902563477e+003,
1.4687500000e+000,5.0758974609e+003,5.1953847656e+003,5.1375639648e+003,5.1229487305e+003,5.1944873047e+003,5.1530771484e+003,5.1256411133e+003,5.1539741211e+003,5.1167949219e+003,5.1774360352e+003,5.1865385742e+003,5.1350000000e+003,5.1625639648e+003,5.1241025391e+003,
1.4765625000e+000,5.0128203125e+003,5.1315385742e+003,5.0775639648e+003,5.0597436523e+003,5.1323076172e+003,5.0920512695e+003,5.0624360352e+003,5.0887177734e+003,5.0562822266e+003,5.1132050781e+003,5.1196152344e+003,5.0742309570e+003,5.0975639648e+003,5.0639741211e+003,
1.4843750000e+000,4.6587177734e+003,4.7621796875e+003,4.7339741211e+003,4.7012822266e+003,4.7623076172e+003,4.7529487305e+003,4.7189741211e+003,4.7250000000e+003,4.7182050781e+003,4.7450000000e+003,4.7588461914e+003,4.7288461914e+003,4.7469228516e+003,4.7275639648e+003,
1.4921875000e+000,4.6619228516e+003,4.7653847656e+003,4.7346152344e+003,4.7039741211e+003,4.7825639648e+003,4.7510258789e+003,4.7197436523e+003,4.7255126953e+003,4.7205126953e+003,4.7492309570e+003,4.7606411133e+003,4.7316665039e+003,4.7501284180e+003,4.7316665039e+003,
1.5000000000e+000,4.6064101563e+003,4.6987177734e+003,4.6841025391e+003,4.6383334961e+003,4.7146152344e+003,4.6757690430e+003,4.6550000000e+003,4.6625639648e+003,4.6617949219e+003,4.6938461914e+003,4.7211538086e+003,4.6847436523e+003,4.6910258789e+003,4.6802563477e+003,
1.5078125000e+000,4.5753847656e+003,4.6610258789e+003,4.6576923828e+003,4.6107690430e+003,4.6632050781e+003,4.6383334961e+003,4.6217949219e+003,4.6305126953e+003,4.6287177734e+003,4.6594873047e+003,4.6928203125e+003,4.6547436523e+003,4.6601284180e+003,4.6498715820e+003,
1.5156250000e+000,4.5664101563e+003,4.6510258789e+003,4.6497436523e+003,4.6187177734e+003,4.6414101563e+003,4.6207690430e+003,4.6121796875e+003,4.6291025391e+003,4.6202563477e+003,4.6533334961e+003,4.6798715820e+003,4.6473076172e+003,4.6555126953e+003,4.6439741211e+003,
1.5234375000e+000,4.5834614258e+003,4.6689741211e+003,4.6606411133e+003,4.6241025391e+003,4.6702563477e+003,4.6355126953e+003,4.6364101563e+003,4.6758974609e+003,4.6580771484e+003,4.6758974609e+003,4.6932050781e+003,4.6687177734e+003,4.6706411133e+003,4.6647436523e+003,
1.5312500000e+000,4.5751284180e+003,4.6544873047e+003,4.6534614258e+003,4.6155126953e+003,4.6510258789e+003,4.6280771484e+003,4.6303847656e+003,4.6714101563e+003,4.6493588867e+003,4.6619228516e+003,4.6835898438e+003,4.6556411133e+003,4.6596152344e+003,4.6496152344e+003,
1.5390625000e+000,4.5658974609e+003,4.6471796875e+003,4.6448715820e+003,4.6125639648e+003,4.6265385742e+003,4.6276923828e+003,4.6343588867e+003,4.6585898438e+003,4.6267949219e+003,4.6385898438e+003,4.6593588867e+003,4.6351284180e+003,4.6408974609e+003,4.6270512695e+003,
1.5468750000e+000,4.5521796875e+003,4.6375639648e+003,4.6303847656e+003,4.5957690430e+003,4.6241025391e+003,4.6205126953e+003,4.6243588867e+003,4.6441025391e+003,4.6139741211e+003,4.6261538086e+003,4.6429487305e+003,4.6223076172e+003,4.6255126953e+003,4.6138461914e+003,
1.5546875000e+000,4.4205126953e+003,4.4978203125e+003,4.5019228516e+003,4.4619228516e+003,4.5161538086e+003,4.5016665039e+003,4.4960258789e+003,4.5169228516e+003,4.4910258789e+003,4.4926923828e+003,4.5069228516e+003,4.4915385742e+003,4.4897436523e+003,4.4830771484e+003,
1.5625000000e+000,4.3035898438e+003,4.3692309570e+003,4.3862822266e+003,4.3485898438e+003,4.4014101563e+003,4.3884614258e+003,4.3800000000e+003,4.4006411133e+003,4.3766665039e+003,4.3678203125e+003,4.3852563477e+003,4.3705126953e+003,4.3675639648e+003,4.3648715820e+003,
1.5703125000e+000,4.0407692871e+003,4.0846154785e+003,4.1152563477e+003,4.0839743652e+003,4.1167949219e+003,4.1305126953e+003,4.1246152344e+003,4.1230771484e+003,4.1126923828e+003,4.0770512695e+003,4.1080771484e+003,4.0935898438e+003,4.0832050781e+003,4.0985898438e+003,
1.5781250000e+000,4.0335898438e+003,4.0765385742e+003,4.1051284180e+003,4.0679487305e+003,4.1003847656e+003,4.1225639648e+003,4.1176923828e+003,4.1080771484e+003,4.1030771484e+003,4.0647436523e+003,4.0932050781e+003,4.0847436523e+003,4.0735898438e+003,4.0903845215e+003,
1.5859375000e+000,4.0705129395e+003,4.1085898438e+003,4.1335898438e+003,4.0947436523e+003,4.1197436523e+003,4.1523076172e+003,4.1446152344e+003,4.1310258789e+003,4.1307690430e+003,4.0965385742e+003,4.1091025391e+003,4.1117949219e+003,4.1156411133e+003,4.1189741211e+003,
1.5937500000e+000,4.0764101563e+003,4.1096152344e+003,4.1315385742e+003,4.1034614258e+003,4.1207690430e+003,4.1542309570e+003,4.1435898438e+003,4.1325639648e+003,4.1329487305e+003,4.1029487305e+003,4.1102563477e+003,4.1107690430e+003,4.1244873047e+003,4.1197436523e+003,
1.6015625000e+000,4.0644870605e+003,4.0928205566e+003,4.1112822266e+003,4.0960258789e+003,4.1107690430e+003,4.1389741211e+003,4.1267949219e+003,4.1175639648e+003,4.1191025391e+003,4.0929487305e+003,4.1003847656e+003,4.0951281738e+003,4.1124360352e+003,4.1051284180e+003,
1.6093750000e+000,4.0455129395e+003,4.0702563477e+003,4.0862819824e+003,4.0780769043e+003,4.0997436523e+003,4.1165385742e+003,4.1047436523e+003,4.0950000000e+003,4.0983334961e+003,4.0743588867e+003,4.0870512695e+003,4.0765385742e+003,4.0896154785e+003,4.0857692871e+003,
1.6171875000e+000,4.1835898438e+003,4.1994873047e+003,4.2153847656e+003,4.1850000000e+003,4.2010258789e+003,4.2091025391e+003,4.2066665039e+003,4.1953847656e+003,4.1974360352e+003,4.1842309570e+003,4.2061538086e+003,4.1982050781e+003,4.2124360352e+003,4.2033334961e+003,
1.6250000000e+000,4.2079487305e+003,4.2166665039e+003,4.2337177734e+003,4.2126923828e+003,4.2306411133e+003,4.2170512695e+003,4.2238461914e+003,4.2416665039e+003,4.2356411133e+003,4.2160258789e+003,4.2388461914e+003,4.2273076172e+003,4.2337177734e+003,4.2271796875e+003,
1.6328125000e+000,4.1774360352e+003,4.1835898438e+003,4.2001284180e+003,4.1775639648e+003,4.2079487305e+003,4.1902563477e+003,4.2001284180e+003,4.2200000000e+003,4.2146152344e+003,4.1851284180e+003,4.2091025391e+003,4.1970512695e+003,4.2044873047e+003,4.1967949219e+003,
1.6406250000e+000,4.1220512695e+003,4.1189741211e+003,4.1444873047e+003,4.1253847656e+003,4.1447436523e+003,4.1492309570e+003,4.1639741211e+003,4.1817949219e+003,4.1725639648e+003,4.1283334961e+003,4.1371796875e+003,4.1462822266e+003,4.1546152344e+003,4.1439741211e+003,
1.6484375000e+000,4.0960258789e+003,4.0898718262e+003,4.1200000000e+003,4.1020512695e+003,4.1115385742e+003,4.1312822266e+003,4.1466665039e+003,4.1635898438e+003,4.1498715820e+003,4.1023076172e+003,4.1021796875e+003,4.1226923828e+003,4.1279487305e+003,4.1182050781e+003,
1.6562500000e+000,4.0085898438e+003,4.0057692871e+003,4.0229487305e+003,4.0005129395e+003,4.0315385742e+003,4.0548718262e+003,4.0683332520e+003,4.0774357910e+003,4.0564101563e+003,4.0041025391e+003,4.0144870605e+003,4.0214101563e+003,4.0244870605e+003,4.0151281738e+003,
1.6640625000e+000,3.9808974609e+003,3.9755129395e+003,3.9893588867e+003,3.9728205566e+003,4.0041025391e+003,4.0273076172e+003,4.0401281738e+003,4.0420512695e+003,4.0234614258e+003,3.9702563477e+003,3.9880769043e+003,3.9856411133e+003,3.9950000000e+003,3.9824357910e+003,
1.6718750000e+000,3.9888461914e+003,3.9725642090e+003,3.9903845215e+003,3.9958974609e+003,3.9847436523e+003,4.0384614258e+003,4.0400000000e+003,4.0343588867e+003,4.0269230957e+003,3.9788461914e+003,3.9878205566e+003,3.9879487305e+003,4.0110256348e+003,3.9930769043e+003,
1.6796875000e+000,4.0505129395e+003,4.0358974609e+003,4.0405129395e+003,4.0279487305e+003,4.0630769043e+003,4.0787180176e+003,4.0741025391e+003,4.0691025391e+003,4.0726923828e+003,4.0330769043e+003,4.0410256348e+003,4.0429487305e+003,4.0579487305e+003,4.0402563477e+003,
1.6875000000e+000,4.0601281738e+003,4.0425642090e+003,4.0450000000e+003,4.0343588867e+003,4.0705129395e+003,4.0756411133e+003,4.0725642090e+003,4.0638461914e+003,4.0744870605e+003,4.0380769043e+003,4.0480769043e+003,4.0457692871e+003,4.0643588867e+003,4.0446154785e+003,
1.6953125000e+000,4.0585898438e+003,4.0367949219e+003,4.0396154785e+003,4.0378205566e+003,4.0578205566e+003,4.0641025391e+003,4.0608974609e+003,4.0508974609e+003,4.0667949219e+003,4.0334614258e+003,4.0429487305e+003,4.0398718262e+003,4.0616667480e+003,4.0410256348e+003,
1.7031250000e+000,4.0180769043e+003,3.9888461914e+003,3.9950000000e+003,4.0108974609e+003,3.9923076172e+003,4.0123076172e+003,4.0037180176e+003,4.0006411133e+003,4.0160256348e+003,3.9844870605e+003,3.9935898438e+003,3.9991025391e+003,4.0166667480e+003,4.0000000000e+003,
1.7109375000e+000,3.9210256348e+003,3.8820512695e+003,3.9005129395e+003,3.9034614258e+003,3.9017949219e+003,3.8958974609e+003,3.8917949219e+003,3.8943588867e+003,3.9055129395e+003,3.8697436523e+003,3.8921794434e+003,3.8987180176e+003,3.9133332520e+003,3.8993588867e+003,
1.7187500000e+000,3.8933332520e+003,3.8475642090e+003,3.8742307129e+003,3.8748718262e+003,3.8674357910e+003,3.8612819824e+003,3.8625642090e+003,3.8616667480e+003,3.8737180176e+003,3.8367949219e+003,3.8629487305e+003,3.8700000000e+003,3.8832050781e+003,3.8708974609e+003,
1.7265625000e+000,3.8807692871e+003,3.8282050781e+003,3.8600000000e+003,3.8657692871e+003,3.8389743652e+003,3.8425642090e+003,3.8480769043e+003,3.8438461914e+003,3.8551281738e+003,3.8174357910e+003,3.8452563477e+003,3.8556411133e+003,3.8653845215e+003,3.8558974609e+003,
1.7343750000e+000,3.8903845215e+003,3.8334614258e+003,3.8647436523e+003,3.8816667480e+003,3.8323076172e+003,3.8467949219e+003,3.8546154785e+003,3.8492307129e+003,3.8574357910e+003,3.8201281738e+003,3.8469230957e+003,3.8614101563e+003,3.8682050781e+003,3.8607692871e+003,
1.7421875000e+000,3.9916667480e+003,3.9289743652e+003,3.9691025391e+003,3.9880769043e+003,3.9273076172e+003,3.9494870605e+003,3.9687180176e+003,3.9676923828e+003,3.9615385742e+003,3.9229487305e+003,3.9378205566e+003,3.9614101563e+003,3.9514101563e+003,3.9570512695e+003,
1.7500000000e+000,4.0169230957e+003,3.9525642090e+003,3.9969230957e+003,4.0088461914e+003,3.9496154785e+003,3.9817949219e+003,4.0029487305e+003,3.9989743652e+003,3.9903845215e+003,3.9491025391e+003,3.9648718262e+003,3.9888461914e+003,3.9738461914e+003,3.9819230957e+003,
1.7578125000e+000,4.1350000000e+003,4.0879487305e+003,4.1002563477e+003,4.1298715820e+003,4.1014101563e+003,4.1169228516e+003,4.1261538086e+003,4.1296152344e+003,4.1155126953e+003,4.0773076172e+003,4.0871794434e+003,4.0947436523e+003,4.1038461914e+003,4.0910256348e+003,
1.7656250000e+000,4.1248715820e+003,4.0865385742e+003,4.0961538086e+003,4.1206411133e+003,4.1061538086e+003,4.1203847656e+003,4.1266665039e+003,4.1262822266e+003,4.1221796875e+003,4.0871794434e+003,4.0937180176e+003,4.0939743652e+003,4.1056411133e+003,4.0893588867e+003,
1.7734375000e+000,4.1373076172e+003,4.0994873047e+003,4.1065385742e+003,4.1308974609e+003,4.1170512695e+003,4.1367949219e+003,4.1397436523e+003,4.1371796875e+003,4.1374360352e+003,4.1016665039e+003,4.1103847656e+003,4.1094873047e+003,4.1194873047e+003,4.1028203125e+003,
1.7812500000e+000,4.1916665039e+003,4.1621796875e+003,4.1553847656e+003,4.1910258789e+003,4.1906411133e+003,4.1923076172e+003,4.1823076172e+003,4.1848715820e+003,4.1932050781e+003,4.1593588867e+003,4.1673076172e+003,4.1685898438e+003,4.1817949219e+003,4.1598715820e+003,
1.7890625000e+000,4.1715385742e+003,4.1441025391e+003,4.1365385742e+003,4.1680771484e+003,4.1726923828e+003,4.1698715820e+003,4.1589741211e+003,4.1611538086e+003,4.1712822266e+003,4.1398715820e+003,4.1456411133e+003,4.1496152344e+003,4.1600000000e+003,4.1402563477e+003,
1.7968750000e+000,4.2152563477e+003,4.1816665039e+003,4.1800000000e+003,4.1728203125e+003,4.1830771484e+003,4.1992309570e+003,4.1900000000e+003,4.1843588867e+003,4.1891025391e+003,4.1687177734e+003,4.1837177734e+003,4.1837177734e+003,4.1939741211e+003,4.1764101563e+003,
1.8046875000e+000,4.4215385742e+003,4.3873076172e+003,4.3961538086e+003,4.3864101563e+003,4.3812822266e+003,4.3816665039e+003,4.3735898438e+003,4.3780771484e+003,4.3758974609e+003,4.3756411133e+003,4.3908974609e+003,4.3926923828e+003,4.3998715820e+003,4.3820512695e+003,
1.8125000000e+000,4.4339741211e+003,4.4052563477e+003,4.4093588867e+003,4.4106411133e+003,4.4035898438e+003,4.3928203125e+003,4.3842309570e+003,4.3937177734e+003,4.3897436523e+003,4.3946152344e+003,4.4079487305e+003,4.4093588867e+003,4.4116665039e+003,4.3951284180e+003,
1.8203125000e+000,4.4205126953e+003,4.4017949219e+003,4.3948715820e+003,4.3926923828e+003,4.3943588867e+003,4.3855126953e+003,4.3784614258e+003,4.3908974609e+003,4.3821796875e+003,4.3894873047e+003,4.4039741211e+003,4.3978203125e+003,4.4064101563e+003,4.3894873047e+003,
1.8281250000e+000,4.4201284180e+003,4.4035898438e+003,4.3983334961e+003,4.3842309570e+003,4.3788461914e+003,4.3883334961e+003,4.3814101563e+003,4.3958974609e+003,4.3889741211e+003,4.3942309570e+003,4.4070512695e+003,4.4001284180e+003,4.4105126953e+003,4.3932050781e+003,
1.8359375000e+000,4.3791025391e+003,4.3719228516e+003,4.3674360352e+003,4.3470512695e+003,4.3338461914e+003,4.3606411133e+003,4.3512822266e+003,4.3687177734e+003,4.3679487305e+003,4.3661538086e+003,4.3742309570e+003,4.3708974609e+003,4.3758974609e+003,4.3569228516e+003,
1.8437500000e+000,4.3605126953e+003,4.3578203125e+003,4.3502563477e+003,4.3358974609e+003,4.3370512695e+003,4.3508974609e+003,4.3385898438e+003,4.3543588867e+003,4.3555126953e+003,4.3503847656e+003,4.3583334961e+003,4.3548715820e+003,4.3615385742e+003,4.3393588867e+003,
1.8515625000e+000,4.3664101563e+003,4.3656411133e+003,4.3542309570e+003,4.3446152344e+003,4.3697436523e+003,4.3647436523e+003,4.3482050781e+003,4.3619228516e+003,4.3634614258e+003,4.3571796875e+003,4.3669228516e+003,4.3589741211e+003,4.3726923828e+003,4.3465385742e+003,
1.8593750000e+000,4.3919228516e+003,4.3911538086e+003,4.3770512695e+003,4.3662822266e+003,4.4135898438e+003,4.3964101563e+003,4.3752563477e+003,4.3891025391e+003,4.3897436523e+003,4.3848715820e+003,4.3969228516e+003,4.3819228516e+003,4.4035898438e+003,4.3747436523e+003,
1.8671875000e+000,4.4250000000e+003,4.4266665039e+003,4.4121796875e+003,4.3975639648e+003,4.4182050781e+003,4.4298715820e+003,4.4087177734e+003,4.4256411133e+003,4.4165385742e+003,4.4160258789e+003,4.4279487305e+003,4.4152563477e+003,4.4262822266e+003,4.4083334961e+003,
1.8750000000e+000,4.4429487305e+003,4.4467949219e+003,4.4302563477e+003,4.4233334961e+003,4.4400000000e+003,4.4484614258e+003,4.4289741211e+003,4.4426923828e+003,4.4324360352e+003,4.4315385742e+003,4.4415385742e+003,4.4287177734e+003,4.4435898438e+003,4.4219228516e+003,
1.8828125000e+000,4.4505126953e+003,4.4662822266e+003,4.4461538086e+003,4.4343588867e+003,4.4580771484e+003,4.4769228516e+003,4.4535898438e+003,4.4610258789e+003,4.4508974609e+003,4.4510258789e+003,4.4555126953e+003,4.4384614258e+003,4.4658974609e+003,4.4355126953e+003,
1.8906250000e+000,4.4588461914e+003,4.4870512695e+003,4.4544873047e+003,4.4560258789e+003,4.4769228516e+003,4.4856411133e+003,4.4600000000e+003,4.4708974609e+003,4.4538461914e+003,4.4597436523e+003,4.4669228516e+003,4.4582050781e+003,4.4762822266e+003,4.4514101563e+003,
1.8984375000e+000,4.4619228516e+003,4.4905126953e+003,4.4588461914e+003,4.4666665039e+003,4.4793588867e+003,4.4846152344e+003,4.4611538086e+003,4.4729487305e+003,4.4553847656e+003,4.4675639648e+003,4.4748715820e+003,4.4655126953e+003,4.4841025391e+003,4.4576923828e+003,
1.9062500000e+000,4.3496152344e+003,4.3682050781e+003,4.3569228516e+003,4.3435898438e+003,4.3206411133e+003,4.3628203125e+003,4.3433334961e+003,4.3516665039e+003,4.3467949219e+003,4.3638461914e+003,4.3798715820e+003,4.3594873047e+003,4.3787177734e+003,4.3519228516e+003,
1.9140625000e+000,4.3305126953e+003,4.3438461914e+003,4.3388461914e+003,4.3215385742e+003,4.3064101563e+003,4.3401284180e+003,4.3216665039e+003,4.3274360352e+003,4.3262822266e+003,4.3387177734e+003,4.3605126953e+003,4.3382050781e+003,4.3567949219e+003,4.3315385742e+003,
1.9218750000e+000,4.4164101563e+003,4.4206411133e+003,4.4247436523e+003,4.4241025391e+003,4.4448715820e+003,4.4156411133e+003,4.4010258789e+003,4.4079487305e+003,4.4062822266e+003,4.4184614258e+003,4.4351284180e+003,4.4217949219e+003,4.4426923828e+003,4.4155126953e+003,
1.9296875000e+000,4.4382050781e+003,4.4432050781e+003,4.4456411133e+003,4.4447436523e+003,4.4606411133e+003,4.4337177734e+003,4.4185898438e+003,4.4298715820e+003,4.4287177734e+003,4.4439741211e+003,4.4542309570e+003,4.4450000000e+003,4.4655126953e+003,4.4376923828e+003,
1.9375000000e+000,4.4178203125e+003,4.4217949219e+003,4.4221796875e+003,4.4050000000e+003,4.4057690430e+003,4.4083334961e+003,4.3911538086e+003,4.4058974609e+003,4.4092309570e+003,4.4210258789e+003,4.4300000000e+003,4.4261538086e+003,4.4388461914e+003,4.4165385742e+003,
1.9453125000e+000,4.3988461914e+003,4.3992309570e+003,4.4028203125e+003,4.3778203125e+003,4.3794873047e+003,4.3897436523e+003,4.3723076172e+003,4.3855126953e+003,4.3901284180e+003,4.3961538086e+003,4.4102563477e+003,4.4062822266e+003,4.4138461914e+003,4.3962822266e+003,
1.9531250000e+000,4.3906411133e+003,4.3891025391e+003,4.3953847656e+003,4.3688461914e+003,4.3760258789e+003,4.3847436523e+003,4.3673076172e+003,4.3797436523e+003,4.3833334961e+003,4.3847436523e+003,4.4033334961e+003,4.3962822266e+003,4.4016665039e+003,4.3869228516e+003,
1.9609375000e+000,4.2825639648e+003,4.2946152344e+003,4.2916665039e+003,4.2739741211e+003,4.2821796875e+003,4.3158974609e+003,4.3000000000e+003,4.3175639648e+003,4.2971796875e+003,4.2851284180e+003,4.2987177734e+003,4.2911538086e+003,4.3008974609e+003,4.2861538086e+003,
1.9687500000e+000,4.2589741211e+003,4.2671796875e+003,4.2674360352e+003,4.2492309570e+003,4.2635898438e+003,4.2950000000e+003,4.2791025391e+003,4.2947436523e+003,4.2753847656e+003,4.2611538086e+003,4.2766665039e+003,4.2666665039e+003,4.2729487305e+003,4.2607690430e+003,
1.9765625000e+000,4.2144873047e+003,4.2252563477e+003,4.2175639648e+003,4.2192309570e+003,4.2275639648e+003,4.2497436523e+003,4.2338461914e+003,4.2457690430e+003,4.2312822266e+003,4.2187177734e+003,4.2246152344e+003,4.2143588867e+003,4.2226923828e+003,4.2105126953e+003,
1.9843750000e+000,4.1882050781e+003,4.1973076172e+003,4.1908974609e+003,4.1974360352e+003,4.1887177734e+003,4.2212822266e+003,4.2065385742e+003,4.2152563477e+003,4.2010258789e+003,4.1860258789e+003,4.1885898438e+003,4.1856411133e+003,4.1946152344e+003,4.1832050781e+003,
1.9921875000e+000,4.1400000000e+003,4.1341025391e+003,4.1420512695e+003,4.1473076172e+003,4.1132050781e+003,4.1675639648e+003,4.1548715820e+003,4.1571796875e+003,4.1452563477e+003,4.1235898438e+003,4.1282050781e+003,4.1315385742e+003,4.1403847656e+003,4.1316665039e+003,
2.0000000000e+000,4.2361538086e+003,4.2191025391e+003,4.2326923828e+003,4.2223076172e+003,4.2139741211e+003,4.2307690430e+003,4.2191025391e+003,4.2141025391e+003,4.2114101563e+003,4.2015385742e+003,4.2252563477e+003,4.2178203125e+003,4.2164101563e+003,4.2223076172e+003,
2.0078125000e+000,4.2728203125e+003,4.2612822266e+003,4.2653847656e+003,4.2592309570e+003,4.2501284180e+003,4.2587177734e+003,4.2446152344e+003,4.2420512695e+003,4.2410258789e+003,4.2348715820e+003,4.2610258789e+003,4.2541025391e+003,4.2516665039e+003,4.2579487305e+003,
2.0156250000e+000,4.2742309570e+003,4.2598715820e+003,4.2632050781e+003,4.2564101563e+003,4.2424360352e+003,4.2485898438e+003,4.2293588867e+003,4.2325639648e+003,4.2312822266e+003,4.2289741211e+003,4.2512822266e+003,4.2541025391e+003,4.2508974609e+003,4.2573076172e+003,
2.0234375000e+000,4.2619228516e+003,4.2384614258e+003,4.2516665039e+003,4.2387177734e+003,4.2269228516e+003,4.2306411133e+003,4.2123076172e+003,4.2146152344e+003,4.2123076172e+003,4.2106411133e+003,4.2303847656e+003,4.2397436523e+003,4.2335898438e+003,4.2432050781e+003,
2.0312500000e+000,4.2829487305e+003,4.2480771484e+003,4.2712822266e+003,4.2594873047e+003,4.2344873047e+003,4.2378203125e+003,4.2341025391e+003,4.2293588867e+003,4.2271796875e+003,4.2257690430e+003,4.2517949219e+003,4.2635898438e+003,4.2425639648e+003,4.2612822266e+003,
2.0390625000e+000,4.2893588867e+003,4.2612822266e+003,4.2744873047e+003,4.2676923828e+003,4.2344873047e+003,4.2447436523e+003,4.2444873047e+003,4.2410258789e+003,4.2387177734e+003,4.2361538086e+003,4.2638461914e+003,4.2719228516e+003,4.2528203125e+003,4.2693588867e+003,
2.0468750000e+000,4.3256411133e+003,4.3092309570e+003,4.3082050781e+003,4.2829487305e+003,4.2933334961e+003,4.3026923828e+003,4.2980771484e+003,4.3038461914e+003,4.2979487305e+003,4.2887177734e+003,4.3006411133e+003,4.3019228516e+003,4.3000000000e+003,4.3075639648e+003,
2.0546875000e+000,4.3480771484e+003,4.3280771484e+003,4.3344873047e+003,4.3034614258e+003,4.3264101563e+003,4.3346152344e+003,4.3292309570e+003,4.3348715820e+003,4.3291025391e+003,4.3173076172e+003,4.3264101563e+003,4.3270512695e+003,4.3206411133e+003,4.3317949219e+003,
2.0625000000e+000,4.3884614258e+003,4.3692309570e+003,4.3783334961e+003,4.3600000000e+003,4.3689741211e+003,4.3852563477e+003,4.3835898438e+003,4.3880771484e+003,4.3819228516e+003,4.3674360352e+003,4.3864101563e+003,4.3775639648e+003,4.3637177734e+003,4.3800000000e+003,
2.0703125000e+000,4.4079487305e+003,4.3971796875e+003,4.3944873047e+003,4.3866665039e+003,4.3879487305e+003,4.4051284180e+003,4.4042309570e+003,4.4117949219e+003,4.4032050781e+003,4.3907690430e+003,4.4146152344e+003,4.3973076172e+003,4.3919228516e+003,4.4023076172e+003,
2.0781250000e+000,4.4229487305e+003,4.4229487305e+003,4.4056411133e+003,4.4033334961e+003,4.4065385742e+003,4.4202563477e+003,4.4173076172e+003,4.4301284180e+003,4.4178203125e+003,4.4100000000e+003,4.4325639648e+003,4.4098715820e+003,4.4167949219e+003,4.4183334961e+003,
2.0859375000e+000,4.4217949219e+003,4.4306411133e+003,4.4048715820e+003,4.4012822266e+003,4.4116665039e+003,4.4220512695e+003,4.4150000000e+003,4.4325639648e+003,4.4165385742e+003,4.4138461914e+003,4.4294873047e+003,4.4084614258e+003,4.4216665039e+003,4.4182050781e+003,
2.0937500000e+000,4.2898715820e+003,4.2930771484e+003,4.2901284180e+003,4.2792309570e+003,4.2766665039e+003,4.3014101563e+003,4.2956411133e+003,4.3023076172e+003,4.2874360352e+003,4.2756411133e+003,4.2853847656e+003,4.2824360352e+003,4.2747436523e+003,4.2919228516e+003,
2.1015625000e+000,4.3298715820e+003,4.3348715820e+003,4.3234614258e+003,4.3111538086e+003,4.2917949219e+003,4.3100000000e+003,4.3080771484e+003,4.3148715820e+003,4.2982050781e+003,4.2983334961e+003,4.3053847656e+003,4.3023076172e+003,4.3000000000e+003,4.3153847656e+003,
2.1093750000e+000,4.3225639648e+003,4.3244873047e+003,4.3180771484e+003,4.3021796875e+003,4.2833334961e+003,4.3010258789e+003,4.2965385742e+003,4.3025639648e+003,4.2884614258e+003,4.2898715820e+003,4.2978203125e+003,4.2962822266e+003,4.2893588867e+003,4.3079487305e+003,
2.1171875000e+000,4.3026923828e+003,4.2966665039e+003,4.2974360352e+003,4.2805126953e+003,4.2808974609e+003,4.2797436523e+003,4.2733334961e+003,4.2721796875e+003,4.2655126953e+003,4.2625639648e+003,4.2760258789e+003,4.2762822266e+003,4.2657690430e+003,4.2875639648e+003,
2.1250000000e+000,4.3592309570e+003,4.3657690430e+003,4.3516665039e+003,4.3326923828e+003,4.3270512695e+003,4.3307690430e+003,4.3246152344e+003,4.3173076172e+003,4.3179487305e+003,4.3248715820e+003,4.3398715820e+003,4.3347436523e+003,4.3266665039e+003,4.3388461914e+003,
2.1328125000e+000,4.3296152344e+003,4.3305126953e+003,4.3283334961e+003,4.3012822266e+003,4.2897436523e+003,4.3039741211e+003,4.2975639648e+003,4.2915385742e+003,4.2906411133e+003,4.2950000000e+003,4.3084614258e+003,4.3091025391e+003,4.2982050781e+003,4.3112822266e+003,
2.1406250000e+000,4.2346152344e+003,4.2214101563e+003,4.2407690430e+003,4.2064101563e+003,4.2050000000e+003,4.2161538086e+003,4.2134614258e+003,4.2057690430e+003,4.2028203125e+003,4.1902563477e+003,4.2106411133e+003,4.2194873047e+003,4.1974360352e+003,4.2208974609e+003,
2.1484375000e+000,4.2038461914e+003,4.1907690430e+003,4.2070512695e+003,4.1785898438e+003,4.1869228516e+003,4.1889741211e+003,4.1887177734e+003,4.1811538086e+003,4.1793588867e+003,4.1596152344e+003,4.1858974609e+003,4.1903847656e+003,4.1653847656e+003,4.1933334961e+003,
2.1562500000e+000,4.1317949219e+003,4.1311538086e+003,4.1320512695e+003,4.1153847656e+003,4.1160258789e+003,4.1342309570e+003,4.1389741211e+003,4.1403847656e+003,4.1351284180e+003,4.1132050781e+003,4.1306411133e+003,4.1283334961e+003,4.1158974609e+003,4.1379487305e+003,
2.1640625000e+000,4.1047436523e+003,4.1047436523e+003,4.1084614258e+003,4.0874357910e+003,4.0797436523e+003,4.1133334961e+003,4.1206411133e+003,4.1215385742e+003,4.1130771484e+003,4.0915385742e+003,4.0974360352e+003,4.1020512695e+003,4.0973076172e+003,4.1128203125e+003,
2.1718750000e+000,4.0941025391e+003,4.0950000000e+003,4.0983334961e+003,4.0765385742e+003,4.0648718262e+003,4.1069228516e+003,4.1174360352e+003,4.1151284180e+003,4.1052563477e+003,4.0824357910e+003,4.0802563477e+003,4.0892307129e+003,4.0902563477e+003,4.0994873047e+003,
2.1796875000e+000,4.1097436523e+003,4.1116665039e+003,4.1101284180e+003,4.0938461914e+003,4.0837180176e+003,4.1230771484e+003,4.1361538086e+003,4.1302563477e+003,4.1208974609e+003,4.0953845215e+003,4.0933332520e+003,4.1000000000e+003,4.1026923828e+003,4.1087177734e+003,
2.1875000000e+000,4.3316665039e+003,4.3119228516e+003,4.3182050781e+003,4.3101284180e+003,4.3161538086e+003,4.3206411133e+003,4.3221796875e+003,4.3207690430e+003,4.3073076172e+003,4.2870512695e+003,4.2987177734e+003,4.2938461914e+003,4.2887177734e+003,4.3056411133e+003,
2.1953125000e+000,4.3566665039e+003,4.3378203125e+003,4.3458974609e+003,4.3375639648e+003,4.3421796875e+003,4.3480771484e+003,4.3479487305e+003,4.3479487305e+003,4.3310258789e+003,4.3189741211e+003,4.3215385742e+003,4.3179487305e+003,4.3187177734e+003,4.3337177734e+003,
2.2031250000e+000,4.3864101563e+003,4.3960258789e+003,4.3819228516e+003,4.3744873047e+003,4.3733334961e+003,4.3917949219e+003,4.3914101563e+003,4.3841025391e+003,4.3701284180e+003,4.3694873047e+003,4.3708974609e+003,4.3582050781e+003,4.3619228516e+003,4.3723076172e+003,
2.2109375000e+000,4.5037177734e+003,4.5112822266e+003,4.5017949219e+003,4.4692309570e+003,4.4842309570e+003,4.4910258789e+003,4.4824360352e+003,4.4870512695e+003,4.4757690430e+003,4.4748715820e+003,4.4857690430e+003,4.4762822266e+003,4.4743588867e+003,4.4871796875e+003,
2.2187500000e+000,4.5358974609e+003,4.5421796875e+003,4.5335898438e+003,4.5033334961e+003,4.5273076172e+003,4.5178203125e+003,4.5110258789e+003,4.5175639648e+003,4.5065385742e+003,4.5114101563e+003,4.5202563477e+003,4.5108974609e+003,4.5130771484e+003,4.5224360352e+003,
2.2265625000e+000,4.5644873047e+003,4.5844873047e+003,4.5593588867e+003,4.5517949219e+003,4.5665385742e+003,4.5470512695e+003,4.5419228516e+003,4.5442309570e+003,4.5351284180e+003,4.5617949219e+003,4.5683334961e+003,4.5537177734e+003,4.5651284180e+003,4.5578203125e+003,
2.2343750000e+000,4.5783334961e+003,4.6024360352e+003,4.5828203125e+003,4.5550000000e+003,4.5687177734e+003,4.5666665039e+003,4.5551284180e+003,4.5533334961e+003,4.5441025391e+003,4.5653847656e+003,4.5860258789e+003,4.5752563477e+003,4.5825639648e+003,4.5760258789e+003,
2.2421875000e+000,4.6239741211e+003,4.6473076172e+003,4.6285898438e+003,4.5952563477e+003,4.6284614258e+003,4.6110258789e+003,4.6008974609e+003,4.6005126953e+003,4.5924360352e+003,4.6126923828e+003,4.6358974609e+003,4.6225639648e+003,4.6308974609e+003,4.6230771484e+003,
2.2500000000e+000,4.6685898438e+003,4.6916665039e+003,4.6735898438e+003,4.6378203125e+003,4.6862822266e+003,4.6557690430e+003,4.6476923828e+003,4.6521796875e+003,4.6438461914e+003,4.6651284180e+003,4.6876923828e+003,4.6719228516e+003,4.6803847656e+003,4.6698715820e+003,
2.2578125000e+000,4.6644873047e+003,4.6874360352e+003,4.6801284180e+003,4.6405126953e+003,4.6846152344e+003,4.6626923828e+003,4.6585898438e+003,4.6756411133e+003,4.6607690430e+003,4.6824360352e+003,4.6974360352e+003,4.6861538086e+003,4.6887177734e+003,4.6743588867e+003,
2.2656250000e+000,4.6191025391e+003,4.6434614258e+003,4.6411538086e+003,4.6006411133e+003,4.6355126953e+003,4.6269228516e+003,4.6243588867e+003,4.6443588867e+003,4.6261538086e+003,4.6437177734e+003,4.6556411133e+003,4.6485898438e+003,4.6483334961e+003,4.6332050781e+003,
2.2734375000e+000,4.5291025391e+003,4.5584614258e+003,4.5543588867e+003,4.5173076172e+003,4.5447436523e+003,4.5552563477e+003,4.5519228516e+003,4.5725639648e+003,4.5515385742e+003,4.5575639648e+003,4.5691025391e+003,4.5633334961e+003,4.5634614258e+003,4.5458974609e+003,
2.2812500000e+000,4.4876923828e+003,4.5174360352e+003,4.5121796875e+003,4.4760258789e+003,4.5014101563e+003,4.5201284180e+003,4.5155126953e+003,4.5358974609e+003,4.5130771484e+003,4.5152563477e+003,4.5270512695e+003,4.5226923828e+003,4.5225639648e+003,4.5042309570e+003,
2.2890625000e+000,4.3412822266e+003,4.3679487305e+003,4.3697436523e+003,4.3350000000e+003,4.3441025391e+003,4.3797436523e+003,4.3823076172e+003,4.3943588867e+003,4.3685898438e+003,4.3601284180e+003,4.3653847656e+003,4.3719228516e+003,4.3735898438e+003,4.3546152344e+003,
2.2968750000e+000,4.3215385742e+003,4.3500000000e+003,4.3488461914e+003,4.3207690430e+003,4.3321796875e+003,4.3603847656e+003,4.3646152344e+003,4.3746152344e+003,4.3516665039e+003,4.3379487305e+003,4.3400000000e+003,4.3441025391e+003,4.3526923828e+003,4.3317949219e+003,
2.3046875000e+000,4.3211538086e+003,4.3505126953e+003,4.3453847656e+003,4.3241025391e+003,4.3438461914e+003,4.3601284180e+003,4.3639741211e+003,4.3738461914e+003,4.3542309570e+003,4.3360258789e+003,4.3347436523e+003,4.3353847656e+003,4.3505126953e+003,4.3284614258e+003,
2.3125000000e+000,4.3274360352e+003,4.3492309570e+003,4.3447436523e+003,4.3073076172e+003,4.3287177734e+003,4.3629487305e+003,4.3635898438e+003,4.3570512695e+003,4.3379487305e+003,4.3288461914e+003,4.3337177734e+003,4.3238461914e+003,4.3471796875e+003,4.3300000000e+003,
2.3203125000e+000,4.3943588867e+003,4.4211538086e+003,4.4053847656e+003,4.3698715820e+003,4.3943588867e+003,4.4192309570e+003,4.4192309570e+003,4.4088461914e+003,4.3906411133e+003,4.3882050781e+003,4.4003847656e+003,4.3865385742e+003,4.4105126953e+003,4.3948715820e+003,
2.3281250000e+000,4.4851284180e+003,4.5158974609e+003,4.4920512695e+003,4.4524360352e+003,4.5048715820e+003,4.4761538086e+003,4.4692309570e+003,4.4801284180e+003,4.4596152344e+003,4.4746152344e+003,4.4962822266e+003,4.4905126953e+003,4.5055126953e+003,4.4956411133e+003,
2.3359375000e+000,4.2648715820e+003,4.2715385742e+003,4.2943588867e+003,4.2187177734e+003,4.2632050781e+003,4.2615385742e+003,4.2588461914e+003,4.2548715820e+003,4.2396152344e+003,4.2375639648e+003,4.2615385742e+003,4.2811538086e+003,4.2891025391e+003,4.2828203125e+003,
2.3437500000e+000,4.2767949219e+003,4.2794873047e+003,4.3038461914e+003,4.2291025391e+003,4.2626923828e+003,4.2705126953e+003,4.2684614258e+003,4.2608974609e+003,4.2482050781e+003,4.2414101563e+003,4.2660258789e+003,4.2878203125e+003,4.2950000000e+003,4.2906411133e+003,
2.3515625000e+000,4.2698715820e+003,4.2706411133e+003,4.2844873047e+003,4.2333334961e+003,4.2433334961e+003,4.2508974609e+003,4.2537177734e+003,4.2751284180e+003,4.2573076172e+003,4.2497436523e+003,4.2769228516e+003,4.2850000000e+003,4.2789741211e+003,4.2864101563e+003,
2.3593750000e+000,4.1711538086e+003,4.1682050781e+003,4.1875639648e+003,4.1373076172e+003,4.1492309570e+003,4.1569228516e+003,4.1647436523e+003,4.1901284180e+003,4.1711538086e+003,4.1569228516e+003,4.1834614258e+003,4.1907690430e+003,4.1806411133e+003,4.1916665039e+003,
2.3671875000e+000,3.9924357910e+003,3.9824357910e+003,4.0074357910e+003,3.9535898438e+003,3.9752563477e+003,3.9937180176e+003,4.0067949219e+003,4.0223076172e+003,4.0123076172e+003,3.9750000000e+003,3.9948718262e+003,4.0046154785e+003,4.0016667480e+003,4.0108974609e+003,
2.3750000000e+000,3.9542307129e+003,3.9428205566e+003,3.9642307129e+003,3.9124357910e+003,3.9321794434e+003,3.9620512695e+003,3.9739743652e+003,3.9839743652e+003,3.9801281738e+003,3.9329487305e+003,3.9492307129e+003,3.9596154785e+003,3.9621794434e+003,3.9679487305e+003,
2.3828125000e+000,3.8851281738e+003,3.8623076172e+003,3.8880769043e+003,3.8511538086e+003,3.8584614258e+003,3.9041025391e+003,3.9123076172e+003,3.9182050781e+003,3.9164101563e+003,3.8552563477e+003,3.8621794434e+003,3.8808974609e+003,3.8810256348e+003,3.8911538086e+003,
2.3906250000e+000,3.8576923828e+003,3.8288461914e+003,3.8587180176e+003,3.8273076172e+003,3.8439743652e+003,3.8775642090e+003,3.8867949219e+003,3.8887180176e+003,3.8873076172e+003,3.8223076172e+003,3.8242307129e+003,3.8470512695e+003,3.8464101563e+003,3.8624357910e+003,
2.3984375000e+000,3.8326923828e+003,3.7966667480e+003,3.8207692871e+003,3.8051281738e+003,3.8325642090e+003,3.8496154785e+003,3.8584614258e+003,3.8482050781e+003,3.8541025391e+003,3.7846154785e+003,3.7803845215e+003,3.8046154785e+003,3.8056411133e+003,3.8306411133e+003,
2.4062500000e+000,3.8342307129e+003,3.7948718262e+003,3.8151281738e+003,3.8055129395e+003,3.8229487305e+003,3.8473076172e+003,3.8533332520e+003,3.8385898438e+003,3.8467949219e+003,3.7796154785e+003,3.7780769043e+003,3.7987180176e+003,3.8014101563e+003,3.8271794434e+003,
2.4140625000e+000,3.8883332520e+003,3.8292307129e+003,3.8639743652e+003,3.8465385742e+003,3.8405129395e+003,3.8803845215e+003,3.8820512695e+003,3.8651281738e+003,3.8611538086e+003,3.8103845215e+003,3.8310256348e+003,3.8429487305e+003,3.8453845215e+003,3.8728205566e+003,
2.4218750000e+000,3.9129487305e+003,3.8528205566e+003,3.8871794434e+003,3.8679487305e+003,3.8700000000e+003,3.8958974609e+003,3.9011538086e+003,3.8828205566e+003,3.8762819824e+003,3.8276923828e+003,3.8525642090e+003,3.8687180176e+003,3.8666667480e+003,3.9010256348e+003,
2.4296875000e+000,3.9351281738e+003,3.8800000000e+003,3.9047436523e+003,3.8892307129e+003,3.8983332520e+003,3.9087180176e+003,3.9185898438e+003,3.8973076172e+003,3.8919230957e+003,3.8446154785e+003,3.8706411133e+003,3.8925642090e+003,3.8865385742e+003,3.9287180176e+003,
2.4375000000e+000,3.9491025391e+003,3.8825642090e+003,3.9134614258e+003,3.8891025391e+003,3.8371794434e+003,3.8711538086e+003,3.8920512695e+003,3.8932050781e+003,3.8800000000e+003,3.8658974609e+003,3.8911538086e+003,3.9225642090e+003,3.9114101563e+003,3.9546154785e+003,
2.4453125000e+000,3.9253845215e+003,3.8482050781e+003,3.8905129395e+003,3.8526923828e+003,3.8019230957e+003,3.8379487305e+003,3.8637180176e+003,3.8667949219e+003,3.8547436523e+003,3.8401281738e+003,3.8707692871e+003,3.9011538086e+003,3.8856411133e+003,3.9302563477e+003,
2.4531250000e+000,3.9339743652e+003,3.8525642090e+003,3.8862819824e+003,3.8507692871e+003,3.8491025391e+003,3.8479487305e+003,3.8764101563e+003,3.8760256348e+003,3.8829487305e+003,3.8525642090e+003,3.8855129395e+003,3.9079487305e+003,3.8973076172e+003,3.9385898438e+003,
2.4609375000e+000,3.9793588867e+003,3.8955129395e+003,3.9347436523e+003,3.9017949219e+003,3.9121794434e+003,3.9200000000e+003,3.9387180176e+003,3.9433332520e+003,3.9537180176e+003,3.9129487305e+003,3.9296154785e+003,3.9537180176e+003,3.9403845215e+003,3.9819230957e+003,
2.4687500000e+000,3.9756411133e+003,3.8926923828e+003,3.9273076172e+003,3.8975642090e+003,3.9011538086e+003,3.9270512695e+003,3.9416667480e+003,3.9452563477e+003,3.9556411133e+003,3.9129487305e+003,3.9261538086e+003,3.9457692871e+003,3.9357692871e+003,3.9734614258e+003,
2.4765625000e+000,3.9007692871e+003,3.8225642090e+003,3.8474357910e+003,3.8258974609e+003,3.8289743652e+003,3.8711538086e+003,3.8808974609e+003,3.8841025391e+003,3.8871794434e+003,3.8367949219e+003,3.8402563477e+003,3.8638461914e+003,3.8633332520e+003,3.8900000000e+003,
2.4843750000e+000,3.8856411133e+003,3.8056411133e+003,3.8329487305e+003,3.8130769043e+003,3.8244870605e+003,3.8551281738e+003,3.8651281738e+003,3.8706411133e+003,3.8717949219e+003,3.8191025391e+003,3.8224357910e+003,3.8475642090e+003,3.8441025391e+003,3.8733332520e+003,
2.4921875000e+000,3.8860256348e+003,3.8014101563e+003,3.8294870605e+003,3.8171794434e+003,3.8280769043e+003,3.8548718262e+003,3.8623076172e+003,3.8641025391e+003,3.8688461914e+003,3.8152563477e+003,3.8242307129e+003,3.8405129395e+003,3.8355129395e+003,3.8685898438e+003,
2.5000000000e+000,3.9052563477e+003,3.8203845215e+003,3.8455129395e+003,3.8370512695e+003,3.8328205566e+003,3.8746154785e+003,3.8803845215e+003,3.8750000000e+003,3.8828205566e+003,3.8305129395e+003,3.8423076172e+003,3.8534614258e+003,3.8543588867e+003,3.8846154785e+003,
2.5078125000e+000,4.0711538086e+003,4.0019230957e+003,4.0116667480e+003,3.9978205566e+003,3.9721794434e+003,4.0212819824e+003,4.0269230957e+003,4.0170512695e+003,4.0229487305e+003,3.9850000000e+003,3.9943588867e+003,4.0112819824e+003,4.0238461914e+003,4.0428205566e+003,
2.5156250000e+000,4.1228203125e+003,4.0561538086e+003,4.0670512695e+003,4.0446154785e+003,4.0360256348e+003,4.0598718262e+003,4.0676923828e+003,4.0610256348e+003,4.0643588867e+003,4.0344870605e+003,4.0435898438e+003,4.0657692871e+003,4.0697436523e+003,4.0915385742e+003,
2.5234375000e+000,4.1692309570e+003,4.0920512695e+003,4.1173076172e+003,4.0832050781e+003,4.1035898438e+003,4.0816667480e+003,4.0952563477e+003,4.0867949219e+003,4.0857692871e+003,4.0698718262e+003,4.0856411133e+003,4.1129487305e+003,4.1003847656e+003,4.1305126953e+003,
2.5312500000e+000,4.1793588867e+003,4.0960258789e+003,4.1248715820e+003,4.0929487305e+003,4.1084614258e+003,4.0828205566e+003,4.0987177734e+003,4.0887180176e+003,4.0843588867e+003,4.0741025391e+003,4.0941025391e+003,4.1203847656e+003,4.1083334961e+003,4.1388461914e+003,
2.5390625000e+000,4.1942309570e+003,4.1165385742e+003,4.1365385742e+003,4.1115385742e+003,4.0783332520e+003,4.0900000000e+003,4.1123076172e+003,4.1044873047e+003,4.0939743652e+003,4.0920512695e+003,4.1216665039e+003,4.1434614258e+003,4.1317949219e+003,4.1611538086e+003,
2.5468750000e+000,4.1979487305e+003,4.1225639648e+003,4.1434614258e+003,4.1156411133e+003,4.0866667480e+003,4.0939743652e+003,4.1179487305e+003,4.1096152344e+003,4.1030771484e+003,4.1000000000e+003,4.1316665039e+003,4.1517949219e+003,4.1350000000e+003,4.1670512695e+003,
2.5546875000e+000,4.2065385742e+003,4.1325639648e+003,4.1544873047e+003,4.1262822266e+003,4.1108974609e+003,4.1025639648e+003,4.1267949219e+003,4.1193588867e+003,4.1183334961e+003,4.1135898438e+003,4.1446152344e+003,4.1620512695e+003,4.1432050781e+003,4.1762822266e+003,
2.5625000000e+000,4.2162822266e+003,4.1443588867e+003,4.1650000000e+003,4.1407690430e+003,4.1337177734e+003,4.1128203125e+003,4.1362822266e+003,4.1325639648e+003,4.1353847656e+003,4.1289741211e+003,4.1562822266e+003,4.1712822266e+003,4.1546152344e+003,4.1860258789e+003,
2.5703125000e+000,4.1952563477e+003,4.1303847656e+003,4.1484614258e+003,4.1330771484e+003,4.0812819824e+003,4.1160258789e+003,4.1350000000e+003,4.1352563477e+003,4.1335898438e+003,4.1200000000e+003,4.1356411133e+003,4.1553847656e+003,4.1433334961e+003,4.1720512695e+003,
2.5781250000e+000,4.2429487305e+003,4.1829487305e+003,4.2052563477e+003,4.1853847656e+003,4.2191025391e+003,4.1992309570e+003,4.2020512695e+003,4.2014101563e+003,4.1982050781e+003,4.1782050781e+003,4.1925639648e+003,4.2124360352e+003,4.1951284180e+003,4.2217949219e+003,
2.5859375000e+000,4.2496152344e+003,4.1962822266e+003,4.2132050781e+003,4.1996152344e+003,4.2225639648e+003,4.2105126953e+003,4.2120512695e+003,4.2132050781e+003,4.2106411133e+003,4.1916665039e+003,4.2025639648e+003,4.2200000000e+003,4.2066665039e+003,4.2266665039e+003,
2.5937500000e+000,4.2371796875e+003,4.1910258789e+003,4.2014101563e+003,4.1888461914e+003,4.1889741211e+003,4.2062822266e+003,4.2114101563e+003,4.2096152344e+003,4.2076923828e+003,4.1915385742e+003,4.1941025391e+003,4.2067949219e+003,4.2044873047e+003,4.2112822266e+003,
2.6015625000e+000,4.2212822266e+003,4.1738461914e+003,4.1860258789e+003,4.1685898438e+003,4.1734614258e+003,4.1946152344e+003,4.2017949219e+003,4.1961538086e+003,4.1935898438e+003,4.1761538086e+003,4.1775639648e+003,4.1896152344e+003,4.1893588867e+003,4.1943588867e+003,
2.6093750000e+000,4.1941025391e+003,4.1442309570e+003,4.1610258789e+003,4.1364101563e+003,4.1502563477e+003,4.1728203125e+003,4.1778203125e+003,4.1667949219e+003,4.1666665039e+003,4.1420512695e+003,4.1458974609e+003,4.1574360352e+003,4.1502563477e+003,4.1629487305e+003,
2.6171875000e+000,4.0810256348e+003,4.0262819824e+003,4.0567949219e+003,4.0192307129e+003,4.0192307129e+003,4.0562819824e+003,4.0630769043e+003,4.0538461914e+003,4.0448718262e+003,4.0223076172e+003,4.0253845215e+003,4.0498718262e+003,4.0367949219e+003,4.0580769043e+003,
2.6250000000e+000,4.0326923828e+003,3.9750000000e+003,4.0084614258e+003,3.9729487305e+003,3.9843588867e+003,4.0056411133e+003,4.0155129395e+003,4.0024357910e+003,3.9903845215e+003,3.9666667480e+003,3.9748718262e+003,4.0038461914e+003,3.9893588867e+003,4.0129487305e+003,
2.6328125000e+000,3.9938461914e+003,3.9397436523e+003,3.9657692871e+003,3.9542307129e+003,3.9743588867e+003,3.9541025391e+003,3.9678205566e+003,3.9501281738e+003,3.9448718262e+003,3.9203845215e+003,3.9442307129e+003,3.9693588867e+003,3.9482050781e+003,3.9792307129e+003,
2.6406250000e+000,3.9785898438e+003,3.9248718262e+003,3.9517949219e+003,3.9391025391e+003,3.9471794434e+003,3.9317949219e+003,3.9455129395e+003,3.9323076172e+003,3.9307692871e+003,3.9096154785e+003,3.9328205566e+003,3.9541025391e+003,3.9332050781e+003,3.9648718262e+003,
2.6484375000e+000,3.9385898438e+003,3.8788461914e+003,3.9106411133e+003,3.8897436523e+003,3.8755129395e+003,3.8767949219e+003,3.8933332520e+003,3.8875642090e+003,3.8919230957e+003,3.8737180176e+003,3.8941025391e+003,3.9092307129e+003,3.8962819824e+003,3.9223076172e+003,
2.6562500000e+000,3.9450000000e+003,3.8794870605e+003,3.9130769043e+003,3.8933332520e+003,3.8734614258e+003,3.8770512695e+003,3.8970512695e+003,3.8908974609e+003,3.8973076172e+003,3.8775642090e+003,3.8967949219e+003,3.9129487305e+003,3.9032050781e+003,3.9251281738e+003,
2.6640625000e+000,4.0042307129e+003,3.9273076172e+003,3.9679487305e+003,3.9576923828e+003,3.9224357910e+003,3.9383332520e+003,3.9671794434e+003,3.9553845215e+003,3.9593588867e+003,3.9370512695e+003,3.9423076172e+003,3.9742307129e+003,3.9588461914e+003,3.9811538086e+003,
2.6718750000e+000,3.9902563477e+003,3.9151281738e+003,3.9543588867e+003,3.9455129395e+003,3.9110256348e+003,3.9339743652e+003,3.9605129395e+003,3.9498718262e+003,3.9524357910e+003,3.9284614258e+003,3.9302563477e+003,3.9602563477e+003,3.9452563477e+003,3.9679487305e+003,
2.6796875000e+000,3.9678205566e+003,3.8965385742e+003,3.9311538086e+003,3.9239743652e+003,3.8991025391e+003,3.9233332520e+003,3.9457692871e+003,3.9360256348e+003,3.9389743652e+003,3.9107692871e+003,3.9134614258e+003,3.9361538086e+003,3.9241025391e+003,3.9450000000e+003,
2.6875000000e+000,3.9550000000e+003,3.8882050781e+003,3.9166667480e+003,3.9110256348e+003,3.9019230957e+003,3.9210256348e+003,3.9401281738e+003,3.9300000000e+003,3.9346154785e+003,3.9005129395e+003,3.9061538086e+003,3.9208974609e+003,3.9120512695e+003,3.9302563477e+003,
2.6953125000e+000,3.9007692871e+003,3.8297436523e+003,3.8575642090e+003,3.8547436523e+003,3.8500000000e+003,3.8784614258e+003,3.8967949219e+003,3.8969230957e+003,3.8985898438e+003,3.8532050781e+003,3.8400000000e+003,3.8601281738e+003,3.8496154785e+003,3.8658974609e+003,
2.7031250000e+000,4.0023076172e+003,3.9232050781e+003,3.9502563477e+003,3.9602563477e+003,3.9634614258e+003,3.9726923828e+003,3.9885898438e+003,3.9714101563e+003,3.9820512695e+003,3.9367949219e+003,3.9347436523e+003,3.9391025391e+003,3.9458974609e+003,3.9557692871e+003,
2.7109375000e+000,4.0684614258e+003,3.9907692871e+003,4.0135898438e+003,4.0208974609e+003,4.0292307129e+003,4.0325642090e+003,4.0448718262e+003,4.0333332520e+003,4.0441025391e+003,4.0073076172e+003,3.9994870605e+003,4.0051281738e+003,4.0126923828e+003,4.0201281738e+003,
2.7187500000e+000,3.9976923828e+003,3.9230769043e+003,3.9408974609e+003,3.9538461914e+003,3.9303845215e+003,3.9607692871e+003,3.9691025391e+003,3.9623076172e+003,3.9691025391e+003,3.9420512695e+003,3.9267949219e+003,3.9439743652e+003,3.9357692871e+003,3.9530769043e+003,
2.7265625000e+000,4.0057692871e+003,3.9370512695e+003,3.9478205566e+003,3.9692307129e+003,3.9512819824e+003,3.9547436523e+003,3.9702563477e+003,3.9462819824e+003,3.9469230957e+003,3.9216667480e+003,3.9270512695e+003,3.9332050781e+003,3.9391025391e+003,3.9502563477e+003,
2.7343750000e+000,4.0655129395e+003,3.9946154785e+003,4.0108974609e+003,4.0246154785e+003,4.0148718262e+003,4.0073076172e+003,4.0226923828e+003,4.0056411133e+003,4.0050000000e+003,3.9852563477e+003,3.9884614258e+003,3.9935898438e+003,4.0053845215e+003,4.0088461914e+003,
2.7421875000e+000,4.0998715820e+003,4.0241025391e+003,4.0469230957e+003,4.0596154785e+003,4.0317949219e+003,4.0319230957e+003,4.0475642090e+003,4.0396154785e+003,4.0389743652e+003,4.0270512695e+003,4.0288461914e+003,4.0355129395e+003,4.0426923828e+003,4.0441025391e+003,
2.7500000000e+000,4.1110258789e+003,4.0356411133e+003,4.0546154785e+003,4.0734614258e+003,4.0302563477e+003,4.0370512695e+003,4.0552563477e+003,4.0455129395e+003,4.0465385742e+003,4.0371794434e+003,4.0407692871e+003,4.0476923828e+003,4.0516667480e+003,4.0547436523e+003,
2.7578125000e+000,4.2551284180e+003,4.1850000000e+003,4.1933334961e+003,4.2167949219e+003,4.1630771484e+003,4.1608974609e+003,4.1847436523e+003,4.1729487305e+003,4.1817949219e+003,4.1785898438e+003,4.1855126953e+003,4.1917949219e+003,4.1951284180e+003,4.1960258789e+003,
2.7656250000e+000,4.2742309570e+003,4.2051284180e+003,4.2143588867e+003,4.2337177734e+003,4.1880771484e+003,4.1819228516e+003,4.2037177734e+003,4.1967949219e+003,4.2062822266e+003,4.2048715820e+003,4.2115385742e+003,4.2144873047e+003,4.2152563477e+003,4.2156411133e+003,
2.7734375000e+000,4.1853847656e+003,4.1152563477e+003,4.1305126953e+003,4.1407690430e+003,4.1182050781e+003,4.1106411133e+003,4.1276923828e+003,4.1257690430e+003,4.1296152344e+003,4.1306411133e+003,4.1355126953e+003,4.1338461914e+003,4.1258974609e+003,4.1302563477e+003,
2.7812500000e+000,4.1252563477e+003,4.0528205566e+003,4.0729487305e+003,4.0775642090e+003,4.0673076172e+003,4.0594870605e+003,4.0756411133e+003,4.0714101563e+003,4.0715385742e+003,4.0711538086e+003,4.0750000000e+003,4.0758974609e+003,4.0657692871e+003,4.0725642090e+003,
2.7890625000e+000,4.1333334961e+003,4.0671794434e+003,4.0838461914e+003,4.0826923828e+003,4.0661538086e+003,4.0871794434e+003,4.0978203125e+003,4.0930769043e+003,4.0926923828e+003,4.0793588867e+003,4.0814101563e+003,4.0846154785e+003,4.0839743652e+003,4.0878205566e+003,
2.7968750000e+000,4.1528203125e+003,4.0930769043e+003,4.1026923828e+003,4.1070512695e+003,4.0798718262e+003,4.1141025391e+003,4.1221796875e+003,4.1210258789e+003,4.1216665039e+003,4.1057690430e+003,4.1048715820e+003,4.1061538086e+003,4.1055126953e+003,4.1091025391e+003,
2.8046875000e+000,4.1528203125e+003,4.0987177734e+003,4.1030771484e+003,4.1132050781e+003,4.0839743652e+003,4.1207690430e+003,4.1285898438e+003,4.1289741211e+003,4.1294873047e+003,4.1133334961e+003,4.1079487305e+003,4.1098715820e+003,4.1064101563e+003,4.1105126953e+003,
2.8125000000e+000,4.1452563477e+003,4.0948718262e+003,4.0965385742e+003,4.1087177734e+003,4.0896154785e+003,4.1173076172e+003,4.1264101563e+003,4.1253847656e+003,4.1252563477e+003,4.1107690430e+003,4.1006411133e+003,4.1051284180e+003,4.0992309570e+003,4.1030771484e+003,
2.8203125000e+000,4.2365385742e+003,4.2038461914e+003,4.1829487305e+003,4.1824360352e+003,4.2048715820e+003,4.2055126953e+003,4.2066665039e+003,4.2056411133e+003,4.2051284180e+003,4.2058974609e+003,4.1908974609e+003,4.1858974609e+003,4.1935898438e+003,4.1942309570e+003,
2.8281250000e+000,4.2639741211e+003,4.2338461914e+003,4.2089741211e+003,4.2061538086e+003,4.2252563477e+003,4.2267949219e+003,4.2261538086e+003,4.2252563477e+003,4.2248715820e+003,4.2306411133e+003,4.2175639648e+003,4.2110258789e+003,4.2188461914e+003,4.2212822266e+003,
2.8359375000e+000,4.2778203125e+003,4.2357690430e+003,4.2248715820e+003,4.2220512695e+003,4.2197436523e+003,4.2170512695e+003,4.2182050781e+003,4.2158974609e+003,4.2207690430e+003,4.2283334961e+003,4.2270512695e+003,4.2229487305e+003,4.2317949219e+003,4.2307690430e+003,
2.8437500000e+000,4.0803845215e+003,4.0415385742e+003,4.0374357910e+003,4.0341025391e+003,4.0434614258e+003,4.0311538086e+003,4.0329487305e+003,4.0307692871e+003,4.0355129395e+003,4.0356411133e+003,4.0388461914e+003,4.0367949219e+003,4.0417949219e+003,4.0450000000e+003,
2.8515625000e+000,4.0216667480e+003,3.9801281738e+003,3.9788461914e+003,3.9730769043e+003,3.9842307129e+003,3.9721794434e+003,3.9770512695e+003,3.9710256348e+003,3.9761538086e+003,3.9767949219e+003,3.9758974609e+003,3.9806411133e+003,3.9821794434e+003,3.9867949219e+003,
2.8593750000e+000,3.9550000000e+003,3.8844870605e+003,3.9128205566e+003,3.9114101563e+003,3.8758974609e+003,3.8857692871e+003,3.9030769043e+003,3.8853845215e+003,3.8942307129e+003,3.8869230957e+003,3.8903845215e+003,3.9115385742e+003,3.9058974609e+003,3.9108974609e+003,
2.8671875000e+000,3.9593588867e+003,3.8815385742e+003,3.9079487305e+003,3.9097436523e+003,3.8896154785e+003,3.8779487305e+003,3.9015385742e+003,3.8946154785e+003,3.9048718262e+003,3.8914101563e+003,3.9051281738e+003,3.9166667480e+003,3.9133332520e+003,3.9161538086e+003,
2.8750000000e+000,3.9553845215e+003,3.8750000000e+003,3.9033332520e+003,3.9007692871e+003,3.8852563477e+003,3.8726923828e+003,3.8988461914e+003,3.8942307129e+003,3.9057692871e+003,3.8914101563e+003,3.8998718262e+003,3.9174357910e+003,3.9096154785e+003,3.9143588867e+003,
2.8828125000e+000,3.9535898438e+003,3.8691025391e+003,3.9029487305e+003,3.8971794434e+003,3.8756411133e+003,3.8715385742e+003,3.8984614258e+003,3.8933332520e+003,3.9061538086e+003,3.8897436523e+003,3.8924357910e+003,3.9175642090e+003,3.9064101563e+003,3.9128205566e+003,
2.8906250000e+000,3.9669230957e+003,3.8846154785e+003,3.9183332520e+003,3.9193588867e+003,3.8853845215e+003,3.8998718262e+003,3.9183332520e+003,3.9112819824e+003,3.9237180176e+003,3.9017949219e+003,3.9024357910e+003,3.9255129395e+003,3.9230769043e+003,3.9243588867e+003,
2.8984375000e+000,3.9378205566e+003,3.8732050781e+003,3.8884614258e+003,3.9005129395e+003,3.8734614258e+003,3.9043588867e+003,3.9135898438e+003,3.9080769043e+003,3.9114101563e+003,3.8879487305e+003,3.8914101563e+003,3.9005129395e+003,3.9116667480e+003,3.8966667480e+003,
2.9062500000e+000,3.9128205566e+003,3.8453845215e+003,3.8611538086e+003,3.8765385742e+003,3.8387180176e+003,3.8803845215e+003,3.8903845215e+003,3.8842307129e+003,3.8871794434e+003,3.8639743652e+003,3.8625642090e+003,3.8739743652e+003,3.8855129395e+003,3.8678205566e+003,
2.9140625000e+000,3.8901281738e+003,3.8193588867e+003,3.8355129395e+003,3.8562819824e+003,3.8087180176e+003,3.8552563477e+003,3.8653845215e+003,3.8584614258e+003,3.8629487305e+003,3.8397436523e+003,3.8320512695e+003,3.8461538086e+003,3.8594870605e+003,3.8387180176e+003,
2.9218750000e+000,3.8657692871e+003,3.7942307129e+003,3.8089743652e+003,3.8365385742e+003,3.8028205566e+003,3.8269230957e+003,3.8361538086e+003,3.8244870605e+003,3.8315385742e+003,3.8083332520e+003,3.7955129395e+003,3.8134614258e+003,3.8302563477e+003,3.8025642090e+003,
2.9296875000e+000,3.8694870605e+003,3.7984614258e+003,3.8134614258e+003,3.8394870605e+003,3.8233332520e+003,3.8298718262e+003,3.8389743652e+003,3.8234614258e+003,3.8308974609e+003,3.8078205566e+003,3.7982050781e+003,3.8175642090e+003,3.8323076172e+003,3.8038461914e+003,
2.9375000000e+000,3.8841025391e+003,3.8124357910e+003,3.8273076172e+003,3.8516667480e+003,3.8475642090e+003,3.8433332520e+003,3.8519230957e+003,3.8333332520e+003,3.8419230957e+003,3.8192307129e+003,3.8141025391e+003,3.8333332520e+003,3.8446154785e+003,3.8182050781e+003,
2.9453125000e+000,3.9971794434e+003,3.9291025391e+003,3.9357692871e+003,3.9758974609e+003,3.9384614258e+003,3.9426923828e+003,3.9428205566e+003,3.9288461914e+003,3.9367949219e+003,3.9301281738e+003,3.9270512695e+003,3.9420512695e+003,3.9626923828e+003,3.9308974609e+003,
2.9531250000e+000,4.0462819824e+003,3.9841025391e+003,3.9861538086e+003,4.0238461914e+003,3.9914101563e+003,3.9865385742e+003,3.9864101563e+003,3.9743588867e+003,3.9811538086e+003,3.9803845215e+003,3.9753845215e+003,3.9923076172e+003,4.0119230957e+003,3.9806411133e+003,
2.9609375000e+000,4.1230771484e+003,4.0606411133e+003,4.0652563477e+003,4.0916667480e+003,4.0605129395e+003,4.0465385742e+003,4.0479487305e+003,4.0419230957e+003,4.0569230957e+003,4.0623076172e+003,4.0569230957e+003,4.0764101563e+003,4.0810256348e+003,4.0598718262e+003,
2.9687500000e+000,4.0617949219e+003,3.9950000000e+003,4.0150000000e+003,4.0375642090e+003,3.9632050781e+003,3.9903845215e+003,3.9969230957e+003,3.9888461914e+003,4.0050000000e+003,4.0087180176e+003,4.0167949219e+003,4.0287180176e+003,4.0289743652e+003,4.0051281738e+003,
2.9765625000e+000,4.0543588867e+003,3.9879487305e+003,4.0074357910e+003,4.0330769043e+003,3.9635898438e+003,3.9891025391e+003,3.9966667480e+003,3.9852563477e+003,4.0015385742e+003,4.0044870605e+003,4.0124357910e+003,4.0229487305e+003,4.0232050781e+003,3.9985898438e+003,
2.9843750000e+000,4.0269230957e+003,3.9626923828e+003,3.9734614258e+003,4.0066667480e+003,3.9980769043e+003,3.9735898438e+003,3.9910256348e+003,3.9706411133e+003,3.9883332520e+003,3.9833332520e+003,3.9775642090e+003,3.9921794434e+003,3.9975642090e+003,3.9662819824e+003,
2.9921875000e+000,4.0051281738e+003,3.9433332520e+003,3.9526923828e+003,3.9810256348e+003,3.9778205566e+003,3.9542307129e+003,3.9742307129e+003,3.9543588867e+003,3.9700000000e+003,3.9612819824e+003,3.9535898438e+003,3.9714101563e+003,3.9778205566e+003,3.9441025391e+003,
3.0000000000e+000,3.9793588867e+003,3.9214101563e+003,3.9338461914e+003,3.9469230957e+003,3.9289743652e+003,3.9373076172e+003,3.9573076172e+003,3.9380769043e+003,3.9453845215e+003,3.9319230957e+003,3.9251281738e+003,3.9516667480e+003,3.9521794434e+003,3.9225642090e+003,
3.0078125000e+000,3.9888461914e+003,3.9301281738e+003,3.9458974609e+003,3.9550000000e+003,3.9329487305e+003,3.9521794434e+003,3.9706411133e+003,3.9508974609e+003,3.9546154785e+003,3.9400000000e+003,3.9333332520e+003,3.9619230957e+003,3.9593588867e+003,3.9332050781e+003,
3.0156250000e+000,3.9985898438e+003,3.9334614258e+003,3.9550000000e+003,3.9739743652e+003,3.9603845215e+003,3.9766667480e+003,3.9867949219e+003,3.9744870605e+003,3.9760256348e+003,3.9560256348e+003,3.9497436523e+003,3.9650000000e+003,3.9651281738e+003,3.9353845215e+003,
3.0234375000e+000,3.9770512695e+003,3.9148718262e+003,3.9333332520e+003,3.9535898438e+003,3.9403845215e+003,3.9611538086e+003,3.9678205566e+003,3.9588461914e+003,3.9602563477e+003,3.9387180176e+003,3.9321794434e+003,3.9439743652e+003,3.9452563477e+003,3.9135898438e+003,
3.0312500000e+000,3.9716667480e+003,3.9188461914e+003,3.9253845215e+003,3.9432050781e+003,3.9341025391e+003,3.9642307129e+003,3.9670512695e+003,3.9607692871e+003,3.9626923828e+003,3.9408974609e+003,3.9300000000e+003,3.9400000000e+003,3.9470512695e+003,3.9120512695e+003,
3.0390625000e+000,3.9935898438e+003,3.9430769043e+003,3.9448718262e+003,3.9638461914e+003,3.9565385742e+003,3.9873076172e+003,3.9900000000e+003,3.9844870605e+003,3.9870512695e+003,3.9665385742e+003,3.9544870605e+003,3.9621794434e+003,3.9715385742e+003,3.9356411133e+003,
3.0468750000e+000,4.0241025391e+003,3.9717949219e+003,3.9758974609e+003,3.9950000000e+003,3.9939743652e+003,4.0132050781e+003,4.0141025391e+003,4.0078205566e+003,4.0111538086e+003,4.0003845215e+003,3.9937180176e+003,3.9951281738e+003,3.9969230957e+003,3.9658974609e+003,
3.0546875000e+000,4.0308974609e+003,3.9793588867e+003,3.9844870605e+003,3.9993588867e+003,4.0094870605e+003,4.0141025391e+003,4.0141025391e+003,4.0067949219e+003,4.0106411133e+003,4.0051281738e+003,3.9946154785e+003,4.0003845215e+003,4.0038461914e+003,3.9714101563e+003,
3.0625000000e+000,4.0498718262e+003,3.9992307129e+003,4.0047436523e+003,4.0180769043e+003,4.0375642090e+003,4.0244870605e+003,4.0247436523e+003,4.0183332520e+003,4.0233332520e+003,4.0226923828e+003,4.0058974609e+003,4.0173076172e+003,4.0257692871e+003,3.9902563477e+003,
3.0703125000e+000,4.0150000000e+003,3.9741025391e+003,3.9657692871e+003,3.9844870605e+003,3.9738461914e+003,3.9694870605e+003,3.9726923828e+003,3.9762819824e+003,3.9911538086e+003,3.9847436523e+003,3.9858974609e+003,3.9779487305e+003,3.9853845215e+003,3.9580769043e+003,
3.0781250000e+000,3.9620512695e+003,3.9225642090e+003,3.9152563477e+003,3.9303845215e+003,3.9234614258e+003,3.9216667480e+003,3.9241025391e+003,3.9220512695e+003,3.9398718262e+003,3.9308974609e+003,3.9253845215e+003,3.9234614258e+003,3.9287180176e+003,3.9026923828e+003,
3.0859375000e+000,3.8788461914e+003,3.8185898438e+003,3.8364101563e+003,3.8796154785e+003,3.8428205566e+003,3.8498718262e+003,3.8598718262e+003,3.8352563477e+003,3.8612819824e+003,3.8379487305e+003,3.8264101563e+003,3.8460256348e+003,3.8360256348e+003,3.8185898438e+003,
3.0937500000e+000,3.8697436523e+003,3.8097436523e+003,3.8293588867e+003,3.8708974609e+003,3.8144870605e+003,3.8583332520e+003,3.8693588867e+003,3.8460256348e+003,3.8661538086e+003,3.8416667480e+003,3.8352563477e+003,3.8476923828e+003,3.8387180176e+003,3.8153845215e+003,
3.1015625000e+000,3.8617949219e+003,3.8035898438e+003,3.8225642090e+003,3.8539743652e+003,3.8124357910e+003,3.8489743652e+003,3.8625642090e+003,3.8396154785e+003,3.8547436523e+003,3.8334614258e+003,3.8210256348e+003,3.8415385742e+003,3.8314101563e+003,3.8078205566e+003,
3.1093750000e+000,3.8846154785e+003,3.8251281738e+003,3.8410256348e+003,3.8867949219e+003,3.8698718262e+003,3.8623076172e+003,3.8812819824e+003,3.8624357910e+003,3.8676923828e+003,3.8521794434e+003,3.8470512695e+003,3.8610256348e+003,3.8573076172e+003,3.8284614258e+003,
3.1171875000e+000,3.8879487305e+003,3.8314101563e+003,3.8441025391e+003,3.8987180176e+003,3.8771794434e+003,3.8697436523e+003,3.8871794434e+003,3.8716667480e+003,3.8751281738e+003,3.8587180176e+003,3.8591025391e+003,3.8651281738e+003,3.8669230957e+003,3.8337180176e+003,
3.1250000000e+000,3.8847436523e+003,3.8338461914e+003,3.8388461914e+003,3.8989743652e+003,3.8661538086e+003,3.8732050781e+003,3.8861538086e+003,3.8739743652e+003,3.8780769043e+003,3.8589743652e+003,3.8524357910e+003,3.8587180176e+003,3.8674357910e+003,3.8330769043e+003,
3.1328125000e+000,3.8933332520e+003,3.8421794434e+003,3.8432050781e+003,3.9035898438e+003,3.8703845215e+003,3.8810256348e+003,3.8917949219e+003,3.8792307129e+003,3.8848718262e+003,3.8662819824e+003,3.8528205566e+003,3.8621794434e+003,3.8716667480e+003,3.8396154785e+003,
3.1406250000e+000,3.9533332520e+003,3.9021794434e+003,3.9012819824e+003,3.9519230957e+003,3.9385898438e+003,3.9398718262e+003,3.9474357910e+003,3.9312819824e+003,3.9382050781e+003,3.9237180176e+003,3.9067949219e+003,3.9162819824e+003,3.9242307129e+003,3.8951281738e+003,
3.1484375000e+000,3.9747436523e+003,3.9276923828e+003,3.9252563477e+003,3.9716667480e+003,3.9558974609e+003,3.9616667480e+003,3.9682050781e+003,3.9539743652e+003,3.9611538086e+003,3.9485898438e+003,3.9296154785e+003,3.9383332520e+003,3.9479487305e+003,3.9174357910e+003,
3.1562500000e+000,3.9903845215e+003,3.9514101563e+003,3.9388461914e+003,3.9873076172e+003,3.9494870605e+003,3.9743588867e+003,3.9778205566e+003,3.9715385742e+003,3.9787180176e+003,3.9721794434e+003,3.9457692871e+003,3.9533332520e+003,3.9666667480e+003,3.9351281738e+003,
3.1640625000e+000,3.9861538086e+003,3.9474357910e+003,3.9319230957e+003,3.9829487305e+003,3.9414101563e+003,3.9680769043e+003,3.9705129395e+003,3.9643588867e+003,3.9721794434e+003,3.9676923828e+003,3.9417949219e+003,3.9484614258e+003,3.9621794434e+003,3.9319230957e+003,
3.1718750000e+000,4.0667949219e+003,4.0291025391e+003,4.0094870605e+003,4.0537180176e+003,4.0587180176e+003,4.0420512695e+003,4.0443588867e+003,4.0278205566e+003,4.0416667480e+003,4.0415385742e+003,4.0271794434e+003,4.0267949219e+003,4.0442307129e+003,4.0085898438e+003,
3.1796875000e+000,4.1121796875e+003,4.0775642090e+003,4.0558974609e+003,4.0955129395e+003,4.1102563477e+003,4.0830769043e+003,4.0862819824e+003,4.0706411133e+003,4.0842307129e+003,4.0885898438e+003,4.0733332520e+003,4.0729487305e+003,4.0893588867e+003,4.0523076172e+003,
3.1875000000e+000,4.1364101563e+003,4.1029487305e+003,4.0835898438e+003,4.1178203125e+003,4.1288461914e+003,4.1028203125e+003,4.1074360352e+003,4.0932050781e+003,4.1047436523e+003,4.1142309570e+003,4.0970512695e+003,4.0989741211e+003,4.1115385742e+003,4.0767949219e+003,
3.1953125000e+000,4.1365385742e+003,4.1015385742e+003,4.0888461914e+003,4.1179487305e+003,4.1155126953e+003,4.1005126953e+003,4.1064101563e+003,4.0911538086e+003,4.1005126953e+003,4.1139741211e+003,4.0961538086e+003,4.1012822266e+003,4.1088461914e+003,4.0792307129e+003,
3.2031250000e+000,4.2073076172e+003,4.1752563477e+003,4.1624360352e+003,4.1948715820e+003,4.1783334961e+003,4.1821796875e+003,4.1874360352e+003,4.1607690430e+003,4.1815385742e+003,4.1951284180e+003,4.1743588867e+003,4.1814101563e+003,4.1833334961e+003,4.1525639648e+003,
3.2109375000e+000,4.2219228516e+003,4.1956411133e+003,4.1828203125e+003,4.2214101563e+003,4.2137177734e+003,4.2091025391e+003,4.2097436523e+003,4.2124360352e+003,4.2146152344e+003,4.2232050781e+003,4.2096152344e+003,4.2073076172e+003,4.2124360352e+003,4.1825639648e+003,
3.2187500000e+000,4.1721796875e+003,4.1457690430e+003,4.1365385742e+003,4.1714101563e+003,4.1501284180e+003,4.1653847656e+003,4.1651284180e+003,4.1665385742e+003,4.1656411133e+003,4.1689741211e+003,4.1603847656e+003,4.1585898438e+003,4.1611538086e+003,4.1342309570e+003,
3.2265625000e+000,4.1415385742e+003,4.1171796875e+003,4.1097436523e+003,4.1448715820e+003,4.1132050781e+003,4.1424360352e+003,4.1415385742e+003,4.1367949219e+003,4.1328203125e+003,4.1342309570e+003,4.1250000000e+003,4.1275639648e+003,4.1274360352e+003,4.0991025391e+003,
3.2343750000e+000,4.1062822266e+003,4.0951281738e+003,4.0732050781e+003,4.1058974609e+003,4.1210258789e+003,4.1042309570e+003,4.1011538086e+003,4.1024360352e+003,4.0960258789e+003,4.1041025391e+003,4.0825642090e+003,4.0853845215e+003,4.1035898438e+003,4.0662819824e+003,
3.2421875000e+000,4.0658974609e+003,4.0503845215e+003,4.0347436523e+003,4.0624357910e+003,4.0670512695e+003,4.0617949219e+003,4.0592307129e+003,4.0560256348e+003,4.0521794434e+003,4.0548718262e+003,4.0365385742e+003,4.0420512695e+003,4.0569230957e+003,4.0247436523e+003,
3.2500000000e+000,4.0424357910e+003,4.0196154785e+003,4.0130769043e+003,4.0475642090e+003,4.0261538086e+003,4.0301281738e+003,4.0278205566e+003,4.0182050781e+003,4.0176923828e+003,4.0185898438e+003,4.0071794434e+003,4.0176923828e+003,4.0189743652e+003,3.9991025391e+003,
3.2578125000e+000,4.0435898438e+003,4.0194870605e+003,4.0134614258e+003,4.0561538086e+003,4.0264101563e+003,4.0256411133e+003,4.0235898438e+003,4.0135898438e+003,4.0147436523e+003,4.0192307129e+003,4.0085898438e+003,4.0216667480e+003,4.0176923828e+003,4.0011538086e+003,
3.2656250000e+000,4.0058974609e+003,3.9780769043e+003,3.9720512695e+003,4.0191025391e+003,3.9733332520e+003,3.9785898438e+003,3.9744870605e+003,3.9585898438e+003,3.9743588867e+003,3.9806411133e+003,3.9723076172e+003,3.9815385742e+003,3.9870512695e+003,3.9602563477e+003,
3.2734375000e+000,4.0124357910e+003,3.9857692871e+003,3.9774357910e+003,4.0278205566e+003,3.9806411133e+003,3.9866667480e+003,3.9803845215e+003,3.9602563477e+003,3.9816667480e+003,3.9873076172e+003,3.9807692871e+003,3.9861538086e+003,3.9962819824e+003,3.9658974609e+003,
3.2812500000e+000,4.0708974609e+003,4.0502563477e+003,4.0330769043e+003,4.1007690430e+003,4.0475642090e+003,4.0444870605e+003,4.0392307129e+003,4.0134614258e+003,4.0392307129e+003,4.0489743652e+003,4.0412819824e+003,4.0521794434e+003,4.0550000000e+003,4.0301281738e+003,
3.2890625000e+000,4.1016665039e+003,4.0819230957e+003,4.0633332520e+003,4.1325639648e+003,4.0752563477e+003,4.0706411133e+003,4.0691025391e+003,4.0432050781e+003,4.0673076172e+003,4.0803845215e+003,4.0694870605e+003,4.0876923828e+003,4.0844870605e+003,4.0632050781e+003,
3.2968750000e+000,4.1547436523e+003,4.1248715820e+003,4.1239741211e+003,4.1608974609e+003,4.1242309570e+003,4.1157690430e+003,4.1188461914e+003,4.0969228516e+003,4.1128203125e+003,4.1276923828e+003,4.1203847656e+003,4.1382050781e+003,4.1380771484e+003,4.1116665039e+003,
3.3046875000e+000,4.1794873047e+003,4.1484614258e+003,4.1503847656e+003,4.1866665039e+003,4.1615385742e+003,4.1419228516e+003,4.1447436523e+003,4.1220512695e+003,4.1364101563e+003,4.1511538086e+003,4.1488461914e+003,4.1629487305e+003,4.1617949219e+003,4.1365385742e+003,
3.3125000000e+000,4.2146152344e+003,4.1860258789e+003,4.1848715820e+003,4.2289741211e+003,4.2093588867e+003,4.1785898438e+003,4.1823076172e+003,4.1594873047e+003,4.1726923828e+003,4.1883334961e+003,4.1884614258e+003,4.2012822266e+003,4.1948715820e+003,4.1733334961e+003,
3.3203125000e+000,4.2491025391e+003,4.2261538086e+003,4.2179487305e+003,4.2714101563e+003,4.2508974609e+003,4.2152563477e+003,4.2211538086e+003,4.2014101563e+003,4.2128203125e+003,4.2292309570e+003,4.2287177734e+003,4.2412822266e+003,4.2284614258e+003,4.2106411133e+003,
3.3281250000e+000,4.1848715820e+003,4.1764101563e+003,4.1632050781e+003,4.2153847656e+003,4.1800000000e+003,4.1873076172e+003,4.1861538086e+003,4.1924360352e+003,4.1920512695e+003,4.1929487305e+003,4.1802563477e+003,4.1898715820e+003,4.1819228516e+003,4.1547436523e+003,
3.3359375000e+000,4.1291025391e+003,4.1137177734e+003,4.1088461914e+003,4.1726923828e+003,4.1305126953e+003,4.1369228516e+003,4.1300000000e+003,4.1356411133e+003,4.1364101563e+003,4.1429487305e+003,4.1167949219e+003,4.1314101563e+003,4.1157690430e+003,4.0957692871e+003,
3.3437500000e+000,4.0982050781e+003,4.0803845215e+003,4.0792307129e+003,4.1376923828e+003,4.0993588867e+003,4.1008974609e+003,4.0953845215e+003,4.1002563477e+003,4.1020512695e+003,4.1074360352e+003,4.0882050781e+003,4.1011538086e+003,4.0843588867e+003,4.0678205566e+003,
3.3515625000e+000,4.0616667480e+003,4.0452563477e+003,4.0401281738e+003,4.1000000000e+003,4.0452563477e+003,4.0600000000e+003,4.0533332520e+003,4.0534614258e+003,4.0583332520e+003,4.0617949219e+003,4.0525642090e+003,4.0629487305e+003,4.0519230957e+003,4.0378205566e+003,
3.3593750000e+000,4.0517949219e+003,4.0351281738e+003,4.0300000000e+003,4.0820512695e+003,4.0310256348e+003,4.0264101563e+003,4.0164101563e+003,4.0150000000e+003,4.0247436523e+003,4.0421794434e+003,4.0243588867e+003,4.0420512695e+003,4.0353845215e+003,4.0226923828e+003,
3.3671875000e+000,4.0385898438e+003,4.0164101563e+003,4.0167949219e+003,4.0624357910e+003,4.0369230957e+003,4.0026923828e+003,3.9934614258e+003,3.9920512695e+003,4.0051281738e+003,4.0206411133e+003,4.0046154785e+003,4.0246154785e+003,4.0189743652e+003,4.0057692871e+003,
3.3750000000e+000,4.0523076172e+003,4.0260256348e+003,4.0288461914e+003,4.0776923828e+003,4.0514101563e+003,4.0065385742e+003,4.0002563477e+003,3.9960256348e+003,4.0098718262e+003,4.0220512695e+003,4.0138461914e+003,4.0387180176e+003,4.0270512695e+003,4.0193588867e+003,
3.3828125000e+000,4.0639743652e+003,4.0393588867e+003,4.0407692871e+003,4.0917949219e+003,4.0456411133e+003,4.0178205566e+003,4.0124357910e+003,4.0085898438e+003,4.0192307129e+003,4.0329487305e+003,4.0282050781e+003,4.0538461914e+003,4.0346154785e+003,4.0330769043e+003,
3.3906250000e+000,4.0662819824e+003,4.0439743652e+003,4.0429487305e+003,4.0842307129e+003,4.0365385742e+003,4.0267949219e+003,4.0285898438e+003,4.0114101563e+003,4.0200000000e+003,4.0355129395e+003,4.0347436523e+003,4.0462819824e+003,4.0301281738e+003,4.0280769043e+003,
3.3984375000e+000,4.1644873047e+003,4.1439741211e+003,4.1385898438e+003,4.1789741211e+003,4.1450000000e+003,4.1283334961e+003,4.1348715820e+003,4.1041025391e+003,4.1138461914e+003,4.1320512695e+003,4.1316665039e+003,4.1353847656e+003,4.1315385742e+003,4.1214101563e+003,
3.4062500000e+000,4.5880771484e+003,4.5842309570e+003,4.5538461914e+003,4.5984614258e+003,4.5802563477e+003,4.5523076172e+003,4.5602563477e+003,4.5233334961e+003,4.5298715820e+003,4.5692309570e+003,4.5629487305e+003,4.5497436523e+003,4.5683334961e+003,4.5412822266e+003,
3.4140625000e+000,4.7893588867e+003,4.7994873047e+003,4.7539741211e+003,4.7992309570e+003,4.7906411133e+003,4.7548715820e+003,4.7570512695e+003,4.7352563477e+003,4.7378203125e+003,4.7915385742e+003,4.7769228516e+003,4.7578203125e+003,4.7797436523e+003,4.7464101563e+003,
3.4218750000e+000,4.7989741211e+003,4.8378203125e+003,4.7911538086e+003,4.8306411133e+003,4.8275639648e+003,4.8014101563e+003,4.7889741211e+003,4.8069228516e+003,4.7948715820e+003,4.8569228516e+003,4.8369228516e+003,4.8162822266e+003,4.8157690430e+003,4.7844873047e+003,
3.4296875000e+000,4.7364101563e+003,4.7783334961e+003,4.7383334961e+003,4.7829487305e+003,4.7578203125e+003,4.7516665039e+003,4.7398715820e+003,4.7548715820e+003,4.7398715820e+003,4.7960258789e+003,4.7839741211e+003,4.7612822266e+003,4.7565385742e+003,4.7300000000e+003,
