Time (s),AF3,F7,F3,FC5,T7,P7,O1,O2,P8,T8,FC6,F4,F8,AF4,Sampling Rate
0.0000000000e+000,3.8564101563e+003,3.8376923828e+003,3.8506411133e+003,3.8951281738e+003,3.8530769043e+003,3.8373076172e+003,3.8494870605e+003,3.8489743652e+003,3.8617949219e+003,3.8548718262e+003,3.8670512695e+003,3.8746154785e+003,3.8455129395e+003,3.8498718262e+003,128
7.8125000000e-003,3.8416667480e+003,3.8219230957e+003,3.8337180176e+003,3.8767949219e+003,3.8376923828e+003,3.8234614258e+003,3.8358974609e+003,3.8307692871e+003,3.8443588867e+003,3.8382050781e+003,3.8376923828e+003,3.8526923828e+003,3.8348718262e+003,3.8335898438e+003,
1.5625000000e-002,3.8339743652e+003,3.8011538086e+003,3.8178205566e+003,3.8773076172e+003,3.8276923828e+003,3.8094870605e+003,3.8228205566e+003,3.8155129395e+003,3.8319230957e+003,3.8311538086e+003,3.8326923828e+003,3.8417949219e+003,3.8215385742e+003,3.8256411133e+003,
2.3437500000e-002,3.8196154785e+003,3.7829487305e+003,3.8029487305e+003,3.8671794434e+003,3.8230769043e+003,3.7942307129e+003,3.8071794434e+003,3.7997436523e+003,3.8192307129e+003,3.8138461914e+003,3.8215385742e+003,3.8256411133e+003,3.8057692871e+003,3.8089743652e+003,
3.1250000000e-002,3.8019230957e+003,3.7685898438e+003,3.7796154785e+003,3.8521794434e+003,3.8205129395e+003,3.7756411133e+003,3.7862819824e+003,3.7748718262e+003,3.7987180176e+003,3.7915385742e+003,3.7934614258e+003,3.7967949219e+003,3.7919230957e+003,3.7848718262e+003,
3.9062500000e-002,3.7901281738e+003,3.7596154785e+003,3.7641025391e+003,3.8387180176e+003,3.7992307129e+003,3.7612819824e+003,3.7717949219e+003,3.7573076172e+003,3.7803845215e+003,3.7764101563e+003,3.7746154785e+003,3.7815385742e+003,3.7773076172e+003,3.7715385742e+003,
4.6875000000e-002,3.7425642090e+003,3.6930769043e+003,3.7121794434e+003,3.7852563477e+003,3.7079487305e+003,3.7000000000e+003,3.7148718262e+003,3.7007692871e+003,3.7239743652e+003,3.7111538086e+003,3.7123076172e+003,3.7251281738e+003,3.7043588867e+003,3.7144870605e+003,
5.4687500000e-002,3.7302563477e+003,3.6721794434e+003,3.7008974609e+003,3.7774357910e+003,3.7035898438e+003,3.6879487305e+003,3.7028205566e+003,3.6912819824e+003,3.7173076172e+003,3.6985898438e+003,3.6997436523e+003,3.7108974609e+003,3.6925642090e+003,3.7002563477e+003,
6.2500000000e-002,3.7175642090e+003,3.6567949219e+003,3.6896154785e+003,3.7710256348e+003,3.7012819824e+003,3.6779487305e+003,3.6923076172e+003,3.6816667480e+003,3.7087180176e+003,3.6880769043e+003,3.6914101563e+003,3.7003845215e+003,3.6842307129e+003,3.6893588867e+003,
7.0312500000e-002,3.7687180176e+003,3.7033332520e+003,3.7323076172e+003,3.7938461914e+003,3.7052563477e+003,3.7103845215e+003,3.7353845215e+003,3.7244870605e+003,3.7437180176e+003,3.7262819824e+003,3.7298718262e+003,3.7524357910e+003,3.7300000000e+003,3.7405129395e+003,
7.8125000000e-002,3.7858974609e+003,3.7111538086e+003,3.7460256348e+003,3.8129487305e+003,3.7423076172e+003,3.7273076172e+003,3.7528205566e+003,3.7406411133e+003,3.7603845215e+003,3.7476923828e+003,3.7429487305e+003,3.7673076172e+003,3.7493588867e+003,3.7541025391e+003,
8.5937500000e-002,3.8501281738e+003,3.7947436523e+003,3.8075642090e+003,3.8906411133e+003,3.8496154785e+003,3.8067949219e+003,3.8242307129e+003,3.8082050781e+003,3.8261538086e+003,3.8347436523e+003,3.8343588867e+003,3.8371794434e+003,3.8274357910e+003,3.8250000000e+003,
9.3750000000e-002,3.8766667480e+003,3.8253845215e+003,3.8389743652e+003,3.9028205566e+003,3.8430769043e+003,3.8253845215e+003,3.8485898438e+003,3.8358974609e+003,3.8548718262e+003,3.8478205566e+003,3.8528205566e+003,3.8587180176e+003,3.8382050781e+003,3.8469230957e+003,
1.0156250000e-001,3.8737180176e+003,3.8189743652e+003,3.8350000000e+003,3.9033332520e+003,3.8397436523e+003,3.8201281738e+003,3.8444870605e+003,3.8348718262e+003,3.8520512695e+003,3.8421794434e+003,3.8433332520e+003,3.8537180176e+003,3.8356411133e+003,3.8407692871e+003,
1.0937500000e-001,3.8516667480e+003,3.8126923828e+003,3.8188461914e+003,3.8880769043e+003,3.8330769043e+003,3.8135898438e+003,3.8293588867e+003,3.8165385742e+003,3.8330769043e+003,3.8394870605e+003,3.8278205566e+003,3.8307692871e+003,3.8308974609e+003,3.8194870605e+003,
1.1718750000e-001,3.8587180176e+003,3.8220512695e+003,3.8276923828e+003,3.8885898438e+003,3.8373076172e+003,3.8220512695e+003,3.8353845215e+003,3.8178205566e+003,3.8362819824e+003,3.8462819824e+003,3.8339743652e+003,3.8365385742e+003,3.8320512695e+003,3.8252563477e+003,
1.2500000000e-001,3.8801281738e+003,3.8366667480e+003,3.8443588867e+003,3.9069230957e+003,3.8398718262e+003,3.8335898438e+003,3.8485898438e+003,3.8300000000e+003,3.8485898438e+003,3.8584614258e+003,3.8487180176e+003,3.8584614258e+003,3.8365385742e+003,3.8429487305e+003,
1.3281250000e-001,3.8644870605e+003,3.8164101563e+003,3.8265385742e+003,3.8974357910e+003,3.8150000000e+003,3.8139743652e+003,3.8314101563e+003,3.8158974609e+003,3.8328205566e+003,3.8420512695e+003,3.8320512695e+003,3.8442307129e+003,3.8219230957e+003,3.8275642090e+003,
1.4062500000e-001,3.7479487305e+003,3.6964101563e+003,3.7100000000e+003,3.7841025391e+003,3.7261538086e+003,3.7105129395e+003,3.7274357910e+003,3.7146154785e+003,3.7356411133e+003,3.7312819824e+003,3.7266667480e+003,3.7235898438e+003,3.7207692871e+003,3.7165385742e+003,
1.4843750000e-001,3.7310256348e+003,3.6789743652e+003,3.6912819824e+003,3.7610256348e+003,3.7260256348e+003,3.6969230957e+003,3.7138461914e+003,3.7001281738e+003,3.7228205566e+003,3.7112819824e+003,3.7120512695e+003,3.7058974609e+003,3.6993588867e+003,3.7008974609e+003,
1.5625000000e-001,3.7341025391e+003,3.6715385742e+003,3.6926923828e+003,3.7606411133e+003,3.7230769043e+003,3.6908974609e+003,3.7144870605e+003,3.6965385742e+003,3.7162819824e+003,3.7034614258e+003,3.7011538086e+003,3.7117949219e+003,3.6921794434e+003,3.7041025391e+003,
1.6406250000e-001,3.7469230957e+003,3.6764101563e+003,3.7057692871e+003,3.7766667480e+003,3.7173076172e+003,3.6956411133e+003,3.7217949219e+003,3.7014101563e+003,3.7188461914e+003,3.7139743652e+003,3.7029487305e+003,3.7235898438e+003,3.7048718262e+003,3.7150000000e+003,
1.7187500000e-001,3.7423076172e+003,3.6678205566e+003,3.7056411133e+003,3.7824357910e+003,3.6925642090e+003,3.6875642090e+003,3.7126923828e+003,3.6937180176e+003,3.7100000000e+003,3.7158974609e+003,3.7098718262e+003,3.7158974609e+003,3.6997436523e+003,3.7064101563e+003,
1.7968750000e-001,3.7073076172e+003,3.6360256348e+003,3.6729487305e+003,3.7491025391e+003,3.6646154785e+003,3.6565385742e+003,3.6837180176e+003,3.6664101563e+003,3.6832050781e+003,3.6788461914e+003,3.6847436523e+003,3.6853845215e+003,3.6606411133e+003,3.6739743652e+003,
1.8750000000e-001,3.6719230957e+003,3.6044870605e+003,3.6379487305e+003,3.7133332520e+003,3.6358974609e+003,3.6251281738e+003,3.6548718262e+003,3.6380769043e+003,3.6556411133e+003,3.6414101563e+003,3.6517949219e+003,3.6541025391e+003,3.6246154785e+003,3.6419230957e+003,
1.9531250000e-001,3.6508974609e+003,3.5875642090e+003,3.6141025391e+003,3.6897436523e+003,3.6173076172e+003,3.6076923828e+003,3.6382050781e+003,3.6206411133e+003,3.6389743652e+003,3.6219230957e+003,3.6237180176e+003,3.6335898438e+003,3.6089743652e+003,3.6232050781e+003,
2.0312500000e-001,3.6294870605e+003,3.5561538086e+003,3.5766667480e+003,3.6606411133e+003,3.5696154785e+003,3.5903845215e+003,3.6144870605e+003,3.5938461914e+003,3.6066667480e+003,3.5914101563e+003,3.5739743652e+003,3.6035898438e+003,3.5866667480e+003,3.5974357910e+003,
2.1093750000e-001,3.5965385742e+003,3.5066667480e+003,3.5462819824e+003,3.6291025391e+003,3.5455129395e+003,3.5434614258e+003,3.5752563477e+003,3.5544870605e+003,3.5726923828e+003,3.5533332520e+003,3.5491025391e+003,3.5657692871e+003,3.5398718262e+003,3.5589743652e+003,
2.1875000000e-001,3.5924357910e+003,3.4988461914e+003,3.5353845215e+003,3.6111538086e+003,3.5414101563e+003,3.5334614258e+003,3.5670512695e+003,3.5364101563e+003,3.5625642090e+003,3.5415385742e+003,3.5435898438e+003,3.5597436523e+003,3.5256411133e+003,3.5452563477e+003,
2.2656250000e-001,3.6576923828e+003,3.5711538086e+003,3.5964101563e+003,3.6729487305e+003,3.6100000000e+003,3.5980769043e+003,3.6301281738e+003,3.5965385742e+003,3.6256411133e+003,3.6056411133e+003,3.5982050781e+003,3.6196154785e+003,3.5956411133e+003,3.6057692871e+003,
2.3437500000e-001,3.9376923828e+003,3.8615385742e+003,3.8666667480e+003,3.9519230957e+003,3.8892307129e+003,3.8698718262e+003,3.8930769043e+003,3.8655129395e+003,3.8907692871e+003,3.8893588867e+003,3.8655129395e+003,3.8910256348e+003,3.8711538086e+003,3.8784614258e+003,
2.4218750000e-001,3.9903845215e+003,3.9147436523e+003,3.9200000000e+003,4.0088461914e+003,3.9325642090e+003,3.9210256348e+003,3.9432050781e+003,3.9178205566e+003,3.9397436523e+003,3.9458974609e+003,3.9330769043e+003,3.9442307129e+003,3.9216667480e+003,3.9315385742e+003,
2.5000000000e-001,4.0339743652e+003,3.9683332520e+003,3.9706411133e+003,4.0589743652e+003,3.9657692871e+003,3.9721794434e+003,3.9926923828e+003,3.9633332520e+003,3.9816667480e+003,3.9997436523e+003,3.9982050781e+003,3.9926923828e+003,3.9776923828e+003,3.9797436523e+003,
2.5781250000e-001,4.0771794434e+003,4.0198718262e+003,4.0187180176e+003,4.1012822266e+003,4.0185898438e+003,4.0198718262e+003,4.0384614258e+003,4.0060256348e+003,4.0230769043e+003,4.0478205566e+003,4.0394870605e+003,4.0375642090e+003,4.0296154785e+003,4.0243588867e+003,
2.6562500000e-001,4.3058974609e+003,4.2720512695e+003,4.2548715820e+003,4.3276923828e+003,4.3011538086e+003,4.2496152344e+003,4.2584614258e+003,4.2430771484e+003,4.2498715820e+003,4.2962822266e+003,4.2769228516e+003,4.2750000000e+003,4.2610258789e+003,4.2519228516e+003,
2.7343750000e-001,4.3293588867e+003,4.3029487305e+003,4.2797436523e+003,4.3547436523e+003,4.3267949219e+003,4.2762822266e+003,4.2843588867e+003,4.2753847656e+003,4.2789741211e+003,4.3284614258e+003,4.3162822266e+003,4.3064101563e+003,4.2855126953e+003,4.2803847656e+003,
2.8125000000e-001,4.3151284180e+003,4.2994873047e+003,4.2697436523e+003,4.3443588867e+003,4.2917949219e+003,4.2723076172e+003,4.2829487305e+003,4.2747436523e+003,4.2782050781e+003,4.3298715820e+003,4.3188461914e+003,4.3032050781e+003,4.2879487305e+003,4.2798715820e+003,
2.8906250000e-001,4.3152563477e+003,4.3002563477e+003,4.2729487305e+003,4.3435898438e+003,4.2858974609e+003,4.2750000000e+003,4.2862822266e+003,4.2784614258e+003,4.2837177734e+003,4.3356411133e+003,4.3173076172e+003,4.3046152344e+003,4.2971796875e+003,4.2835898438e+003,
2.9687500000e-001,4.2633334961e+003,4.2426923828e+003,4.2380771484e+003,4.3066665039e+003,4.2679487305e+003,4.2235898438e+003,4.2362822266e+003,4.2374360352e+003,4.2415385742e+003,4.2883334961e+003,4.2612822266e+003,4.2594873047e+003,4.2498715820e+003,4.2320512695e+003,
3.0468750000e-001,4.2274360352e+003,4.2082050781e+003,4.2062822266e+003,4.2801284180e+003,4.2365385742e+003,4.1906411133e+003,4.2032050781e+003,4.2042309570e+003,4.2083334961e+003,4.2532050781e+003,4.2292309570e+003,4.2269228516e+003,4.2135898438e+003,4.1974360352e+003,
3.1250000000e-001,4.1973076172e+003,4.1828203125e+003,4.1779487305e+003,4.2558974609e+003,4.2001284180e+003,4.1652563477e+003,4.1771796875e+003,4.1765385742e+003,4.1823076172e+003,4.2256411133e+003,4.2046152344e+003,4.1993588867e+003,4.1850000000e+003,4.1701284180e+003,
3.2031250000e-001,4.1767949219e+003,4.1685898438e+003,4.1583334961e+003,4.2357690430e+003,4.1683334961e+003,4.1496152344e+003,4.1612822266e+003,4.1580771484e+003,4.1656411133e+003,4.2076923828e+003,4.1889741211e+003,4.1801284180e+003,4.1669228516e+003,4.1519228516e+003,
3.2812500000e-001,4.3557690430e+003,4.3691025391e+003,4.3379487305e+003,4.3976923828e+003,4.3715385742e+003,4.3364101563e+003,4.3448715820e+003,4.3305126953e+003,4.3328203125e+003,4.3805126953e+003,4.3682050781e+003,4.3564101563e+003,4.3448715820e+003,4.3288461914e+003,
3.3593750000e-001,4.5193588867e+003,4.5569228516e+003,4.5125639648e+003,4.5764101563e+003,4.5557690430e+003,4.5102563477e+003,4.5098715820e+003,4.5093588867e+003,4.5087177734e+003,4.5860258789e+003,4.5547436523e+003,4.5373076172e+003,4.5478203125e+003,4.5100000000e+003,
3.4375000000e-001,4.4729487305e+003,4.5121796875e+003,4.4689741211e+003,4.5270512695e+003,4.4992309570e+003,4.4626923828e+003,4.4661538086e+003,4.4656411133e+003,4.4647436523e+003,4.5423076172e+003,4.5112822266e+003,4.4923076172e+003,4.5070512695e+003,4.4653847656e+003,
3.5156250000e-001,4.3670512695e+003,4.4055126953e+003,4.3741025391e+003,4.4267949219e+003,4.3866665039e+003,4.3698715820e+003,4.3788461914e+003,4.3720512695e+003,4.3726923828e+003,4.4394873047e+003,4.4211538086e+003,4.4006411133e+003,4.4048715820e+003,4.3651284180e+003,
3.5937500000e-001,4.3035898438e+003,4.3482050781e+003,4.3138461914e+003,4.3793588867e+003,4.3725639648e+003,4.3280771484e+003,4.3314101563e+003,4.3152563477e+003,4.3184614258e+003,4.3693588867e+003,4.3548715820e+003,4.3441025391e+003,4.3398715820e+003,4.3048715820e+003,
3.6718750000e-001,4.3674360352e+003,4.4146152344e+003,4.3706411133e+003,4.4358974609e+003,4.4315385742e+003,4.3835898438e+003,4.3862822266e+003,4.3707690430e+003,4.3742309570e+003,4.4269228516e+003,4.4157690430e+003,4.3989741211e+003,4.4002563477e+003,4.3650000000e+003,
3.7500000000e-001,4.5806411133e+003,4.6448715820e+003,4.5817949219e+003,4.6470512695e+003,4.6233334961e+003,4.5926923828e+003,4.5912822266e+003,4.5765385742e+003,4.5757690430e+003,4.6401284180e+003,4.6350000000e+003,4.6092309570e+003,4.6193588867e+003,4.5757690430e+003,
3.8281250000e-001,4.6944873047e+003,4.7711538086e+003,4.6994873047e+003,4.7653847656e+003,4.7406411133e+003,4.7103847656e+003,4.7050000000e+003,4.6932050781e+003,4.6874360352e+003,4.7616665039e+003,4.7543588867e+003,4.7280771484e+003,4.7401284180e+003,4.6896152344e+003,
3.9062500000e-001,4.7793588867e+003,4.8705126953e+003,4.7960258789e+003,4.8542309570e+003,4.8728203125e+003,4.8041025391e+003,4.7875639648e+003,4.7973076172e+003,4.7848715820e+003,4.8753847656e+003,4.8565385742e+003,4.8307690430e+003,4.8334614258e+003,4.7820512695e+003,
3.9843750000e-001,4.7470512695e+003,4.8423076172e+003,4.7671796875e+003,4.8238461914e+003,4.8428203125e+003,4.7767949219e+003,4.7600000000e+003,4.7725639648e+003,4.7630771484e+003,4.8501284180e+003,4.8353847656e+003,4.8047436523e+003,4.8053847656e+003,4.7566665039e+003,
4.0625000000e-001,4.7661538086e+003,4.8819228516e+003,4.7970512695e+003,4.8584614258e+003,4.8596152344e+003,4.8126923828e+003,4.7974360352e+003,4.8103847656e+003,4.8010258789e+003,4.8861538086e+003,4.8796152344e+003,4.8385898438e+003,4.8446152344e+003,4.7884614258e+003,
4.1406250000e-001,4.8085898438e+003,4.9330771484e+003,4.8465385742e+003,4.9076923828e+003,4.9058974609e+003,4.8615385742e+003,4.8473076172e+003,4.8603847656e+003,4.8471796875e+003,4.9369228516e+003,4.9267949219e+003,4.8869228516e+003,4.8970512695e+003,4.8346152344e+003,
4.2187500000e-001,4.8592309570e+003,4.9911538086e+003,4.9075639648e+003,4.9543588867e+003,4.9746152344e+003,4.9191025391e+003,4.9082050781e+003,4.9211538086e+003,4.9005126953e+003,4.9985898438e+003,4.9753847656e+003,4.9430771484e+003,4.9553847656e+003,4.8953847656e+003,
4.2968750000e-001,4.8642309570e+003,5.0021796875e+003,4.9129487305e+003,4.9629487305e+003,4.9832050781e+003,4.9305126953e+003,4.9173076172e+003,4.9310258789e+003,4.9098715820e+003,5.0066665039e+003,4.9893588867e+003,4.9534614258e+003,4.9593588867e+003,4.9057690430e+003,
4.3750000000e-001,4.8787177734e+003,5.0244873047e+003,4.9297436523e+003,4.9866665039e+003,4.9985898438e+003,4.9528203125e+003,4.9362822266e+003,4.9514101563e+003,4.9289741211e+003,5.0242309570e+003,5.0146152344e+003,4.9758974609e+003,4.9741025391e+003,4.9256411133e+003,
4.4531250000e-001,4.9021796875e+003,5.0525639648e+003,4.9576923828e+003,5.0201284180e+003,5.0198715820e+003,4.9814101563e+003,4.9624360352e+003,4.9798715820e+003,4.9552563477e+003,5.0492309570e+003,5.0446152344e+003,5.0052563477e+003,4.9996152344e+003,4.9519228516e+003,
4.5312500000e-001,4.8655126953e+003,5.0083334961e+003,4.9402563477e+003,4.9901284180e+003,5.0088461914e+003,4.9507690430e+003,4.9380771484e+003,4.9676923828e+003,4.9425639648e+003,5.0246152344e+003,5.0169228516e+003,4.9723076172e+003,4.9819228516e+003,4.9189741211e+003,
4.6093750000e-001,4.8115385742e+003,4.9603847656e+003,4.8910258789e+003,4.9398715820e+003,4.9682050781e+003,4.9048715820e+003,4.8919228516e+003,4.9211538086e+003,4.8974360352e+003,4.9774360352e+003,4.9703847656e+003,4.9257690430e+003,4.9293588867e+003,4.8725639648e+003,
4.6875000000e-001,4.6689741211e+003,4.8279487305e+003,4.7669228516e+003,4.7983334961e+003,4.8156411133e+003,4.7765385742e+003,4.7596152344e+003,4.7882050781e+003,4.7669228516e+003,4.8397436523e+003,4.8194873047e+003,4.7987177734e+003,4.7896152344e+003,4.7425639648e+003,
4.7656250000e-001,4.6660258789e+003,4.8147436523e+003,4.7629487305e+003,4.7864101563e+003,4.8023076172e+003,4.7696152344e+003,4.7639741211e+003,4.7778203125e+003,4.7508974609e+003,4.8198715820e+003,4.8183334961e+003,4.7916665039e+003,4.7787177734e+003,4.7369228516e+003,
4.8437500000e-001,4.6993588867e+003,4.8414101563e+003,4.7942309570e+003,4.8270512695e+003,4.8247436523e+003,4.8005126953e+003,4.7950000000e+003,4.8098715820e+003,4.7808974609e+003,4.8541025391e+003,4.8619228516e+003,4.8248715820e+003,4.8101284180e+003,4.7726923828e+003,
4.9218750000e-001,4.5643588867e+003,4.7025639648e+003,4.6714101563e+003,4.7158974609e+003,4.6788461914e+003,4.6764101563e+003,4.6651284180e+003,4.6817949219e+003,4.6593588867e+003,4.7258974609e+003,4.7155126953e+003,4.6958974609e+003,4.6934614258e+003,4.6469228516e+003,
5.0000000000e-001,4.6319228516e+003,4.7829487305e+003,4.7270512695e+003,4.7726923828e+003,4.7953847656e+003,4.7447436523e+003,4.7351284180e+003,4.7347436523e+003,4.7167949219e+003,4.7721796875e+003,4.7765385742e+003,4.7602563477e+003,4.7439741211e+003,4.7046152344e+003,
5.0781250000e-001,4.7389741211e+003,4.8896152344e+003,4.8278203125e+003,4.8753847656e+003,4.8967949219e+003,4.8452563477e+003,4.8348715820e+003,4.8391025391e+003,4.8179487305e+003,4.8796152344e+003,4.8915385742e+003,4.8621796875e+003,4.8465385742e+003,4.8100000000e+003,
5.1562500000e-001,4.8244873047e+003,4.9730771484e+003,4.9123076172e+003,4.9556411133e+003,4.9683334961e+003,4.9232050781e+003,4.9126923828e+003,4.9248715820e+003,4.8994873047e+003,4.9696152344e+003,4.9803847656e+003,4.9429487305e+003,4.9329487305e+003,4.8957690430e+003,
5.2343750000e-001,4.8491025391e+003,4.9965385742e+003,4.9483334961e+003,4.9721796875e+003,4.9798715820e+003,4.9398715820e+003,4.9293588867e+003,4.9530771484e+003,4.9233334961e+003,5.0055126953e+003,4.9978203125e+003,4.9651284180e+003,4.9669228516e+003,4.9223076172e+003,
5.3125000000e-001,4.7426923828e+003,4.8942309570e+003,4.8552563477e+003,4.8765385742e+003,4.8897436523e+003,4.8419228516e+003,4.8284614258e+003,4.8429487305e+003,4.8214101563e+003,4.9010258789e+003,4.8955126953e+003,4.8687177734e+003,4.8648715820e+003,4.8200000000e+003,
5.3906250000e-001,4.7617949219e+003,4.9128203125e+003,4.8729487305e+003,4.8971796875e+003,4.9000000000e+003,4.8606411133e+003,4.8466665039e+003,4.8582050781e+003,4.8366665039e+003,4.9153847656e+003,4.9176923828e+003,4.8882050781e+003,4.8821796875e+003,4.8410258789e+003,
5.4687500000e-001,4.8164101563e+003,4.9683334961e+003,4.9244873047e+003,4.9498715820e+003,4.9405126953e+003,4.9134614258e+003,4.8987177734e+003,4.9097436523e+003,4.8864101563e+003,4.9658974609e+003,4.9733334961e+003,4.9416665039e+003,4.9356411133e+003,4.8966665039e+003,
5.5468750000e-001,4.9385898438e+003,5.1001284180e+003,5.0457690430e+003,5.0675639648e+003,5.0487177734e+003,5.0379487305e+003,5.0201284180e+003,5.0355126953e+003,5.0092309570e+003,5.0903847656e+003,5.1002563477e+003,5.0664101563e+003,5.0632050781e+003,5.0200000000e+003,
5.6250000000e-001,4.9547436523e+003,5.1229487305e+003,5.0669228516e+003,5.0871796875e+003,5.0737177734e+003,5.0589741211e+003,5.0398715820e+003,5.0576923828e+003,5.0316665039e+003,5.1120512695e+003,5.1228203125e+003,5.0878203125e+003,5.0857690430e+003,5.0387177734e+003,
5.7031250000e-001,4.9337177734e+003,5.1078203125e+003,5.0524360352e+003,5.0735898438e+003,5.0711538086e+003,5.0432050781e+003,5.0232050781e+003,5.0428203125e+003,5.0173076172e+003,5.0965385742e+003,5.1082050781e+003,5.0720512695e+003,5.0721796875e+003,5.0219228516e+003,
5.7812500000e-001,4.9215385742e+003,5.0965385742e+003,5.0491025391e+003,5.0829487305e+003,5.0862822266e+003,5.0392309570e+003,5.0225639648e+003,5.0328203125e+003,5.0088461914e+003,5.0920512695e+003,5.0926923828e+003,5.0637177734e+003,5.0647436523e+003,5.0191025391e+003,
5.8593750000e-001,4.9629487305e+003,5.1430771484e+003,5.0910258789e+003,5.1228203125e+003,5.1239741211e+003,5.0855126953e+003,5.0662822266e+003,5.0770512695e+003,5.0542309570e+003,5.1364101563e+003,5.1464101563e+003,5.1064101563e+003,5.1061538086e+003,5.0621796875e+003,
5.9375000000e-001,5.0001284180e+003,5.2052563477e+003,5.1302563477e+003,5.1616665039e+003,5.1775639648e+003,5.1350000000e+003,5.1105126953e+003,5.1325639648e+003,5.1044873047e+003,5.1842309570e+003,5.2116665039e+003,5.1517949219e+003,5.1608974609e+003,5.1079487305e+003,
6.0156250000e-001,4.9601284180e+003,5.1617949219e+003,5.0978203125e+003,5.1280771484e+003,5.1343588867e+003,5.0953847656e+003,5.0800000000e+003,5.0958974609e+003,5.0712822266e+003,5.1530771484e+003,5.1530771484e+003,5.1061538086e+003,5.1364101563e+003,5.0691025391e+003,
6.0937500000e-001,4.9624360352e+003,5.1661538086e+003,5.1008974609e+003,5.1288461914e+003,5.1317949219e+003,5.1023076172e+003,5.0839741211e+003,5.1001284180e+003,5.0773076172e+003,5.1587177734e+003,5.1551284180e+003,5.1083334961e+003,5.1397436523e+003,5.0725639648e+003,
6.1718750000e-001,4.9634614258e+003,5.1678203125e+003,5.1023076172e+003,5.1238461914e+003,5.1287177734e+003,5.1114101563e+003,5.0862822266e+003,5.1044873047e+003,5.0805126953e+003,5.1512822266e+003,5.1707690430e+003,5.1234614258e+003,5.1339741211e+003,5.0807690430e+003,
6.2500000000e-001,4.9689741211e+003,5.1729487305e+003,5.1088461914e+003,5.1315385742e+003,5.1424360352e+003,5.1152563477e+003,5.0921796875e+003,5.1092309570e+003,5.0861538086e+003,5.1553847656e+003,5.1808974609e+003,5.1293588867e+003,5.1406411133e+003,5.0880771484e+003,
6.3281250000e-001,4.9787177734e+003,5.1891025391e+003,5.1246152344e+003,5.1525639648e+003,5.1753847656e+003,5.1255126953e+003,5.1055126953e+003,5.1242309570e+003,5.1019228516e+003,5.1771796875e+003,5.1952563477e+003,5.1401284180e+003,5.1560258789e+003,5.1037177734e+003,
6.4062500000e-001,4.9639741211e+003,5.1783334961e+003,5.1135898438e+003,5.1405126953e+003,5.1676923828e+003,5.1134614258e+003,5.0933334961e+003,5.1151284180e+003,5.0920512695e+003,5.1703847656e+003,5.1791025391e+003,5.1292309570e+003,5.1421796875e+003,5.0925639648e+003,
6.4843750000e-001,4.8560258789e+003,5.0644873047e+003,5.0033334961e+003,5.0146152344e+003,5.0453847656e+003,5.0057690430e+003,4.9878203125e+003,5.0091025391e+003,4.9887177734e+003,5.0560258789e+003,5.0607690430e+003,5.0160258789e+003,5.0297436523e+003,4.9806411133e+003,
6.5625000000e-001,4.8356411133e+003,5.0406411133e+003,4.9814101563e+003,4.9929487305e+003,5.0206411133e+003,4.9860258789e+003,4.9691025391e+003,4.9861538086e+003,4.9664101563e+003,5.0294873047e+003,5.0411538086e+003,4.9908974609e+003,5.0125639648e+003,4.9579487305e+003,
6.6406250000e-001,4.8361538086e+003,5.0438461914e+003,4.9838461914e+003,5.0048715820e+003,5.0260258789e+003,4.9934614258e+003,4.9757690430e+003,4.9896152344e+003,4.9680771484e+003,5.0316665039e+003,5.0469228516e+003,4.9946152344e+003,5.0267949219e+003,4.9638461914e+003,
6.7187500000e-001,4.8235898438e+003,5.0337177734e+003,4.9725639648e+003,4.9974360352e+003,5.0110258789e+003,4.9833334961e+003,4.9652563477e+003,4.9824360352e+003,4.9603847656e+003,5.0243588867e+003,5.0337177734e+003,4.9873076172e+003,5.0162822266e+003,4.9557690430e+003,
6.7968750000e-001,4.6493588867e+003,4.8391025391e+003,4.8021796875e+003,4.8189741211e+003,4.7967949219e+003,4.8010258789e+003,4.7902563477e+003,4.8083334961e+003,4.7926923828e+003,4.8358974609e+003,4.8430771484e+003,4.8110258789e+003,4.8132050781e+003,4.7802563477e+003,
6.8750000000e-001,4.6396152344e+003,4.8219228516e+003,4.7916665039e+003,4.8044873047e+003,4.7898715820e+003,4.7875639648e+003,4.7783334961e+003,4.7889741211e+003,4.7764101563e+003,4.8156411133e+003,4.8302563477e+003,4.7950000000e+003,4.7979487305e+003,4.7678203125e+003,
6.9531250000e-001,4.6858974609e+003,4.8671796875e+003,4.8347436523e+003,4.8460258789e+003,4.8519228516e+003,4.8326923828e+003,4.8216665039e+003,4.8265385742e+003,4.8158974609e+003,4.8571796875e+003,4.8771796875e+003,4.8364101563e+003,4.8469228516e+003,4.8126923828e+003,
7.0312500000e-001,4.7565385742e+003,4.9424360352e+003,4.9007690430e+003,4.9120512695e+003,4.9403847656e+003,4.9042309570e+003,4.8896152344e+003,4.8935898438e+003,4.8824360352e+003,4.9294873047e+003,4.9510258789e+003,4.9050000000e+003,4.9244873047e+003,4.8832050781e+003,
7.1093750000e-001,4.7750000000e+003,4.9634614258e+003,4.9155126953e+003,4.9271796875e+003,4.9376923828e+003,4.9194873047e+003,4.9057690430e+003,4.9125639648e+003,4.8929487305e+003,4.9369228516e+003,4.9585898438e+003,4.9203847656e+003,4.9253847656e+003,4.8930771484e+003,
7.1875000000e-001,4.8853847656e+003,5.0733334961e+003,5.0293588867e+003,5.0506411133e+003,5.0661538086e+003,5.0207690430e+003,5.0057690430e+003,5.0170512695e+003,4.9956411133e+003,5.0478203125e+003,5.0637177734e+003,5.0266665039e+003,5.0456411133e+003,5.0047436523e+003,
7.2656250000e-001,4.9119228516e+003,5.0993588867e+003,5.0541025391e+003,5.0774360352e+003,5.0914101563e+003,5.0460258789e+003,5.0292309570e+003,5.0438461914e+003,5.0200000000e+003,5.0714101563e+003,5.0942309570e+003,5.0528203125e+003,5.0732050781e+003,5.0314101563e+003,
7.3437500000e-001,4.9135898438e+003,5.1042309570e+003,5.0556411133e+003,5.0744873047e+003,5.0778203125e+003,5.0496152344e+003,5.0285898438e+003,5.0470512695e+003,5.0251284180e+003,5.0710258789e+003,5.1021796875e+003,5.0569228516e+003,5.0702563477e+003,5.0325639648e+003,
7.4218750000e-001,4.9037177734e+003,5.0982050781e+003,5.0480771484e+003,5.0610258789e+003,5.0574360352e+003,5.0416665039e+003,5.0207690430e+003,5.0371796875e+003,5.0175639648e+003,5.0624360352e+003,5.0930771484e+003,5.0503847656e+003,5.0578203125e+003,5.0238461914e+003,
7.5000000000e-001,4.9542309570e+003,5.1502563477e+003,5.0997436523e+003,5.1057690430e+003,5.1153847656e+003,5.0855126953e+003,5.0708974609e+003,5.0815385742e+003,5.0621796875e+003,5.1165385742e+003,5.1396152344e+003,5.1020512695e+003,5.1169228516e+003,5.0750000000e+003,
7.5781250000e-001,4.8423076172e+003,5.0329487305e+003,4.9903847656e+003,4.9933334961e+003,5.0166665039e+003,4.9788461914e+003,4.9593588867e+003,4.9833334961e+003,4.9671796875e+003,5.0070512695e+003,5.0423076172e+003,4.9992309570e+003,5.0020512695e+003,4.9691025391e+003,
7.6562500000e-001,4.7650000000e+003,4.9541025391e+003,4.9147436523e+003,4.9143588867e+003,4.9210258789e+003,4.9066665039e+003,4.8866665039e+003,4.9083334961e+003,4.8928203125e+003,4.9265385742e+003,4.9666665039e+003,4.9215385742e+003,4.9192309570e+003,4.8920512695e+003,
7.7343750000e-001,4.7035898438e+003,4.8808974609e+003,4.8556411133e+003,4.8541025391e+003,4.8570512695e+003,4.8405126953e+003,4.8301284180e+003,4.8376923828e+003,4.8220512695e+003,4.8579487305e+003,4.8883334961e+003,4.8479487305e+003,4.8658974609e+003,4.8326923828e+003,
7.8125000000e-001,4.6934614258e+003,4.8675639648e+003,4.8448715820e+003,4.8457690430e+003,4.8621796875e+003,4.8287177734e+003,4.8196152344e+003,4.8265385742e+003,4.8125639648e+003,4.8450000000e+003,4.8723076172e+003,4.8380771484e+003,4.8566665039e+003,4.8244873047e+003,
7.8906250000e-001,4.6420512695e+003,4.8164101563e+003,4.7896152344e+003,4.7941025391e+003,4.8192309570e+003,4.7889741211e+003,4.7764101563e+003,4.7802563477e+003,4.7694873047e+003,4.7856411133e+003,4.8207690430e+003,4.7896152344e+003,4.7943588867e+003,4.7723076172e+003,
7.9687500000e-001,4.6398715820e+003,4.8135898438e+003,4.7864101563e+003,4.7889741211e+003,4.8111538086e+003,4.7953847656e+003,4.7825639648e+003,4.7824360352e+003,4.7721796875e+003,4.7841025391e+003,4.8210258789e+003,4.7887177734e+003,4.7876923828e+003,4.7685898438e+003,
8.0468750000e-001,4.7130771484e+003,4.8756411133e+003,4.8607690430e+003,4.8530771484e+003,4.8575639648e+003,4.8644873047e+003,4.8567949219e+003,4.8647436523e+003,4.8553847656e+003,4.8826923828e+003,4.8907690430e+003,4.8605126953e+003,4.8746152344e+003,4.8424360352e+003,
8.1250000000e-001,4.6865385742e+003,4.8470512695e+003,4.8332050781e+003,4.8287177734e+003,4.8200000000e+003,4.8307690430e+003,4.8211538086e+003,4.8365385742e+003,4.8251284180e+003,4.8564101563e+003,4.8664101563e+003,4.8316665039e+003,4.8489741211e+003,4.8160258789e+003,
8.2031250000e-001,4.6278203125e+003,4.7869228516e+003,4.7729487305e+003,4.7742309570e+003,4.7533334961e+003,4.7667949219e+003,4.7548715820e+003,4.7726923828e+003,4.7576923828e+003,4.7875639648e+003,4.8098715820e+003,4.7714101563e+003,4.7825639648e+003,4.7556411133e+003,
8.2812500000e-001,4.5675639648e+003,4.7252563477e+003,4.7110258789e+003,4.7169228516e+003,4.6917949219e+003,4.7029487305e+003,4.6905126953e+003,4.7037177734e+003,4.6860258789e+003,4.7102563477e+003,4.7460258789e+003,4.7100000000e+003,4.7089741211e+003,4.6916665039e+003,
8.3593750000e-001,4.6551284180e+003,4.7938461914e+003,4.7735898438e+003,4.7788461914e+003,4.7882050781e+003,4.7611538086e+003,4.7588461914e+003,4.7534614258e+003,4.7480771484e+003,4.7667949219e+003,4.7906411133e+003,4.7691025391e+003,4.7780771484e+003,4.7566665039e+003,
8.4375000000e-001,4.6792309570e+003,4.8111538086e+003,4.7950000000e+003,4.7961538086e+003,4.8035898438e+003,4.7801284180e+003,4.7773076172e+003,4.7756411133e+003,4.7667949219e+003,4.7914101563e+003,4.8169228516e+003,4.7875639648e+003,4.8032050781e+003,4.7806411133e+003,
8.5156250000e-001,4.6462822266e+003,4.7824360352e+003,4.7685898438e+003,4.7623076172e+003,4.7448715820e+003,4.7514101563e+003,4.7398715820e+003,4.7491025391e+003,4.7325639648e+003,4.7546152344e+003,4.7896152344e+003,4.7628203125e+003,4.7623076172e+003,4.7576923828e+003,
8.5937500000e-001,4.4735898438e+003,4.6051284180e+003,4.5943588867e+003,4.6016665039e+003,4.5802563477e+003,4.5887177734e+003,4.5779487305e+003,4.5816665039e+003,4.5739741211e+003,4.5782050781e+003,4.6060258789e+003,4.5883334961e+003,4.5825639648e+003,4.5821796875e+003,
8.6718750000e-001,4.5629487305e+003,4.6893588867e+003,4.6811538086e+003,4.6776923828e+003,4.6638461914e+003,4.6751284180e+003,4.6679487305e+003,4.6708974609e+003,4.6535898438e+003,4.6634614258e+003,4.6961538086e+003,4.6664101563e+003,4.6711538086e+003,4.6617949219e+003,
8.7500000000e-001,4.5639741211e+003,4.6897436523e+003,4.6797436523e+003,4.6801284180e+003,4.6535898438e+003,4.6750000000e+003,4.6673076172e+003,4.6738461914e+003,4.6570512695e+003,4.6626923828e+003,4.6947436523e+003,4.6720512695e+003,4.6716665039e+003,4.6650000000e+003,
8.8281250000e-001,4.5569228516e+003,4.6729487305e+003,4.6737177734e+003,4.6765385742e+003,4.6587177734e+003,4.6625639648e+003,4.6544873047e+003,4.6644873047e+003,4.6493588867e+003,4.6494873047e+003,4.6808974609e+003,4.6634614258e+003,4.6601284180e+003,4.6560258789e+003,
8.9062500000e-001,4.5517949219e+003,4.6632050781e+003,4.6708974609e+003,4.6680771484e+003,4.6692309570e+003,4.6543588867e+003,4.6462822266e+003,4.6578203125e+003,4.6429487305e+003,4.6466665039e+003,4.6751284180e+003,4.6525639648e+003,4.6528203125e+003,4.6460258789e+003,
8.9843750000e-001,4.4619228516e+003,4.5664101563e+003,4.5706411133e+003,4.5551284180e+003,4.5591025391e+003,4.5539741211e+003,4.5533334961e+003,4.5607690430e+003,4.5505126953e+003,4.5524360352e+003,4.5774360352e+003,4.5460258789e+003,4.5538461914e+003,4.5438461914e+003,
9.0625000000e-001,4.4816665039e+003,4.5832050781e+003,4.5819228516e+003,4.5698715820e+003,4.5600000000e+003,4.5688461914e+003,4.5692309570e+003,4.5750000000e+003,4.5657690430e+003,4.5600000000e+003,4.5891025391e+003,4.5607690430e+003,4.5669228516e+003,4.5600000000e+003,
9.1406250000e-001,4.7102563477e+003,4.8148715820e+003,4.8023076172e+003,4.7942309570e+003,4.7846152344e+003,4.7887177734e+003,4.7864101563e+003,4.7914101563e+003,4.7766665039e+003,4.7728203125e+003,4.8042309570e+003,4.7811538086e+003,4.7882050781e+003,4.7797436523e+003,
9.2187500000e-001,4.8650000000e+003,4.9774360352e+003,4.9592309570e+003,4.9467949219e+003,4.9491025391e+003,4.9410258789e+003,4.9370512695e+003,4.9421796875e+003,4.9224360352e+003,4.9312822266e+003,4.9597436523e+003,4.9358974609e+003,4.9441025391e+003,4.9320512695e+003,
9.2968750000e-001,5.0500000000e+003,5.1901284180e+003,5.1558974609e+003,5.1335898438e+003,5.1538461914e+003,5.1323076172e+003,5.1235898438e+003,5.1314101563e+003,5.1064101563e+003,5.1467949219e+003,5.1802563477e+003,5.1405126953e+003,5.1382050781e+003,5.1242309570e+003,
9.3750000000e-001,5.0596152344e+003,5.2062822266e+003,5.1676923828e+003,5.1464101563e+003,5.1723076172e+003,5.1475639648e+003,5.1362822266e+003,5.1453847656e+003,5.1192309570e+003,5.1596152344e+003,5.2000000000e+003,5.1550000000e+003,5.1537177734e+003,5.1364101563e+003,
9.4531250000e-001,5.0975639648e+003,5.2493588867e+003,5.2078203125e+003,5.1857690430e+003,5.2216665039e+003,5.1901284180e+003,5.1755126953e+003,5.1878203125e+003,5.1591025391e+003,5.1993588867e+003,5.2438461914e+003,5.1944873047e+003,5.2000000000e+003,5.1757690430e+003,
9.5312500000e-001,5.1426923828e+003,5.2980771484e+003,5.2567949219e+003,5.2311538086e+003,5.2778203125e+003,5.2384614258e+003,5.2193588867e+003,5.2387177734e+003,5.2070512695e+003,5.2501284180e+003,5.2929487305e+003,5.2408974609e+003,5.2541025391e+003,5.2224360352e+003,
9.6093750000e-001,4.4300000000e+003,4.5715385742e+003,4.5878203125e+003,4.5561538086e+003,4.5573076172e+003,4.5580771484e+003,4.5442309570e+003,4.5764101563e+003,4.5546152344e+003,4.5693588867e+003,4.5870512695e+003,4.5673076172e+003,4.5548715820e+003,4.5480771484e+003,
9.6875000000e-001,4.1456411133e+003,4.2761538086e+003,4.3080771484e+003,4.2774360352e+003,4.2635898438e+003,4.2815385742e+003,4.2771796875e+003,4.2973076172e+003,4.2812822266e+003,4.2730771484e+003,4.2937177734e+003,4.2852563477e+003,4.2660258789e+003,4.2702563477e+003,
9.7656250000e-001,3.8635898438e+003,3.9533332520e+003,3.9965385742e+003,3.9664101563e+003,3.9483332520e+003,3.9805129395e+003,3.9894870605e+003,3.9897436523e+003,3.9879487305e+003,3.9373076172e+003,3.9723076172e+003,3.9717949219e+003,3.9557692871e+003,3.9689743652e+003,
9.8437500000e-001,3.6542307129e+003,3.7065385742e+003,3.7730769043e+003,3.7564101563e+003,3.6741025391e+003,3.7552563477e+003,3.7705129395e+003,3.7696154785e+003,3.7760256348e+003,3.7055129395e+003,3.7394870605e+003,3.7505129395e+003,3.7358974609e+003,3.7465385742e+003,
9.9218750000e-001,3.5725642090e+003,3.6147436523e+003,3.6858974609e+003,3.6780769043e+003,3.5921794434e+003,3.6714101563e+003,3.6919230957e+003,3.6839743652e+003,3.6932050781e+003,3.6170512695e+003,3.6455129395e+003,3.6611538086e+003,3.6496154785e+003,3.6607692871e+003,
1.0000000000e+000,3.5028205566e+003,3.5087180176e+003,3.5860256348e+003,3.5807692871e+003,3.5480769043e+003,3.5775642090e+003,3.6005129395e+003,3.5814101563e+003,3.5956411133e+003,3.5101281738e+003,3.5329487305e+003,3.5621794434e+003,3.5453845215e+003,3.5650000000e+003,
1.0078125000e+000,3.4579487305e+003,3.4383332520e+003,3.5153845215e+003,3.5119230957e+003,3.4637180176e+003,3.5065385742e+003,3.5303845215e+003,3.5105129395e+003,3.5258974609e+003,3.4306411133e+003,3.4720512695e+003,3.4955129395e+003,3.4778205566e+003,3.4946154785e+003,
1.0156250000e+000,3.4321794434e+003,3.4065385742e+003,3.4842307129e+003,3.4835898438e+003,3.4207692871e+003,3.4744870605e+003,3.5006411133e+003,3.4801281738e+003,3.4957692871e+003,3.3992307129e+003,3.4393588867e+003,3.4642307129e+003,3.4480769043e+003,3.4648718262e+003,
1.0234375000e+000,3.2800000000e+003,3.2220512695e+003,3.3125642090e+003,3.3135898438e+003,3.2401281738e+003,3.3046154785e+003,3.3346154785e+003,3.3100000000e+003,3.3308974609e+003,3.2294870605e+003,3.2457692871e+003,3.2946154785e+003,3.2734614258e+003,3.2942307129e+003,
1.0312500000e+000,3.2214101563e+003,3.1510256348e+003,3.2473076172e+003,3.2505129395e+003,3.1770512695e+003,3.2428205566e+003,3.2733332520e+003,3.2455129395e+003,3.2676923828e+003,3.1607692871e+003,3.1756411133e+003,3.2297436523e+003,3.2067949219e+003,3.2276923828e+003,
1.0390625000e+000,3.2038461914e+003,3.1164101563e+003,3.2155129395e+003,3.2212819824e+003,3.1329487305e+003,3.2111538086e+003,3.2444870605e+003,3.2071794434e+003,3.2296154785e+003,3.1129487305e+003,3.1480769043e+003,3.1971794434e+003,3.1714101563e+003,3.1987180176e+003,
1.0468750000e+000,3.2661538086e+003,3.1743588867e+003,3.2679487305e+003,3.2712819824e+003,3.1732050781e+003,3.2602563477e+003,3.2946154785e+003,3.2551281738e+003,3.2767949219e+003,3.1629487305e+003,3.2085898438e+003,3.2501281738e+003,3.2264101563e+003,3.2564101563e+003,
1.0546875000e+000,3.4055129395e+003,3.2997436523e+003,3.3820512695e+003,3.3883332520e+003,3.2961538086e+003,3.3678205566e+003,3.4050000000e+003,3.3742307129e+003,3.3960256348e+003,3.3089743652e+003,3.3291025391e+003,3.3735898438e+003,3.3632050781e+003,3.3782050781e+003,
1.0625000000e+000,3.3634614258e+003,3.2494870605e+003,3.3343588867e+003,3.3507692871e+003,3.2715385742e+003,3.3232050781e+003,3.3611538086e+003,3.3324357910e+003,3.3555129395e+003,3.2666667480e+003,3.2752563477e+003,3.3297436523e+003,3.3143588867e+003,3.3294870605e+003,
1.0703125000e+000,3.3085898438e+003,3.1866667480e+003,3.2716667480e+003,3.2991025391e+003,3.2303845215e+003,3.2675642090e+003,3.3038461914e+003,3.2753845215e+003,3.3000000000e+003,3.2024357910e+003,3.2097436523e+003,3.2703845215e+003,3.2458974609e+003,3.2673076172e+003,
1.0781250000e+000,3.2707692871e+003,3.1425642090e+003,3.2242307129e+003,3.2588461914e+003,3.1930769043e+003,3.2287180176e+003,3.2610256348e+003,3.2316667480e+003,3.2582050781e+003,3.1506411133e+003,3.1660256348e+003,3.2256411133e+003,3.1932050781e+003,3.2228205566e+003,
1.0859375000e+000,3.2847436523e+003,3.1308974609e+003,3.2200000000e+003,3.2356411133e+003,3.1457692871e+003,3.2194870605e+003,3.2478205566e+003,3.2089743652e+003,3.2432050781e+003,3.1420512695e+003,3.1656411133e+003,3.2096154785e+003,3.2051281738e+003,3.2214101563e+003,
1.0937500000e+000,3.3002563477e+003,3.1394870605e+003,3.2302563477e+003,3.2467949219e+003,3.1606411133e+003,3.2274357910e+003,3.2557692871e+003,3.2167949219e+003,3.2542307129e+003,3.1532050781e+003,3.1696154785e+003,3.2183332520e+003,3.2174357910e+003,3.2317949219e+003,
1.1015625000e+000,3.3576923828e+003,3.1903845215e+003,3.2666667480e+003,3.2974357910e+003,3.2075642090e+003,3.2697436523e+003,3.2969230957e+003,3.2614101563e+003,3.3019230957e+003,3.1932050781e+003,3.2139743652e+003,3.2685898438e+003,3.2392307129e+003,3.2767949219e+003,
1.1093750000e+000,3.4175642090e+003,3.2556411133e+003,3.3253845215e+003,3.3414101563e+003,3.2411538086e+003,3.3332050781e+003,3.3578205566e+003,3.3211538086e+003,3.3587180176e+003,3.2621794434e+003,3.2794870605e+003,3.3171794434e+003,3.3107692871e+003,3.3278205566e+003,
1.1171875000e+000,3.4498718262e+003,3.2882050781e+003,3.3567949219e+003,3.3694870605e+003,3.2750000000e+003,3.3616667480e+003,3.3857692871e+003,3.3508974609e+003,3.3867949219e+003,3.2937180176e+003,3.3117949219e+003,3.3489743652e+003,3.3432050781e+003,3.3574357910e+003,
1.1250000000e+000,3.5064101563e+003,3.3473076172e+003,3.4103845215e+003,3.4491025391e+003,3.3685898438e+003,3.4076923828e+003,3.4323076172e+003,3.4053845215e+003,3.4337180176e+003,3.3473076172e+003,3.3610256348e+003,3.4071794434e+003,3.3912819824e+003,3.4094870605e+003,
1.1328125000e+000,3.5125642090e+003,3.3579487305e+003,3.4224357910e+003,3.4448718262e+003,3.3800000000e+003,3.4225642090e+003,3.4470512695e+003,3.4165385742e+003,3.4435898438e+003,3.3637180176e+003,3.3797436523e+003,3.4197436523e+003,3.3984614258e+003,3.4180769043e+003,
1.1406250000e+000,3.5269230957e+003,3.3688461914e+003,3.4364101563e+003,3.4458974609e+003,3.3896154785e+003,3.4344870605e+003,3.4594870605e+003,3.4298718262e+003,3.4564101563e+003,3.3784614258e+003,3.4028205566e+003,3.4356411133e+003,3.4108974609e+003,3.4355129395e+003,
1.1484375000e+000,3.4644870605e+003,3.3044870605e+003,3.3670512695e+003,3.3839743652e+003,3.3192307129e+003,3.3651281738e+003,3.3926923828e+003,3.3674357910e+003,3.3926923828e+003,3.3142307129e+003,3.3433332520e+003,3.3620512695e+003,3.3525642090e+003,3.3703845215e+003,
1.1562500000e+000,3.4130769043e+003,3.2516667480e+003,3.3143588867e+003,3.3358974609e+003,3.2546154785e+003,3.3139743652e+003,3.3403845215e+003,3.3133332520e+003,3.3397436523e+003,3.2564101563e+003,3.2789743652e+003,3.3066667480e+003,3.2974357910e+003,3.3139743652e+003,
1.1640625000e+000,3.3246154785e+003,3.1491025391e+003,3.2216667480e+003,3.2362819824e+003,3.1419230957e+003,3.2191025391e+003,3.2428205566e+003,3.2148718262e+003,3.2467949219e+003,3.1555129395e+003,3.1666667480e+003,3.2156411133e+003,3.1951281738e+003,3.2200000000e+003,
1.1718750000e+000,3.2692307129e+003,3.0838461914e+003,3.1639743652e+003,3.1725642090e+003,3.0843588867e+003,3.1576923828e+003,3.1830769043e+003,3.1565385742e+003,3.1906411133e+003,3.0966667480e+003,3.1071794434e+003,3.1608974609e+003,3.1353845215e+003,3.1662819824e+003,
1.1796875000e+000,3.0714101563e+003,2.8685898438e+003,2.9667949219e+003,2.9719230957e+003,2.8914101563e+003,2.9543588867e+003,2.9903845215e+003,2.9582050781e+003,2.9923076172e+003,2.8780769043e+003,2.9029487305e+003,2.9598718262e+003,2.9242307129e+003,2.9687180176e+003,
1.1875000000e+000,3.0617949219e+003,2.8579487305e+003,2.9528205566e+003,2.9610256348e+003,2.8787180176e+003,2.9456411133e+003,2.9807692871e+003,2.9446154785e+003,2.9812819824e+003,2.8635898438e+003,2.8885898438e+003,2.9443588867e+003,2.9091025391e+003,2.9521794434e+003,
1.1953125000e+000,3.0805129395e+003,2.8751281738e+003,2.9635898438e+003,2.9766667480e+003,2.8932050781e+003,2.9635898438e+003,2.9967949219e+003,2.9582050781e+003,2.9978205566e+003,2.8825642090e+003,2.9016667480e+003,2.9561538086e+003,2.9250000000e+003,2.9641025391e+003,
1.2031250000e+000,3.1032050781e+003,2.8939743652e+003,2.9778205566e+003,2.9967949219e+003,2.9134614258e+003,2.9838461914e+003,3.0160256348e+003,2.9762819824e+003,3.0176923828e+003,2.9089743652e+003,2.9185898438e+003,2.9733332520e+003,2.9466667480e+003,2.9830769043e+003,
1.2109375000e+000,3.1416667480e+003,2.9257692871e+003,3.0078205566e+003,3.0275642090e+003,2.9615385742e+003,3.0157692871e+003,3.0485898438e+003,3.0103845215e+003,3.0487180176e+003,2.9492307129e+003,2.9601281738e+003,3.0035898438e+003,2.9724357910e+003,3.0175642090e+003,
1.2187500000e+000,3.1421794434e+003,2.9252563477e+003,3.0089743652e+003,3.0200000000e+003,2.9462819824e+003,3.0150000000e+003,3.0458974609e+003,3.0100000000e+003,3.0482050781e+003,2.9447436523e+003,2.9584614258e+003,3.0006411133e+003,2.9715385742e+003,3.0137180176e+003,
1.2265625000e+000,3.0869230957e+003,2.8457692871e+003,2.9426923828e+003,2.9469230957e+003,2.8602563477e+003,2.9456411133e+003,2.9794870605e+003,2.9347436523e+003,2.9787180176e+003,2.8623076172e+003,2.8701281738e+003,2.9333332520e+003,2.9084614258e+003,2.9439743652e+003,
1.2343750000e+000,3.2242307129e+003,2.9787180176e+003,3.0607692871e+003,3.0811538086e+003,3.0226923828e+003,3.0679487305e+003,3.1028205566e+003,3.0570512695e+003,3.1006411133e+003,3.0014101563e+003,3.0117949219e+003,3.0666667480e+003,3.0347436523e+003,3.0720512695e+003,
1.2421875000e+000,3.2937180176e+003,3.0520512695e+003,3.1285898438e+003,3.1441025391e+003,3.0837180176e+003,3.1306411133e+003,3.1642307129e+003,3.1229487305e+003,3.1666667480e+003,3.0765385742e+003,3.0835898438e+003,3.1360256348e+003,3.1032050781e+003,3.1379487305e+003,
1.2500000000e+000,3.4120512695e+003,3.1785898438e+003,3.2528205566e+003,3.2551281738e+003,3.1864101563e+003,3.2365385742e+003,3.2662819824e+003,3.2352563477e+003,3.2800000000e+003,3.1998718262e+003,3.1979487305e+003,3.2498718262e+003,3.2225642090e+003,3.2489743652e+003,
1.2578125000e+000,3.4180769043e+003,3.1823076172e+003,3.2600000000e+003,3.2778205566e+003,3.2116667480e+003,3.2491025391e+003,3.2744870605e+003,3.2441025391e+003,3.2800000000e+003,3.2093588867e+003,3.2207692871e+003,3.2647436523e+003,3.2252563477e+003,3.2596154785e+003,
1.2656250000e+000,3.4224357910e+003,3.1884614258e+003,3.2642307129e+003,3.2810256348e+003,3.2126923828e+003,3.2543588867e+003,3.2792307129e+003,3.2489743652e+003,3.2850000000e+003,3.2155129395e+003,3.2265385742e+003,3.2706411133e+003,3.2302563477e+003,3.2638461914e+003,
1.2734375000e+000,3.4320512695e+003,3.2030769043e+003,3.2757692871e+003,3.2880769043e+003,3.2217949219e+003,3.2658974609e+003,3.2917949219e+003,3.2606411133e+003,3.2978205566e+003,3.2279487305e+003,3.2344870605e+003,3.2812819824e+003,3.2439743652e+003,3.2735898438e+003,
1.2812500000e+000,3.4892307129e+003,3.2752563477e+003,3.3353845215e+003,3.3407692871e+003,3.2876923828e+003,3.3285898438e+003,3.3579487305e+003,3.3230769043e+003,3.3600000000e+003,3.2937180176e+003,3.2892307129e+003,3.3387180176e+003,3.3158974609e+003,3.3315385742e+003,
1.2890625000e+000,3.6294870605e+003,3.4252563477e+003,3.4710256348e+003,3.4766667480e+003,3.4167949219e+003,3.4715385742e+003,3.4978205566e+003,3.4633332520e+003,3.4964101563e+003,3.4517949219e+003,3.4464101563e+003,3.4815385742e+003,3.4638461914e+003,3.4688461914e+003,
1.2968750000e+000,3.6639743652e+003,3.4628205566e+003,3.5079487305e+003,3.5119230957e+003,3.4615385742e+003,3.5087180176e+003,3.5329487305e+003,3.4973076172e+003,3.5307692871e+003,3.4888461914e+003,3.4870512695e+003,3.5198718262e+003,3.4984614258e+003,3.5044870605e+003,
1.3046875000e+000,3.7071794434e+003,3.5129487305e+003,3.5546154785e+003,3.5578205566e+003,3.5261538086e+003,3.5558974609e+003,3.5783332520e+003,3.5412819824e+003,3.5747436523e+003,3.5326923828e+003,3.5342307129e+003,3.5661538086e+003,3.5448718262e+003,3.5502563477e+003,
1.3125000000e+000,3.8301281738e+003,3.6525642090e+003,3.6824357910e+003,3.6866667480e+003,3.6783332520e+003,3.6861538086e+003,3.7050000000e+003,3.6742307129e+003,3.7025642090e+003,3.6608974609e+003,3.6630769043e+003,3.6933332520e+003,3.6784614258e+003,3.6792307129e+003,
1.3203125000e+000,3.8670512695e+003,3.6923076172e+003,3.7225642090e+003,3.7246154785e+003,3.7094870605e+003,3.7246154785e+003,3.7428205566e+003,3.7196154785e+003,3.7438461914e+003,3.7052563477e+003,3.7051281738e+003,3.7346154785e+003,3.7173076172e+003,3.7193588867e+003,
1.3281250000e+000,3.8557692871e+003,3.6787180176e+003,3.7158974609e+003,3.7128205566e+003,3.6865385742e+003,3.7143588867e+003,3.7330769043e+003,3.7156411133e+003,3.7370512695e+003,3.7014101563e+003,3.6996154785e+003,3.7289743652e+003,3.7050000000e+003,3.7111538086e+003,
1.3359375000e+000,3.7482050781e+003,3.5970512695e+003,3.6216667480e+003,3.6223076172e+003,3.6230769043e+003,3.6351281738e+003,3.6476923828e+003,3.6150000000e+003,3.6412819824e+003,3.6130769043e+003,3.6103845215e+003,3.6335898438e+003,3.6128205566e+003,3.6129487305e+003,
1.3437500000e+000,3.8017949219e+003,3.6575642090e+003,3.6769230957e+003,3.6780769043e+003,3.6714101563e+003,3.6870512695e+003,3.6987180176e+003,3.6701281738e+003,3.6938461914e+003,3.6698718262e+003,3.6629487305e+003,3.6887180176e+003,3.6658974609e+003,3.6664101563e+003,
1.3515625000e+000,3.8175642090e+003,3.6675642090e+003,3.6992307129e+003,3.6885898438e+003,3.6603845215e+003,3.6984614258e+003,3.7108974609e+003,3.6921794434e+003,3.7107692871e+003,3.6879487305e+003,3.6744870605e+003,3.7042307129e+003,3.6887180176e+003,3.6819230957e+003,
1.3593750000e+000,3.8880769043e+003,3.7567949219e+003,3.7774357910e+003,3.7679487305e+003,3.7771794434e+003,3.7857692871e+003,3.7957692871e+003,3.7643588867e+003,3.7862819824e+003,3.7694870605e+003,3.7615385742e+003,3.7833332520e+003,3.7683332520e+003,3.7692307129e+003,
1.3671875000e+000,3.9657692871e+003,3.8461538086e+003,3.8548718262e+003,3.8500000000e+003,3.8705129395e+003,3.8620512695e+003,3.8711538086e+003,3.8421794434e+003,3.8633332520e+003,3.8525642090e+003,3.8475642090e+003,3.8638461914e+003,3.8483332520e+003,3.8523076172e+003,
1.3750000000e+000,3.9980769043e+003,3.8907692871e+003,3.8916667480e+003,3.8816667480e+003,3.8844870605e+003,3.8892307129e+003,3.8980769043e+003,3.8838461914e+003,3.9014101563e+003,3.8966667480e+003,3.9030769043e+003,3.9053845215e+003,3.8964101563e+003,3.8910256348e+003,
1.3828125000e+000,3.9467949219e+003,3.8474357910e+003,3.8537180176e+003,3.8264101563e+003,3.8397436523e+003,3.8462819824e+003,3.8528205566e+003,3.8343588867e+003,3.8514101563e+003,3.8516667480e+003,3.8333332520e+003,3.8557692871e+003,3.8521794434e+003,3.8419230957e+003,
1.3906250000e+000,3.9300000000e+003,3.8325642090e+003,3.8416667480e+003,3.8160256348e+003,3.8383332520e+003,3.8317949219e+003,3.8385898438e+003,3.8210256348e+003,3.8361538086e+003,3.8358974609e+003,3.8192307129e+003,3.8448718262e+003,3.8315385742e+003,3.8301281738e+003,
1.3984375000e+000,3.8767949219e+003,3.7775642090e+003,3.7935898438e+003,3.7687180176e+003,3.7900000000e+003,3.7814101563e+003,3.7901281738e+003,3.7729487305e+003,3.7862819824e+003,3.7825642090e+003,3.7764101563e+003,3.7991025391e+003,3.7741025391e+003,3.7826923828e+003,
1.4062500000e+000,3.6957692871e+003,3.5867949219e+003,3.6176923828e+003,3.5875642090e+003,3.5838461914e+003,3.6064101563e+003,3.6197436523e+003,3.5991025391e+003,3.6143588867e+003,3.6001281738e+003,3.6088461914e+003,3.6212819824e+003,3.5944870605e+003,3.6066667480e+003,
1.4140625000e+000,3.6155129395e+003,3.5024357910e+003,3.5365385742e+003,3.5032050781e+003,3.4912819824e+003,3.5274357910e+003,3.5416667480e+003,3.5179487305e+003,3.5360256348e+003,3.5171794434e+003,3.5196154785e+003,3.5353845215e+003,3.5189743652e+003,3.5244870605e+003,
1.4218750000e+000,3.5644870605e+003,3.4476923828e+003,3.4834614258e+003,3.4484614258e+003,3.4375642090e+003,3.4748718262e+003,3.4897436523e+003,3.4624357910e+003,3.4830769043e+003,3.4594870605e+003,3.4521794434e+003,3.4778205566e+003,3.4692307129e+003,3.4703845215e+003,
1.4296875000e+000,3.5800000000e+003,3.4565385742e+003,3.4876923828e+003,3.4653845215e+003,3.4725642090e+003,3.4730769043e+003,3.4925642090e+003,3.4562819824e+003,3.4893588867e+003,3.4553845215e+003,3.4583332520e+003,3.4864101563e+003,3.4624357910e+003,3.4762819824e+003,
1.4375000000e+000,3.5966667480e+003,3.4741025391e+003,3.5020512695e+003,3.4838461914e+003,3.4817949219e+003,3.4906411133e+003,3.5117949219e+003,3.4744870605e+003,3.5074357910e+003,3.4767949219e+003,3.4775642090e+003,3.5019230957e+003,3.4824357910e+003,3.4920512695e+003,
1.4453125000e+000,3.7600000000e+003,3.6400000000e+003,3.6638461914e+003,3.6515385742e+003,3.6312819824e+003,3.6619230957e+003,3.6769230957e+003,3.6435898438e+003,3.6643588867e+003,3.6462819824e+003,3.6341025391e+003,3.6615385742e+003,3.6530769043e+003,3.6508974609e+003,
1.4531250000e+000,3.8441025391e+003,3.7302563477e+003,3.7471794434e+003,3.7357692871e+003,3.7223076172e+003,3.7466667480e+003,3.7592307129e+003,3.7298718262e+003,3.7494870605e+003,3.7351281738e+003,3.7264101563e+003,3.7470512695e+003,3.7388461914e+003,3.7341025391e+003,
1.4609375000e+000,3.9544870605e+003,3.8546154785e+003,3.8565385742e+003,3.8424357910e+003,3.8562819824e+003,3.8558974609e+003,3.8691025391e+003,3.8467949219e+003,3.8689743652e+003,3.8620512695e+003,3.8555129395e+003,3.8641025391e+003,3.8543588867e+003,3.8483332520e+003,
1.4687500000e+000,3.9743588867e+003,3.8784614258e+003,3.8769230957e+003,3.8607692871e+003,3.8842307129e+003,3.8751281738e+003,3.8889743652e+003,3.8706411133e+003,3.8929487305e+003,3.8901281738e+003,3.8775642090e+003,3.8869230957e+003,3.8756411133e+003,3.8717949219e+003,
1.4765625000e+000,3.9641025391e+003,3.8725642090e+003,3.8760256348e+003,3.8480769043e+003,3.8551281738e+003,3.8688461914e+003,3.8798718262e+003,3.8660256348e+003,3.8862819824e+003,3.8900000000e+003,3.8732050781e+003,3.8833332520e+003,3.8730769043e+003,3.8705129395e+003,
1.4843750000e+000,3.9483332520e+003,3.8624357910e+003,3.8729487305e+003,3.8362819824e+003,3.8553845215e+003,3.8601281738e+003,3.8675642090e+003,3.8466667480e+003,3.8738461914e+003,3.8756411133e+003,3.8733332520e+003,3.8756411133e+003,3.8751281738e+003,3.8665385742e+003,
1.4921875000e+000,3.9323076172e+003,3.8479487305e+003,3.8579487305e+003,3.8274357910e+003,3.8555129395e+003,3.8439743652e+003,3.8500000000e+003,3.8350000000e+003,3.8603845215e+003,3.8608974609e+003,3.8582050781e+003,3.8611538086e+003,3.8596154785e+003,3.8532050781e+003,
1.5000000000e+000,3.8176923828e+003,3.7298718262e+003,3.7424357910e+003,3.7219230957e+003,3.7211538086e+003,3.7198718262e+003,3.7323076172e+003,3.7248718262e+003,3.7442307129e+003,3.7378205566e+003,3.7329487305e+003,3.7517949219e+003,3.7333332520e+003,3.7380769043e+003,
1.5078125000e+000,3.8156411133e+003,3.7292307129e+003,3.7407692871e+003,3.7160256348e+003,3.7029487305e+003,3.7158974609e+003,3.7320512695e+003,3.7197436523e+003,3.7417949219e+003,3.7365385742e+003,3.7310256348e+003,3.7512819824e+003,3.7314101563e+003,3.7370512695e+003,
1.5156250000e+000,3.8651281738e+003,3.7883332520e+003,3.7933332520e+003,3.7550000000e+003,3.7552563477e+003,3.7696154785e+003,3.7835898438e+003,3.7714101563e+003,3.7961538086e+003,3.7987180176e+003,3.7878205566e+003,3.8061538086e+003,3.7896154785e+003,3.7930769043e+003,
1.5234375000e+000,3.8665385742e+003,3.7926923828e+003,3.7965385742e+003,3.7529487305e+003,3.7730769043e+003,3.7747436523e+003,3.7844870605e+003,3.7782050781e+003,3.8011538086e+003,3.8057692871e+003,3.7925642090e+003,3.8111538086e+003,3.7964101563e+003,3.7979487305e+003,
1.5312500000e+000,3.7717949219e+003,3.6852563477e+003,3.7010256348e+003,3.6603845215e+003,3.6838461914e+003,3.6832050781e+003,3.6973076172e+003,3.6896154785e+003,3.7133332520e+003,3.7112819824e+003,3.7128205566e+003,3.7221794434e+003,3.7069230957e+003,3.7079487305e+003,
1.5390625000e+000,3.7605129395e+003,3.6706411133e+003,3.6911538086e+003,3.6514101563e+003,3.6601281738e+003,3.6732050781e+003,3.6917949219e+003,3.6780769043e+003,3.7042307129e+003,3.7011538086e+003,3.7067949219e+003,3.7135898438e+003,3.6938461914e+003,3.6984614258e+003,
1.5468750000e+000,3.7638461914e+003,3.6742307129e+003,3.6973076172e+003,3.6550000000e+003,3.6580769043e+003,3.6785898438e+003,3.6993588867e+003,3.6815385742e+003,3.7089743652e+003,3.7075642090e+003,3.7105129395e+003,3.7196154785e+003,3.6948718262e+003,3.7029487305e+003,
1.5546875000e+000,3.7741025391e+003,3.6866667480e+003,3.7096154785e+003,3.6633332520e+003,3.6742307129e+003,3.6902563477e+003,3.7101281738e+003,3.6911538086e+003,3.7185898438e+003,3.7205129395e+003,3.7144870605e+003,3.7300000000e+003,3.7037180176e+003,3.7116667480e+003,
1.5625000000e+000,3.8185898438e+003,3.7292307129e+003,3.7471794434e+003,3.7170512695e+003,3.7426923828e+003,3.7246154785e+003,3.7450000000e+003,3.7305129395e+003,3.7608974609e+003,3.7615385742e+003,3.7467949219e+003,3.7637180176e+003,3.7592307129e+003,3.7493588867e+003,
1.5703125000e+000,3.8351281738e+003,3.7471794434e+003,3.7629487305e+003,3.7360256348e+003,3.7512819824e+003,3.7408974609e+003,3.7642307129e+003,3.7508974609e+003,3.7793588867e+003,3.7802563477e+003,3.7757692871e+003,3.7851281738e+003,3.7778205566e+003,3.7712819824e+003,
1.5781250000e+000,3.8385898438e+003,3.7588461914e+003,3.7651281738e+003,3.7238461914e+003,3.7532050781e+003,3.7533332520e+003,3.7692307129e+003,3.7616667480e+003,3.7828205566e+003,3.7947436523e+003,3.7907692871e+003,3.7956411133e+003,3.7780769043e+003,3.7783332520e+003,
1.5859375000e+000,3.8301281738e+003,3.7532050781e+003,3.7608974609e+003,3.7192307129e+003,3.7371794434e+003,3.7461538086e+003,3.7643588867e+003,3.7487180176e+003,3.7708974609e+003,3.7762819824e+003,3.7651281738e+003,3.7816667480e+003,3.7703845215e+003,3.7675642090e+003,
1.5937500000e+000,3.8476923828e+003,3.7747436523e+003,3.7791025391e+003,3.7397436523e+003,3.7548718262e+003,3.7641025391e+003,3.7825642090e+003,3.7691025391e+003,3.7880769043e+003,3.7948718262e+003,3.7870512695e+003,3.7992307129e+003,3.7905129395e+003,3.7850000000e+003,
1.6015625000e+000,3.7584614258e+003,3.6883332520e+003,3.6996154785e+003,3.6567949219e+003,3.6857692871e+003,3.6830769043e+003,3.6982050781e+003,3.6896154785e+003,3.7023076172e+003,3.7161538086e+003,3.7128205566e+003,3.7211538086e+003,3.7011538086e+003,3.7010256348e+003,
1.6093750000e+000,3.6983332520e+003,3.6243588867e+003,3.6405129395e+003,3.5976923828e+003,3.6329487305e+003,3.6235898438e+003,3.6391025391e+003,3.6274357910e+003,3.6441025391e+003,3.6548718262e+003,3.6505129395e+003,3.6607692871e+003,3.6419230957e+003,3.6446154785e+003,
1.6171875000e+000,3.6160256348e+003,3.5348718262e+003,3.5555129395e+003,3.5160256348e+003,3.5585898438e+003,3.5416667480e+003,3.5597436523e+003,3.5421794434e+003,3.5682050781e+003,3.5705129395e+003,3.5593588867e+003,3.5758974609e+003,3.5651281738e+003,3.5692307129e+003,
1.6250000000e+000,3.6030769043e+003,3.5205129395e+003,3.5423076172e+003,3.5048718262e+003,3.5421794434e+003,3.5292307129e+003,3.5502563477e+003,3.5288461914e+003,3.5571794434e+003,3.5578205566e+003,3.5420512695e+003,3.5638461914e+003,3.5534614258e+003,3.5574357910e+003,
1.6328125000e+000,3.6091025391e+003,3.5271794434e+003,3.5489743652e+003,3.5138461914e+003,3.5401281738e+003,3.5352563477e+003,3.5589743652e+003,3.5335898438e+003,3.5621794434e+003,3.5632050781e+003,3.5446154785e+003,3.5697436523e+003,3.5583332520e+003,3.5620512695e+003,
1.6406250000e+000,3.6528205566e+003,3.5725642090e+003,3.5767949219e+003,3.5520512695e+003,3.5784614258e+003,3.5738461914e+003,3.5879487305e+003,3.5664101563e+003,3.5879487305e+003,3.5867949219e+003,3.5816667480e+003,3.5934614258e+003,3.5900000000e+003,3.5858974609e+003,
1.6484375000e+000,3.6715385742e+003,3.5867949219e+003,3.5944870605e+003,3.5653845215e+003,3.5915385742e+003,3.5916667480e+003,3.6070512695e+003,3.5828205566e+003,3.6041025391e+003,3.6034614258e+003,3.5962819824e+003,3.6084614258e+003,3.6093588867e+003,3.6021794434e+003,
1.6562500000e+000,3.7650000000e+003,3.6855129395e+003,3.6891025391e+003,3.6574357910e+003,3.6696154785e+003,3.6819230957e+003,3.7025642090e+003,3.6789743652e+003,3.7038461914e+003,3.7091025391e+003,3.6865385742e+003,3.7070512695e+003,3.7061538086e+003,3.6970512695e+003,
1.6640625000e+000,3.7634614258e+003,3.6856411133e+003,3.6885898438e+003,3.6580769043e+003,3.6734614258e+003,3.6788461914e+003,3.6985898438e+003,3.6800000000e+003,3.7034614258e+003,3.7096154785e+003,3.6906411133e+003,3.7125642090e+003,3.7016667480e+003,3.6971794434e+003,
1.6718750000e+000,3.7433332520e+003,3.6587180176e+003,3.6715385742e+003,3.6383332520e+003,3.6720512695e+003,3.6569230957e+003,3.6733332520e+003,3.6589743652e+003,3.6776923828e+003,3.6860256348e+003,3.6832050781e+003,3.6978205566e+003,3.6793588867e+003,3.6741025391e+003,
1.6796875000e+000,3.7012819824e+003,3.6260256348e+003,3.6391025391e+003,3.6121794434e+003,3.6393588867e+003,3.6298718262e+003,3.6467949219e+003,3.6167949219e+003,3.6441025391e+003,3.6514101563e+003,3.6325642090e+003,3.6591025391e+003,3.6603845215e+003,3.6356411133e+003,
1.6875000000e+000,3.6779487305e+003,3.6057692871e+003,3.6137180176e+003,3.5911538086e+003,3.6132050781e+003,3.6053845215e+003,3.6220512695e+003,3.5937180176e+003,3.6233332520e+003,3.6274357910e+003,3.6005129395e+003,3.6364101563e+003,3.6341025391e+003,3.6111538086e+003,
1.6953125000e+000,3.6628205566e+003,3.5891025391e+003,3.5951281738e+003,3.5755129395e+003,3.5942307129e+003,3.5864101563e+003,3.6037180176e+003,3.5769230957e+003,3.6070512695e+003,3.6083332520e+003,3.5789743652e+003,3.6201281738e+003,3.6126923828e+003,3.5925642090e+003,
1.7031250000e+000,3.6575642090e+003,3.5741025391e+003,3.5869230957e+003,3.5632050781e+003,3.5805129395e+003,3.5755129395e+003,3.5976923828e+003,3.5676923828e+003,3.5957692871e+003,3.5934614258e+003,3.5757692871e+003,3.6141025391e+003,3.5973076172e+003,3.5826923828e+003,
1.7109375000e+000,3.6684614258e+003,3.5885898438e+003,3.6015385742e+003,3.5588461914e+003,3.5817949219e+003,3.5921794434e+003,3.6166667480e+003,3.5843588867e+003,3.6174357910e+003,3.6185898438e+003,3.6065385742e+003,3.6335898438e+003,3.6174357910e+003,3.6023076172e+003,
1.7187500000e+000,3.6561538086e+003,3.5791025391e+003,3.5874357910e+003,3.5441025391e+003,3.5635898438e+003,3.5798718262e+003,3.6035898438e+003,3.5743588867e+003,3.6087180176e+003,3.6110256348e+003,3.5953845215e+003,3.6201281738e+003,3.6092307129e+003,3.5910256348e+003,
1.7265625000e+000,3.6370512695e+003,3.5600000000e+003,3.5642307129e+003,3.5239743652e+003,3.5397436523e+003,3.5591025391e+003,3.5821794434e+003,3.5547436523e+003,3.5893588867e+003,3.5906411133e+003,3.5730769043e+003,3.5970512695e+003,3.5900000000e+003,3.5705129395e+003,
1.7343750000e+000,3.6253845215e+003,3.5456411133e+003,3.5475642090e+003,3.5121794434e+003,3.5291025391e+003,3.5456411133e+003,3.5682050781e+003,3.5402563477e+003,3.5747436523e+003,3.5729487305e+003,3.5557692871e+003,3.5806411133e+003,3.5735898438e+003,3.5558974609e+003,
1.7421875000e+000,3.8293588867e+003,3.7512819824e+003,3.7523076172e+003,3.7110256348e+003,3.7737180176e+003,3.7501281738e+003,3.7671794434e+003,3.7356411133e+003,3.7692307129e+003,3.7696154785e+003,3.7487180176e+003,3.7802563477e+003,3.7634614258e+003,3.7485898438e+003,
1.7500000000e+000,3.8966667480e+003,3.8269230957e+003,3.8214101563e+003,3.7783332520e+003,3.8400000000e+003,3.8176923828e+003,3.8326923828e+003,3.8035898438e+003,3.8356411133e+003,3.8430769043e+003,3.8185898438e+003,3.8489743652e+003,3.8380769043e+003,3.8182050781e+003,
1.7578125000e+000,3.9742307129e+003,3.9256411133e+003,3.8989743652e+003,3.8579487305e+003,3.9029487305e+003,3.8998718262e+003,3.9102563477e+003,3.8844870605e+003,3.9137180176e+003,3.9405129395e+003,3.9200000000e+003,3.9348718262e+003,3.9287180176e+003,3.9044870605e+003,
1.7656250000e+000,4.1308974609e+003,4.0878205566e+003,4.0658974609e+003,4.0075642090e+003,4.0864101563e+003,4.0576923828e+003,4.0662819824e+003,4.0439743652e+003,4.0675642090e+003,4.0973076172e+003,4.0791025391e+003,4.0955129395e+003,4.0824357910e+003,4.0555129395e+003,
1.7734375000e+000,4.1614101563e+003,4.1248715820e+003,4.0996152344e+003,4.0403845215e+003,4.1234614258e+003,4.0926923828e+003,4.1007690430e+003,4.0828205566e+003,4.1062822266e+003,4.1369228516e+003,4.1165385742e+003,4.1312822266e+003,4.1174360352e+003,4.0901281738e+003,
1.7812500000e+000,3.9629487305e+003,3.9273076172e+003,3.9164101563e+003,3.8579487305e+003,3.8896154785e+003,3.9114101563e+003,3.9225642090e+003,3.9024357910e+003,3.9291025391e+003,3.9591025391e+003,3.9353845215e+003,3.9482050781e+003,3.9306411133e+003,3.9067949219e+003,
1.7890625000e+000,3.9524357910e+003,3.9108974609e+003,3.9032050781e+003,3.8270512695e+003,3.9126923828e+003,3.8884614258e+003,3.9034614258e+003,3.8816667480e+003,3.9073076172e+003,3.9279487305e+003,3.9121794434e+003,3.9307692871e+003,3.9129487305e+003,3.8933332520e+003,
1.7968750000e+000,3.9844870605e+003,3.9465385742e+003,3.9353845215e+003,3.8575642090e+003,3.9601281738e+003,3.9219230957e+003,3.9362819824e+003,3.9143588867e+003,3.9421794434e+003,3.9600000000e+003,3.9432050781e+003,3.9655129395e+003,3.9464101563e+003,3.9279487305e+003,
1.8046875000e+000,3.9956411133e+003,3.9608974609e+003,3.9488461914e+003,3.8741025391e+003,3.9737180176e+003,3.9382050781e+003,3.9515385742e+003,3.9274357910e+003,3.9588461914e+003,3.9748718262e+003,3.9561538086e+003,3.9805129395e+003,3.9612819824e+003,3.9423076172e+003,
1.8125000000e+000,3.9792307129e+003,3.9484614258e+003,3.9373076172e+003,3.8719230957e+003,3.9396154785e+003,3.9298718262e+003,3.9411538086e+003,3.9146154785e+003,3.9503845215e+003,3.9689743652e+003,3.9524357910e+003,3.9665385742e+003,3.9533332520e+003,3.9291025391e+003,
1.8203125000e+000,3.9764101563e+003,3.9458974609e+003,3.9347436523e+003,3.8683332520e+003,3.9332050781e+003,3.9260256348e+003,3.9375642090e+003,3.9124357910e+003,3.9469230957e+003,3.9693588867e+003,3.9571794434e+003,3.9634614258e+003,3.9514101563e+003,3.9266667480e+003,
1.8281250000e+000,4.0330769043e+003,3.9974357910e+003,3.9905129395e+003,3.9117949219e+003,4.0006411133e+003,3.9758974609e+003,3.9894870605e+003,3.9634614258e+003,3.9957692871e+003,4.0228205566e+003,4.0161538086e+003,4.0189743652e+003,4.0012819824e+003,3.9817949219e+003,
1.8359375000e+000,4.0514101563e+003,4.0178205566e+003,4.0125642090e+003,3.9371794434e+003,4.0202563477e+003,3.9966667480e+003,4.0092307129e+003,3.9830769043e+003,4.0158974609e+003,4.0433332520e+003,4.0320512695e+003,4.0366667480e+003,4.0230769043e+003,3.9993588867e+003,
1.8437500000e+000,4.0407692871e+003,4.0226923828e+003,4.0133332520e+003,3.9464101563e+003,4.0083332520e+003,3.9975642090e+003,4.0089743652e+003,3.9844870605e+003,4.0123076172e+003,4.0444870605e+003,4.0226923828e+003,4.0337180176e+003,4.0244870605e+003,3.9942307129e+003,
1.8515625000e+000,4.0374357910e+003,4.0292307129e+003,4.0137180176e+003,3.9455129395e+003,4.0026923828e+003,4.0003845215e+003,4.0123076172e+003,3.9850000000e+003,4.0096154785e+003,4.0471794434e+003,4.0224357910e+003,4.0358974609e+003,4.0251281738e+003,3.9961538086e+003,
1.8593750000e+000,4.0584614258e+003,4.0576923828e+003,4.0352563477e+003,3.9641025391e+003,4.0217949219e+003,4.0261538086e+003,4.0383332520e+003,4.0060256348e+003,4.0287180176e+003,4.0728205566e+003,4.0476923828e+003,4.0596154785e+003,4.0485898438e+003,4.0215385742e+003,
1.8671875000e+000,4.0784614258e+003,4.0702563477e+003,4.0638461914e+003,3.9953845215e+003,4.1008974609e+003,4.0526923828e+003,4.0620512695e+003,4.0419230957e+003,4.0615385742e+003,4.0960258789e+003,4.1010258789e+003,4.0958974609e+003,4.0689743652e+003,4.0567949219e+003,
1.8750000000e+000,4.0226923828e+003,4.0119230957e+003,4.0093588867e+003,3.9341025391e+003,4.0348718262e+003,3.9951281738e+003,4.0056411133e+003,3.9862819824e+003,4.0082050781e+003,4.0403845215e+003,4.0367949219e+003,4.0369230957e+003,4.0138461914e+003,3.9980769043e+003,
1.8828125000e+000,3.8514101563e+003,3.8367949219e+003,3.8385898438e+003,3.7733332520e+003,3.8319230957e+003,3.8294870605e+003,3.8415385742e+003,3.8100000000e+003,3.8391025391e+003,3.8714101563e+003,3.8405129395e+003,3.8573076172e+003,3.8492307129e+003,3.8215385742e+003,
1.8906250000e+000,3.8087180176e+003,3.7971794434e+003,3.7974357910e+003,3.7393588867e+003,3.7989743652e+003,3.7898718262e+003,3.8021794434e+003,3.7702563477e+003,3.8000000000e+003,3.8285898438e+003,3.8002563477e+003,3.8178205566e+003,3.8070512695e+003,3.7839743652e+003,
1.8984375000e+000,3.7293588867e+003,3.7219230957e+003,3.7214101563e+003,3.6592307129e+003,3.7262819824e+003,3.7144870605e+003,3.7270512695e+003,3.7003845215e+003,3.7330769043e+003,3.7487180176e+003,3.7306411133e+003,3.7480769043e+003,3.7274357910e+003,3.7162819824e+003,
1.9062500000e+000,3.6537180176e+003,3.6242307129e+003,3.6342307129e+003,3.5720512695e+003,3.6233332520e+003,3.6384614258e+003,3.6500000000e+003,3.6094870605e+003,3.6528205566e+003,3.6487180176e+003,3.6385898438e+003,3.6615385742e+003,3.6355129395e+003,3.6311538086e+003,
1.9140625000e+000,3.7108974609e+003,3.6806411133e+003,3.6864101563e+003,3.6308974609e+003,3.6876923828e+003,3.6910256348e+003,3.7016667480e+003,3.6610256348e+003,3.7029487305e+003,3.7043588867e+003,3.6911538086e+003,3.7101281738e+003,3.6888461914e+003,3.6808974609e+003,
1.9218750000e+000,3.8183332520e+003,3.7894870605e+003,3.7928205566e+003,3.7346154785e+003,3.8020512695e+003,3.7858974609e+003,3.7984614258e+003,3.7653845215e+003,3.8014101563e+003,3.8193588867e+003,3.7973076172e+003,3.8105129395e+003,3.7982050781e+003,3.7797436523e+003,
1.9296875000e+000,3.8465385742e+003,3.8191025391e+003,3.8219230957e+003,3.7575642090e+003,3.8293588867e+003,3.8098718262e+003,3.8237180176e+003,3.7944870605e+003,3.8287180176e+003,3.8505129395e+003,3.8276923828e+003,3.8406411133e+003,3.8293588867e+003,3.8074357910e+003,
1.9375000000e+000,3.9612819824e+003,3.9482050781e+003,3.9317949219e+003,3.8619230957e+003,3.9532050781e+003,3.9275642090e+003,3.9376923828e+003,3.9092307129e+003,3.9434614258e+003,3.9634614258e+003,3.9491025391e+003,3.9630769043e+003,3.9408974609e+003,3.9241025391e+003,
1.9453125000e+000,4.0273076172e+003,4.0174357910e+003,3.9957692871e+003,3.9275642090e+003,4.0203845215e+003,3.9938461914e+003,4.0034614258e+003,3.9726923828e+003,4.0062819824e+003,4.0291025391e+003,4.0137180176e+003,4.0273076172e+003,4.0065385742e+003,3.9891025391e+003,
1.9531250000e+000,4.0912819824e+003,4.0817949219e+003,4.0585898438e+003,3.9942307129e+003,4.0784614258e+003,4.0566667480e+003,4.0673076172e+003,4.0348718262e+003,4.0666667480e+003,4.0941025391e+003,4.0756411133e+003,4.0880769043e+003,4.0742307129e+003,4.0516667480e+003,
1.9609375000e+000,4.1373076172e+003,4.1276923828e+003,4.1052563477e+003,4.0467949219e+003,4.1143588867e+003,4.1029487305e+003,4.1151284180e+003,4.0828205566e+003,4.1120512695e+003,4.1432050781e+003,4.1219228516e+003,4.1326923828e+003,4.1273076172e+003,4.0979487305e+003,
1.9687500000e+000,4.1412822266e+003,4.1455126953e+003,4.1287177734e+003,4.0629487305e+003,4.1471796875e+003,4.1282050781e+003,4.1391025391e+003,4.1096152344e+003,4.1350000000e+003,4.1705126953e+003,4.1464101563e+003,4.1557690430e+003,4.1443588867e+003,4.1212822266e+003,
1.9765625000e+000,4.1842309570e+003,4.1919228516e+003,4.1720512695e+003,4.1005126953e+003,4.2038461914e+003,4.1717949219e+003,4.1806411133e+003,4.1493588867e+003,4.1755126953e+003,4.2152563477e+003,4.1955126953e+003,4.2005126953e+003,4.1867949219e+003,4.1648715820e+003,
1.9843750000e+000,4.5112822266e+003,4.5380771484e+003,4.4934614258e+003,4.4234614258e+003,4.5287177734e+003,4.4941025391e+003,4.5023076172e+003,4.4746152344e+003,4.4889741211e+003,4.5510258789e+003,4.5450000000e+003,4.5291025391e+003,4.5278203125e+003,4.4915385742e+003,
1.9921875000e+000,4.9926923828e+003,5.0726923828e+003,4.9897436523e+003,4.9151284180e+003,5.0538461914e+003,4.9842309570e+003,4.9856411133e+003,4.9725639648e+003,4.9778203125e+003,5.0733334961e+003,5.0508974609e+003,5.0228203125e+003,5.0292309570e+003,4.9814101563e+003,
2.0000000000e+000,5.1341025391e+003,5.2262822266e+003,5.1366665039e+003,5.0587177734e+003,5.2097436523e+003,5.1279487305e+003,5.1243588867e+003,5.1169228516e+003,5.1198715820e+003,5.2274360352e+003,5.2076923828e+003,5.1684614258e+003,5.1766665039e+003,5.1250000000e+003,
2.0078125000e+000,5.3473076172e+003,5.4710258789e+003,5.3682050781e+003,5.2847436523e+003,5.4388461914e+003,5.3539741211e+003,5.3333334961e+003,5.3457690430e+003,5.3389741211e+003,5.4756411133e+003,5.4670512695e+003,5.3992309570e+003,5.4225639648e+003,5.3529487305e+003,
2.0156250000e+000,5.1865385742e+003,5.3387177734e+003,5.2423076172e+003,5.1574360352e+003,5.2980771484e+003,5.2344873047e+003,5.2120512695e+003,5.2212822266e+003,5.2156411133e+003,5.3424360352e+003,5.3261538086e+003,5.2739741211e+003,5.2892309570e+003,5.2210258789e+003,
2.0234375000e+000,5.2162822266e+003,5.3743588867e+003,5.2797436523e+003,5.1939741211e+003,5.3317949219e+003,5.2757690430e+003,5.2525639648e+003,5.2528203125e+003,5.2479487305e+003,5.3694873047e+003,5.3584614258e+003,5.3093588867e+003,5.3193588867e+003,5.2546152344e+003,
2.0312500000e+000,5.5237177734e+003,5.7260258789e+003,5.6061538086e+003,5.5091025391e+003,5.7003847656e+003,5.6032050781e+003,5.5673076172e+003,5.5815385742e+003,5.5708974609e+003,5.7121796875e+003,5.7026923828e+003,5.6328203125e+003,5.6548715820e+003,5.5789741211e+003,
2.0390625000e+000,5.4762822266e+003,5.6919228516e+003,5.5721796875e+003,5.4692309570e+003,5.6693588867e+003,5.5633334961e+003,5.5276923828e+003,5.5516665039e+003,5.5373076172e+003,5.6830771484e+003,5.6701284180e+003,5.5985898438e+003,5.6205126953e+003,5.5457690430e+003,
2.0468750000e+000,5.1996152344e+003,5.4157690430e+003,5.3169228516e+003,5.2144873047e+003,5.3791025391e+003,5.3007690430e+003,5.2735898438e+003,5.2943588867e+003,5.2769228516e+003,5.4103847656e+003,5.3979487305e+003,5.3400000000e+003,5.3505126953e+003,5.2878203125e+003,
2.0546875000e+000,5.1135898438e+003,5.3239741211e+003,5.2325639648e+003,5.1379487305e+003,5.2802563477e+003,5.2202563477e+003,5.1950000000e+003,5.2064101563e+003,5.1910258789e+003,5.3143588867e+003,5.3039741211e+003,5.2541025391e+003,5.2620512695e+003,5.2019228516e+003,
2.0625000000e+000,5.2124360352e+003,5.4357690430e+003,5.3334614258e+003,5.2505126953e+003,5.4041025391e+003,5.3325639648e+003,5.3000000000e+003,5.2994873047e+003,5.2915385742e+003,5.4089741211e+003,5.4074360352e+003,5.3552563477e+003,5.3653847656e+003,5.3069228516e+003,
2.0703125000e+000,5.2292309570e+003,5.4592309570e+003,5.3565385742e+003,5.2697436523e+003,5.4358974609e+003,5.3514101563e+003,5.3192309570e+003,5.3234614258e+003,5.3138461914e+003,5.4358974609e+003,5.4369228516e+003,5.3788461914e+003,5.3864101563e+003,5.3324360352e+003,
2.0781250000e+000,5.1905126953e+003,5.4220512695e+003,5.3250000000e+003,5.2347436523e+003,5.4038461914e+003,5.3147436523e+003,5.2853847656e+003,5.2950000000e+003,5.2829487305e+003,5.4076923828e+003,5.4078203125e+003,5.3474360352e+003,5.3523076172e+003,5.3032050781e+003,
2.0859375000e+000,5.1025639648e+003,5.3316665039e+003,5.2434614258e+003,5.1519228516e+003,5.3121796875e+003,5.2303847656e+003,5.2046152344e+003,5.2174360352e+003,5.2042309570e+003,5.3264101563e+003,5.3228203125e+003,5.2657690430e+003,5.2697436523e+003,5.2239741211e+003,
2.0937500000e+000,4.8012822266e+003,5.0211538086e+003,4.9485898438e+003,4.8533334961e+003,4.9702563477e+003,4.9410258789e+003,4.9196152344e+003,4.9087177734e+003,4.9151284180e+003,4.9989741211e+003,5.0075639648e+003,4.9601284180e+003,4.9776923828e+003,4.9260258789e+003,
2.1015625000e+000,4.8493588867e+003,5.0656411133e+003,4.9942309570e+003,4.8994873047e+003,5.0283334961e+003,4.9844873047e+003,4.9656411133e+003,4.9503847656e+003,4.9575639648e+003,5.0402563477e+003,5.0520512695e+003,5.0038461914e+003,5.0179487305e+003,4.9694873047e+003,
2.1093750000e+000,4.9642309570e+003,5.1769228516e+003,5.1108974609e+003,5.0084614258e+003,5.1824360352e+003,5.1029487305e+003,5.0858974609e+003,5.0834614258e+003,5.0821796875e+003,5.1732050781e+003,5.1653847656e+003,5.1266665039e+003,5.1316665039e+003,5.0906411133e+003,
2.1171875000e+000,4.9080771484e+003,5.1196152344e+003,5.0588461914e+003,4.9544873047e+003,5.0800000000e+003,5.0571796875e+003,5.0382050781e+003,5.0321796875e+003,5.0314101563e+003,5.1160258789e+003,5.1183334961e+003,5.0778203125e+003,5.0751284180e+003,5.0437177734e+003,
2.1250000000e+000,4.9830771484e+003,5.1941025391e+003,5.1321796875e+003,5.0324360352e+003,5.1505126953e+003,5.1260258789e+003,5.1100000000e+003,5.1012822266e+003,5.0997436523e+003,5.1864101563e+003,5.1946152344e+003,5.1514101563e+003,5.1461538086e+003,5.1171796875e+003,
2.1328125000e+000,5.3001284180e+003,5.5326923828e+003,5.4484614258e+003,5.3420512695e+003,5.5185898438e+003,5.4319228516e+003,5.4146152344e+003,5.4228203125e+003,5.4137177734e+003,5.5303847656e+003,5.5310258789e+003,5.4692309570e+003,5.4903847656e+003,5.4374360352e+003,
2.1406250000e+000,5.2055126953e+003,5.4464101563e+003,5.3717949219e+003,5.2565385742e+003,5.3969228516e+003,5.3511538086e+003,5.3307690430e+003,5.3374360352e+003,5.3253847656e+003,5.4362822266e+003,5.4428203125e+003,5.3885898438e+003,5.4011538086e+003,5.3532050781e+003,
2.1484375000e+000,5.2217949219e+003,5.4624360352e+003,5.3876923828e+003,5.2748715820e+003,5.4008974609e+003,5.3664101563e+003,5.3497436523e+003,5.3491025391e+003,5.3367949219e+003,5.4432050781e+003,5.4596152344e+003,5.4003847656e+003,5.4102563477e+003,5.3662822266e+003,
2.1562500000e+000,5.3116665039e+003,5.5570512695e+003,5.4757690430e+003,5.3629487305e+003,5.4946152344e+003,5.4539741211e+003,5.4396152344e+003,5.4348715820e+003,5.4211538086e+003,5.5296152344e+003,5.5551284180e+003,5.4851284180e+003,5.4978203125e+003,5.4526923828e+003,
2.1640625000e+000,5.5911538086e+003,5.8578203125e+003,5.7605126953e+003,5.6411538086e+003,5.8193588867e+003,5.7341025391e+003,5.7132050781e+003,5.7188461914e+003,5.6973076172e+003,5.8244873047e+003,5.8528203125e+003,5.7700000000e+003,5.7919228516e+003,5.7362822266e+003,
2.1718750000e+000,5.5905126953e+003,5.8761538086e+003,5.7817949219e+003,5.6661538086e+003,5.8469228516e+003,5.7505126953e+003,5.7158974609e+003,5.7505126953e+003,5.7248715820e+003,5.8625639648e+003,5.8650000000e+003,5.7979487305e+003,5.8173076172e+003,5.7580771484e+003,
2.1796875000e+000,5.4221796875e+003,5.7060258789e+003,5.6214101563e+003,5.5028203125e+003,5.6700000000e+003,5.5898715820e+003,5.5591025391e+003,5.5912822266e+003,5.5680771484e+003,5.6983334961e+003,5.6982050781e+003,5.6358974609e+003,5.6505126953e+003,5.5946152344e+003,
2.1875000000e+000,5.0019228516e+003,5.2656411133e+003,5.2196152344e+003,5.0871796875e+003,5.2271796875e+003,5.1853847656e+003,5.1647436523e+003,5.1767949219e+003,5.1625639648e+003,5.2556411133e+003,5.2702563477e+003,5.2183334961e+003,5.2187177734e+003,5.1839741211e+003,
2.1953125000e+000,4.9633334961e+003,5.2242309570e+003,5.1800000000e+003,5.0539741211e+003,5.1888461914e+003,5.1488461914e+003,5.1274360352e+003,5.1380771484e+003,5.1257690430e+003,5.2096152344e+003,5.2287177734e+003,5.1798715820e+003,5.1775639648e+003,5.1482050781e+003,
2.2031250000e+000,4.9476923828e+003,5.2087177734e+003,5.1597436523e+003,5.0442309570e+003,5.1733334961e+003,5.1332050781e+003,5.1130771484e+003,5.1221796875e+003,5.1098715820e+003,5.1896152344e+003,5.2117949219e+003,5.1650000000e+003,5.1600000000e+003,5.1339741211e+003,
2.2109375000e+000,4.9425639648e+003,5.2042309570e+003,5.1492309570e+003,5.0424360352e+003,5.1650000000e+003,5.1260258789e+003,5.1097436523e+003,5.1155126953e+003,5.1016665039e+003,5.1820512695e+003,5.2056411133e+003,5.1589741211e+003,5.1525639648e+003,5.1274360352e+003,
2.2187500000e+000,4.9883334961e+003,5.2369228516e+003,5.1948715820e+003,5.0803847656e+003,5.2101284180e+003,5.1667949219e+003,5.1523076172e+003,5.1578203125e+003,5.1438461914e+003,5.2230771484e+003,5.2341025391e+003,5.1944873047e+003,5.1956411133e+003,5.1652563477e+003,
2.2265625000e+000,4.9735898438e+003,5.2188461914e+003,5.1793588867e+003,5.0670512695e+003,5.2064101563e+003,5.1511538086e+003,5.1353847656e+003,5.1401284180e+003,5.1285898438e+003,5.2028203125e+003,5.2182050781e+003,5.1811538086e+003,5.1791025391e+003,5.1514101563e+003,
2.2343750000e+000,5.0665385742e+003,5.3219228516e+003,5.2553847656e+003,5.1665385742e+003,5.3098715820e+003,5.2329487305e+003,5.2187177734e+003,5.2169228516e+003,5.2060258789e+003,5.2880771484e+003,5.3107690430e+003,5.2603847656e+003,5.2706411133e+003,5.2374360352e+003,
2.2421875000e+000,5.2001284180e+003,5.4614101563e+003,5.3865385742e+003,5.2916665039e+003,5.4170512695e+003,5.3696152344e+003,5.3492309570e+003,5.3634614258e+003,5.3457690430e+003,5.4367949219e+003,5.4453847656e+003,5.3925639648e+003,5.4067949219e+003,5.3743588867e+003,
2.2500000000e+000,5.1352563477e+003,5.3942309570e+003,5.3235898438e+003,5.2271796875e+003,5.3482050781e+003,5.3071796875e+003,5.2852563477e+003,5.3032050781e+003,5.2844873047e+003,5.3714101563e+003,5.3876923828e+003,5.3298715820e+003,5.3397436523e+003,5.3105126953e+003,
2.2578125000e+000,4.8642309570e+003,5.1153847656e+003,5.0634614258e+003,4.9737177734e+003,5.0902563477e+003,5.0467949219e+003,5.0288461914e+003,5.0356411133e+003,5.0217949219e+003,5.0874360352e+003,5.1082050781e+003,5.0603847656e+003,5.0646152344e+003,5.0357690430e+003,
2.2656250000e+000,4.8629487305e+003,5.1112822266e+003,5.0626923828e+003,4.9692309570e+003,5.0937177734e+003,5.0452563477e+003,5.0287177734e+003,5.0323076172e+003,5.0214101563e+003,5.0837177734e+003,5.0932050781e+003,5.0578203125e+003,5.0624360352e+003,5.0343588867e+003,
2.2734375000e+000,4.8837177734e+003,5.1280771484e+003,5.0794873047e+003,4.9778203125e+003,5.0958974609e+003,5.0573076172e+003,5.0410258789e+003,5.0493588867e+003,5.0419228516e+003,5.1055126953e+003,5.1107690430e+003,5.0765385742e+003,5.0807690430e+003,5.0589741211e+003,
2.2812500000e+000,4.8364101563e+003,5.0782050781e+003,5.0312822266e+003,4.9332050781e+003,5.0311538086e+003,5.0067949219e+003,4.9910258789e+003,5.0012822266e+003,4.9948715820e+003,5.0575639648e+003,5.0748715820e+003,5.0288461914e+003,5.0323076172e+003,5.0142309570e+003,
2.2890625000e+000,4.7567949219e+003,4.9875639648e+003,4.9424360352e+003,4.8702563477e+003,4.9707690430e+003,4.9320512695e+003,4.9152563477e+003,4.9153847656e+003,4.9124360352e+003,4.9620512695e+003,4.9855126953e+003,4.9346152344e+003,4.9520512695e+003,4.9253847656e+003,
2.2968750000e+000,4.8123076172e+003,5.0401284180e+003,4.9910258789e+003,4.9192309570e+003,5.0439741211e+003,4.9888461914e+003,4.9682050781e+003,4.9702563477e+003,4.9669228516e+003,5.0152563477e+003,5.0261538086e+003,4.9848715820e+003,5.0051284180e+003,4.9753847656e+003,
2.3046875000e+000,4.8451284180e+003,5.0705126953e+003,5.0203847656e+003,4.9429487305e+003,5.0824360352e+003,5.0220512695e+003,4.9979487305e+003,5.0051284180e+003,4.9997436523e+003,5.0482050781e+003,5.0534614258e+003,5.0171796875e+003,5.0343588867e+003,5.0061538086e+003,
2.3125000000e+000,4.8161538086e+003,5.0387177734e+003,4.9935898438e+003,4.9085898438e+003,5.0453847656e+003,4.9933334961e+003,4.9687177734e+003,4.9792309570e+003,4.9719228516e+003,5.0188461914e+003,5.0303847656e+003,4.9920512695e+003,5.0023076172e+003,4.9788461914e+003,
2.3203125000e+000,4.5964101563e+003,4.7932050781e+003,4.7796152344e+003,4.6942309570e+003,4.7685898438e+003,4.7588461914e+003,4.7533334961e+003,4.7475639648e+003,4.7453847656e+003,4.7705126953e+003,4.8008974609e+003,4.7642309570e+003,4.7738461914e+003,4.7471796875e+003,
2.3281250000e+000,4.5396152344e+003,4.7187177734e+003,4.7091025391e+003,4.6217949219e+003,4.7014101563e+003,4.6948715820e+003,4.6865385742e+003,4.6934614258e+003,4.6828203125e+003,4.7100000000e+003,4.7223076172e+003,4.7155126953e+003,4.7070512695e+003,4.6896152344e+003,
2.3359375000e+000,4.4598715820e+003,4.6326923828e+003,4.6289741211e+003,4.5439741211e+003,4.6146152344e+003,4.6138461914e+003,4.6094873047e+003,4.6120512695e+003,4.6042309570e+003,4.6258974609e+003,4.6398715820e+003,4.6338461914e+003,4.6260258789e+003,4.6083334961e+003,
2.3437500000e+000,4.4074360352e+003,4.5606411133e+003,4.5701284180e+003,4.4916665039e+003,4.5464101563e+003,4.5455126953e+003,4.5521796875e+003,4.5411538086e+003,4.5421796875e+003,4.5488461914e+003,4.5702563477e+003,4.5611538086e+003,4.5588461914e+003,4.5401284180e+003,
2.3515625000e+000,4.4517949219e+003,4.6037177734e+003,4.5994873047e+003,4.5403847656e+003,4.6119228516e+003,4.5850000000e+003,4.5811538086e+003,4.5746152344e+003,4.5787177734e+003,4.5866665039e+003,4.6110258789e+003,4.6001284180e+003,4.5923076172e+003,4.5789741211e+003,
2.3593750000e+000,4.4071796875e+003,4.5561538086e+003,4.5550000000e+003,4.4874360352e+003,4.5578203125e+003,4.5396152344e+003,4.5338461914e+003,4.5265385742e+003,4.5330771484e+003,4.5392309570e+003,4.5666665039e+003,4.5580771484e+003,4.5429487305e+003,4.5367949219e+003,
2.3671875000e+000,4.3625639648e+003,4.4961538086e+003,4.5011538086e+003,4.4256411133e+003,4.4880771484e+003,4.4828203125e+003,4.4805126953e+003,4.4693588867e+003,4.4788461914e+003,4.4761538086e+003,4.5135898438e+003,4.5043588867e+003,4.4832050781e+003,4.4850000000e+003,
2.3750000000e+000,4.3891025391e+003,4.5164101563e+003,4.5193588867e+003,4.4520512695e+003,4.5124360352e+003,4.5033334961e+003,4.5035898438e+003,4.4926923828e+003,4.5000000000e+003,4.4946152344e+003,4.5328203125e+003,4.5229487305e+003,4.5091025391e+003,4.5053847656e+003,
2.3828125000e+000,4.4603847656e+003,4.5811538086e+003,4.5771796875e+003,4.5288461914e+003,4.5753847656e+003,4.5626923828e+003,4.5619228516e+003,4.5602563477e+003,4.5626923828e+003,4.5641025391e+003,4.5900000000e+003,4.5839741211e+003,4.5882050781e+003,4.5700000000e+003,
2.3906250000e+000,4.4207690430e+003,4.5383334961e+003,4.5394873047e+003,4.4852563477e+003,4.5198715820e+003,4.5211538086e+003,4.5196152344e+003,4.5184614258e+003,4.5219228516e+003,4.5244873047e+003,4.5541025391e+003,4.5462822266e+003,4.5432050781e+003,4.5301284180e+003,
2.3984375000e+000,4.3241025391e+003,4.4315385742e+003,4.4460258789e+003,4.3875639648e+003,4.4003847656e+003,4.4244873047e+003,4.4269228516e+003,4.4183334961e+003,4.4224360352e+003,4.4174360352e+003,4.4583334961e+003,4.4506411133e+003,4.4338461914e+003,4.4296152344e+003,
2.4062500000e+000,4.3066665039e+003,4.4100000000e+003,4.4261538086e+003,4.3747436523e+003,4.3846152344e+003,4.4052563477e+003,4.4107690430e+003,4.3998715820e+003,4.4042309570e+003,4.3941025391e+003,4.4325639648e+003,4.4289741211e+003,4.4142309570e+003,4.4097436523e+003,
2.4140625000e+000,4.2310258789e+003,4.3330771484e+003,4.3376923828e+003,4.3007690430e+003,4.3362822266e+003,4.3188461914e+003,4.3238461914e+003,4.3205126953e+003,4.3334614258e+003,4.3184614258e+003,4.3424360352e+003,4.3397436523e+003,4.3328203125e+003,4.3308974609e+003,
2.4218750000e+000,4.2002563477e+003,4.2965385742e+003,4.3044873047e+003,4.2620512695e+003,4.3024360352e+003,4.2843588867e+003,4.2902563477e+003,4.2825639648e+003,4.2958974609e+003,4.2803847656e+003,4.3107690430e+003,4.3053847656e+003,4.2929487305e+003,4.2955126953e+003,
2.4296875000e+000,4.2251284180e+003,4.3107690430e+003,4.3250000000e+003,4.2767949219e+003,4.3164101563e+003,4.3034614258e+003,4.3119228516e+003,4.2957690430e+003,4.3066665039e+003,4.2914101563e+003,4.3307690430e+003,4.3225639648e+003,4.3085898438e+003,4.3112822266e+003,
2.4375000000e+000,4.3170512695e+003,4.3933334961e+003,4.4097436523e+003,4.3606411133e+003,4.3974360352e+003,4.3889741211e+003,4.3985898438e+003,4.3766665039e+003,4.3832050781e+003,4.3706411133e+003,4.4161538086e+003,4.4041025391e+003,4.3966665039e+003,4.3929487305e+003,
2.4453125000e+000,4.6046152344e+003,4.7083334961e+003,4.6864101563e+003,4.6616665039e+003,4.6979487305e+003,4.6737177734e+003,4.6712822266e+003,4.6665385742e+003,4.6670512695e+003,4.6762822266e+003,4.7088461914e+003,4.6912822266e+003,4.7052563477e+003,4.6841025391e+003,
2.4531250000e+000,4.6679487305e+003,4.7762822266e+003,4.7496152344e+003,4.7208974609e+003,4.7625639648e+003,4.7360258789e+003,4.7334614258e+003,4.7229487305e+003,4.7220512695e+003,4.7361538086e+003,4.7707690430e+003,4.7517949219e+003,4.7643588867e+003,4.7467949219e+003,
2.4609375000e+000,5.2251284180e+003,5.3478203125e+003,5.2923076172e+003,5.2487177734e+003,5.3138461914e+003,5.2776923828e+003,5.2679487305e+003,5.2571796875e+003,5.2451284180e+003,5.2917949219e+003,5.3364101563e+003,5.2873076172e+003,5.3133334961e+003,5.2870512695e+003,
2.4687500000e+000,5.4243588867e+003,5.5817949219e+003,5.5070512695e+003,5.4547436523e+003,5.5415385742e+003,5.4834614258e+003,5.4615385742e+003,5.4810258789e+003,5.4608974609e+003,5.5330771484e+003,5.5712822266e+003,5.5107690430e+003,5.5338461914e+003,5.5015385742e+003,
2.4765625000e+000,5.3950000000e+003,5.5555126953e+003,5.4852563477e+003,5.4292309570e+003,5.5134614258e+003,5.4570512695e+003,5.4352563477e+003,5.4542309570e+003,5.4347436523e+003,5.5051284180e+003,5.5442309570e+003,5.4867949219e+003,5.5033334961e+003,5.4773076172e+003,
2.4843750000e+000,5.3982050781e+003,5.5619228516e+003,5.4941025391e+003,5.4530771484e+003,5.4685898438e+003,5.4576923828e+003,5.4357690430e+003,5.4498715820e+003,5.4276923828e+003,5.4938461914e+003,5.5366665039e+003,5.4915385742e+003,5.4883334961e+003,5.4875639648e+003,
2.4921875000e+000,5.4817949219e+003,5.6776923828e+003,5.5794873047e+003,5.5387177734e+003,5.6075639648e+003,5.5466665039e+003,5.5162822266e+003,5.5426923828e+003,5.5102563477e+003,5.5917949219e+003,5.6219228516e+003,5.5652563477e+003,5.5894873047e+003,5.5806411133e+003,
2.5000000000e+000,5.5007690430e+003,5.7032050781e+003,5.5994873047e+003,5.5508974609e+003,5.6453847656e+003,5.5661538086e+003,5.5333334961e+003,5.5603847656e+003,5.5275639648e+003,5.6076923828e+003,5.6426923828e+003,5.5824360352e+003,5.6091025391e+003,5.6019228516e+003,
2.5078125000e+000,5.5237177734e+003,5.7255126953e+003,5.6300000000e+003,5.5652563477e+003,5.6437177734e+003,5.5908974609e+003,5.5550000000e+003,5.5796152344e+003,5.5505126953e+003,5.6280771484e+003,5.6788461914e+003,5.6184614258e+003,5.6308974609e+003,5.6357690430e+003,
2.5156250000e+000,5.5133334961e+003,5.7108974609e+003,5.6247436523e+003,5.5576923828e+003,5.6260258789e+003,5.5851284180e+003,5.5506411133e+003,5.5744873047e+003,5.5446152344e+003,5.6258974609e+003,5.6721796875e+003,5.6155126953e+003,5.6255126953e+003,5.6325639648e+003,
2.5234375000e+000,5.5047436523e+003,5.7035898438e+003,5.6234614258e+003,5.5542309570e+003,5.6287177734e+003,5.5842309570e+003,5.5544873047e+003,5.5756411133e+003,5.5443588867e+003,5.6252563477e+003,5.6693588867e+003,5.6138461914e+003,5.6269228516e+003,5.6339741211e+003,
2.5312500000e+000,5.5205126953e+003,5.7297436523e+003,5.6406411133e+003,5.5726923828e+003,5.6553847656e+003,5.6032050781e+003,5.5741025391e+003,5.5941025391e+003,5.5644873047e+003,5.6417949219e+003,5.6908974609e+003,5.6296152344e+003,5.6478203125e+003,5.6507690430e+003,
2.5390625000e+000,5.5074360352e+003,5.7508974609e+003,5.6467949219e+003,5.5807690430e+003,5.6555126953e+003,5.6207690430e+003,5.5885898438e+003,5.6103847656e+003,5.5823076172e+003,5.6603847656e+003,5.7100000000e+003,5.6379487305e+003,5.6655126953e+003,5.6528203125e+003,
2.5468750000e+000,5.4652563477e+003,5.7083334961e+003,5.6144873047e+003,5.5434614258e+003,5.6100000000e+003,5.5902563477e+003,5.5589741211e+003,5.5821796875e+003,5.5517949219e+003,5.6293588867e+003,5.6760258789e+003,5.6074360352e+003,5.6305126953e+003,5.6200000000e+003,
2.5546875000e+000,5.4279487305e+003,5.6664101563e+003,5.5841025391e+003,5.5067949219e+003,5.5708974609e+003,5.5600000000e+003,5.5303847656e+003,5.5542309570e+003,5.5221796875e+003,5.5952563477e+003,5.6412822266e+003,5.5773076172e+003,5.5941025391e+003,5.5885898438e+003,
2.5625000000e+000,5.4106411133e+003,5.6446152344e+003,5.5700000000e+003,5.4884614258e+003,5.5584614258e+003,5.5456411133e+003,5.5178203125e+003,5.5402563477e+003,5.5078203125e+003,5.5735898438e+003,5.6216665039e+003,5.5615385742e+003,5.5737177734e+003,5.5721796875e+003,
2.5703125000e+000,5.4882050781e+003,5.7373076172e+003,5.6553847656e+003,5.5962822266e+003,5.7048715820e+003,5.6414101563e+003,5.6112822266e+003,5.6341025391e+003,5.5961538086e+003,5.6617949219e+003,5.7132050781e+003,5.6475639648e+003,5.6657690430e+003,5.6547436523e+003,
2.5781250000e+000,5.4666665039e+003,5.7161538086e+003,5.6374360352e+003,5.5778203125e+003,5.6817949219e+003,5.6251284180e+003,5.5926923828e+003,5.6243588867e+003,5.5838461914e+003,5.6529487305e+003,5.7062822266e+003,5.6339741211e+003,5.6516665039e+003,5.6391025391e+003,
2.5859375000e+000,5.2511538086e+003,5.4885898438e+003,5.4373076172e+003,5.3543588867e+003,5.4400000000e+003,5.4216665039e+003,5.3956411133e+003,5.4278203125e+003,5.3851284180e+003,5.4403847656e+003,5.4984614258e+003,5.4291025391e+003,5.4487177734e+003,5.4376923828e+003,
2.5937500000e+000,5.2387177734e+003,5.4806411133e+003,5.4197436523e+003,5.3533334961e+003,5.4500000000e+003,5.4197436523e+003,5.3965385742e+003,5.4210258789e+003,5.3848715820e+003,5.4333334961e+003,5.4593588867e+003,5.4134614258e+003,5.4442309570e+003,5.4219228516e+003,
2.6015625000e+000,5.1976923828e+003,5.4371796875e+003,5.3802563477e+003,5.3161538086e+003,5.4074360352e+003,5.3807690430e+003,5.3553847656e+003,5.3852563477e+003,5.3512822266e+003,5.3960258789e+003,5.4239741211e+003,5.3771796875e+003,5.4003847656e+003,5.3808974609e+003,
2.6093750000e+000,4.9288461914e+003,5.1406411133e+003,5.1194873047e+003,5.0455126953e+003,5.0887177734e+003,5.1096152344e+003,5.0889741211e+003,5.1180771484e+003,5.0901284180e+003,5.1048715820e+003,5.1751284180e+003,5.1115385742e+003,5.1207690430e+003,5.1178203125e+003,
2.6171875000e+000,4.9639741211e+003,5.1629487305e+003,5.1460258789e+003,5.0891025391e+003,5.1532050781e+003,5.1342309570e+003,5.1229487305e+003,5.1410258789e+003,5.1157690430e+003,5.1244873047e+003,5.1724360352e+003,5.1334614258e+003,5.1526923828e+003,5.1442309570e+003,
2.6250000000e+000,4.9956411133e+003,5.1958974609e+003,5.1771796875e+003,5.1285898438e+003,5.2002563477e+003,5.1644873047e+003,5.1511538086e+003,5.1723076172e+003,5.1467949219e+003,5.1570512695e+003,5.1988461914e+003,5.1634614258e+003,5.1806411133e+003,5.1738461914e+003,
2.6328125000e+000,4.9884614258e+003,5.1903847656e+003,5.1706411133e+003,5.1261538086e+003,5.1934614258e+003,5.1576923828e+003,5.1403847656e+003,5.1678203125e+003,5.1405126953e+003,5.1516665039e+003,5.1961538086e+003,5.1569228516e+003,5.1685898438e+003,5.1657690430e+003,
2.6406250000e+000,4.8343588867e+003,5.0303847656e+003,5.0183334961e+003,4.9606411133e+003,5.0055126953e+003,5.0065385742e+003,4.9848715820e+003,5.0202563477e+003,4.9887177734e+003,4.9947436523e+003,5.0530771484e+003,5.0061538086e+003,5.0056411133e+003,5.0089741211e+003,
2.6484375000e+000,4.5911538086e+003,4.7578203125e+003,4.7698715820e+003,4.7000000000e+003,4.7512822266e+003,4.7606411133e+003,4.7478203125e+003,4.7644873047e+003,4.7448715820e+003,4.7267949219e+003,4.7741025391e+003,4.7479487305e+003,4.7529487305e+003,4.7580771484e+003,
2.6562500000e+000,4.5653847656e+003,4.7248715820e+003,4.7400000000e+003,4.6802563477e+003,4.7246152344e+003,4.7306411133e+003,4.7214101563e+003,4.7333334961e+003,4.7165385742e+003,4.6941025391e+003,4.7389741211e+003,4.7164101563e+003,4.7216665039e+003,4.7305126953e+003,
2.6640625000e+000,4.5452563477e+003,4.6989741211e+003,4.7158974609e+003,4.6665385742e+003,4.6933334961e+003,4.7051284180e+003,4.6985898438e+003,4.7094873047e+003,4.6923076172e+003,4.6682050781e+003,4.7139741211e+003,4.6926923828e+003,4.6953847656e+003,4.7083334961e+003,
2.6718750000e+000,4.4838461914e+003,4.6233334961e+003,4.6452563477e+003,4.6037177734e+003,4.5950000000e+003,4.6321796875e+003,4.6258974609e+003,4.6407690430e+003,4.6212822266e+003,4.5934614258e+003,4.6437177734e+003,4.6230771484e+003,4.6223076172e+003,4.6378203125e+003,
2.6796875000e+000,4.4564101563e+003,4.5870512695e+003,4.6125639648e+003,4.5689741211e+003,4.5556411133e+003,4.6000000000e+003,4.5921796875e+003,4.6082050781e+003,4.5905126953e+003,4.5588461914e+003,4.6108974609e+003,4.5896152344e+003,4.5893588867e+003,4.6042309570e+003,
2.6875000000e+000,4.4451284180e+003,4.5666665039e+003,4.5965385742e+003,4.5483334961e+003,4.5391025391e+003,4.5834614258e+003,4.5756411133e+003,4.5903847656e+003,4.5764101563e+003,4.5414101563e+003,4.5952563477e+003,4.5725639648e+003,4.5728203125e+003,4.5871796875e+003,
2.6953125000e+000,4.4596152344e+003,4.5621796875e+003,4.5912822266e+003,4.5493588867e+003,4.5693588867e+003,4.5744873047e+003,4.5680771484e+003,4.5715385742e+003,4.5711538086e+003,4.5328203125e+003,4.5848715820e+003,4.5635898438e+003,4.5705126953e+003,4.5839741211e+003,
2.7031250000e+000,4.4446152344e+003,4.5429487305e+003,4.5728203125e+003,4.5347436523e+003,4.5482050781e+003,4.5561538086e+003,4.5483334961e+003,4.5529487305e+003,4.5508974609e+003,4.5105126953e+003,4.5641025391e+003,4.5442309570e+003,4.5455126953e+003,4.5652563477e+003,
2.7109375000e+000,4.4258974609e+003,4.5051284180e+003,4.5452563477e+003,4.5041025391e+003,4.5042309570e+003,4.5283334961e+003,4.5219228516e+003,4.5251284180e+003,4.5189741211e+003,4.4817949219e+003,4.5300000000e+003,4.5185898438e+003,4.5085898438e+003,4.5337177734e+003,
2.7187500000e+000,4.3998715820e+003,4.4715385742e+003,4.5102563477e+003,4.4765385742e+003,4.4669228516e+003,4.5001284180e+003,4.4976923828e+003,4.5041025391e+003,4.4953847656e+003,4.4452563477e+003,4.4948715820e+003,4.4842309570e+003,4.4855126953e+003,4.4998715820e+003,
2.7265625000e+000,4.3856411133e+003,4.4543588867e+003,4.4932050781e+003,4.4570512695e+003,4.4387177734e+003,4.4808974609e+003,4.4807690430e+003,4.4887177734e+003,4.4782050781e+003,4.4239741211e+003,4.4794873047e+003,4.4679487305e+003,4.4615385742e+003,4.4817949219e+003,
2.7343750000e+000,4.3228203125e+003,4.3861538086e+003,4.4238461914e+003,4.3794873047e+003,4.3598715820e+003,4.4101284180e+003,4.4141025391e+003,4.4247436523e+003,4.4067949219e+003,4.3605126953e+003,4.4060258789e+003,4.4035898438e+003,4.3901284180e+003,4.4133334961e+003,
2.7421875000e+000,4.2932050781e+003,4.3530771484e+003,4.3947436523e+003,4.3534614258e+003,4.3415385742e+003,4.3830771484e+003,4.3887177734e+003,4.3970512695e+003,4.3783334961e+003,4.3308974609e+003,4.3710258789e+003,4.3730771484e+003,4.3635898438e+003,4.3839741211e+003,
2.7500000000e+000,4.2703847656e+003,4.3178203125e+003,4.3688461914e+003,4.3330771484e+003,4.3375639648e+003,4.3650000000e+003,4.3717949219e+003,4.3739741211e+003,4.3579487305e+003,4.3014101563e+003,4.3442309570e+003,4.3394873047e+003,4.3326923828e+003,4.3515385742e+003,
2.7578125000e+000,4.2762822266e+003,4.3171796875e+003,4.3692309570e+003,4.3329487305e+003,4.3429487305e+003,4.3724360352e+003,4.3760258789e+003,4.3787177734e+003,4.3638461914e+003,4.3042309570e+003,4.3507690430e+003,4.3378203125e+003,4.3302563477e+003,4.3497436523e+003,
2.7656250000e+000,4.2834614258e+003,4.3185898438e+003,4.3698715820e+003,4.3317949219e+003,4.3447436523e+003,4.3798715820e+003,4.3789741211e+003,4.3835898438e+003,4.3689741211e+003,4.3083334961e+003,4.3573076172e+003,4.3385898438e+003,4.3303847656e+003,4.3512822266e+003,
2.7734375000e+000,4.2924360352e+003,4.3230771484e+003,4.3728203125e+003,4.3347436523e+003,4.3471796875e+003,4.3867949219e+003,4.3825639648e+003,4.3883334961e+003,4.3730771484e+003,4.3129487305e+003,4.3628203125e+003,4.3424360352e+003,4.3351284180e+003,4.3576923828e+003,
2.7812500000e+000,4.3834614258e+003,4.4111538086e+003,4.4466665039e+003,4.4289741211e+003,4.4114101563e+003,4.4507690430e+003,4.4543588867e+003,4.4650000000e+003,4.4487177734e+003,4.3921796875e+003,4.4294873047e+003,4.4206411133e+003,4.4239741211e+003,4.4429487305e+003,
2.7890625000e+000,4.4056411133e+003,4.4271796875e+003,4.4606411133e+003,4.4292309570e+003,4.4351284180e+003,4.4567949219e+003,4.4561538086e+003,4.4732050781e+003,4.4574360352e+003,4.4112822266e+003,4.4566665039e+003,4.4411538086e+003,4.4384614258e+003,4.4591025391e+003,
2.7968750000e+000,4.4047436523e+003,4.4238461914e+003,4.4587177734e+003,4.4314101563e+003,4.4257690430e+003,4.4530771484e+003,4.4520512695e+003,4.4679487305e+003,4.4506411133e+003,4.4093588867e+003,4.4560258789e+003,4.4382050781e+003,4.4344873047e+003,4.4551284180e+003,
2.8046875000e+000,4.3384614258e+003,4.3551284180e+003,4.3919228516e+003,4.3725639648e+003,4.3234614258e+003,4.3892309570e+003,4.3891025391e+003,4.4005126953e+003,4.3805126953e+003,4.3356411133e+003,4.3803847656e+003,4.3705126953e+003,4.3624360352e+003,4.3828203125e+003,
2.8125000000e+000,4.3074360352e+003,4.3225639648e+003,4.3582050781e+003,4.3403847656e+003,4.2844873047e+003,4.3591025391e+003,4.3603847656e+003,4.3700000000e+003,4.3497436523e+003,4.2989741211e+003,4.3423076172e+003,4.3370512695e+003,4.3287177734e+003,4.3484614258e+003,
2.8203125000e+000,4.3221796875e+003,4.3298715820e+003,4.3624360352e+003,4.3480771484e+003,4.3512822266e+003,4.3639741211e+003,4.3685898438e+003,4.3789741211e+003,4.3610258789e+003,4.3076923828e+003,4.3396152344e+003,4.3385898438e+003,4.3352563477e+003,4.3533334961e+003,
2.8281250000e+000,4.3203847656e+003,4.3256411133e+003,4.3600000000e+003,4.3453847656e+003,4.3575639648e+003,4.3598715820e+003,4.3642309570e+003,4.3746152344e+003,4.3582050781e+003,4.3067949219e+003,4.3373076172e+003,4.3344873047e+003,4.3301284180e+003,4.3502563477e+003,
2.8359375000e+000,4.2252563477e+003,4.2237177734e+003,4.2703847656e+003,4.2575639648e+003,4.2180771484e+003,4.2667949219e+003,4.2667949219e+003,4.2796152344e+003,4.2680771484e+003,4.2080771484e+003,4.2605126953e+003,4.2429487305e+003,4.2279487305e+003,4.2552563477e+003,
2.8437500000e+000,4.2012822266e+003,4.1857690430e+003,4.2369228516e+003,4.2310258789e+003,4.1888461914e+003,4.2250000000e+003,4.2270512695e+003,4.2361538086e+003,4.2261538086e+003,4.1605126953e+003,4.2074360352e+003,4.2053847656e+003,4.1980771484e+003,4.2220512695e+003,
2.8515625000e+000,4.2119228516e+003,4.1930771484e+003,4.2415385742e+003,4.2367949219e+003,4.2001284180e+003,4.2298715820e+003,4.2329487305e+003,4.2405126953e+003,4.2317949219e+003,4.1679487305e+003,4.2085898438e+003,4.2115385742e+003,4.2084614258e+003,4.2297436523e+003,
2.8593750000e+000,4.2106411133e+003,4.1912822266e+003,4.2378203125e+003,4.2339741211e+003,4.1925639648e+003,4.2271796875e+003,4.2314101563e+003,4.2379487305e+003,4.2302563477e+003,4.1679487305e+003,4.2064101563e+003,4.2108974609e+003,4.2091025391e+003,4.2283334961e+003,
2.8671875000e+000,4.2005126953e+003,4.1843588867e+003,4.2303847656e+003,4.2257690430e+003,4.1592309570e+003,4.2192309570e+003,4.2241025391e+003,4.2305126953e+003,4.2224360352e+003,4.1643588867e+003,4.2044873047e+003,4.2073076172e+003,4.2016665039e+003,4.2219228516e+003,
2.8750000000e+000,4.2794873047e+003,4.2634614258e+003,4.2983334961e+003,4.2871796875e+003,4.2376923828e+003,4.2884614258e+003,4.2873076172e+003,4.2982050781e+003,4.2905126953e+003,4.2414101563e+003,4.2864101563e+003,4.2764101563e+003,4.2741025391e+003,4.2950000000e+003,
2.8828125000e+000,4.2953847656e+003,4.2762822266e+003,4.3101284180e+003,4.2974360352e+003,4.2594873047e+003,4.3014101563e+003,4.3005126953e+003,4.3102563477e+003,4.3025639648e+003,4.2544873047e+003,4.3052563477e+003,4.2887177734e+003,4.2896152344e+003,4.3080771484e+003,
2.8906250000e+000,4.3017949219e+003,4.2802563477e+003,4.3153847656e+003,4.3020512695e+003,4.2710258789e+003,4.3066665039e+003,4.3075639648e+003,4.3152563477e+003,4.3065385742e+003,4.2584614258e+003,4.3143588867e+003,4.2925639648e+003,4.2964101563e+003,4.3121796875e+003,
2.8984375000e+000,4.3073076172e+003,4.2848715820e+003,4.3215385742e+003,4.3091025391e+003,4.2802563477e+003,4.3126923828e+003,4.3147436523e+003,4.3216665039e+003,4.3103847656e+003,4.2626923828e+003,4.3188461914e+003,4.2953847656e+003,4.3015385742e+003,4.3151284180e+003,
2.9062500000e+000,4.3362822266e+003,4.3082050781e+003,4.3469228516e+003,4.3510258789e+003,4.3157690430e+003,4.3457690430e+003,4.3450000000e+003,4.3476923828e+003,4.3360258789e+003,4.2855126953e+003,4.3183334961e+003,4.3164101563e+003,4.3206411133e+003,4.3365385742e+003,
2.9140625000e+000,4.3546152344e+003,4.3288461914e+003,4.3650000000e+003,4.3732050781e+003,4.3380771484e+003,4.3658974609e+003,4.3641025391e+003,4.3651284180e+003,4.3569228516e+003,4.3060258789e+003,4.3403847656e+003,4.3361538086e+003,4.3415385742e+003,4.3567949219e+003,
2.9218750000e+000,4.2594873047e+003,4.2446152344e+003,4.2762822266e+003,4.2855126953e+003,4.2394873047e+003,4.2784614258e+003,4.2711538086e+003,4.2858974609e+003,4.2767949219e+003,4.2302563477e+003,4.2667949219e+003,4.2508974609e+003,4.2535898438e+003,4.2744873047e+003,
2.9296875000e+000,4.0107692871e+003,3.9744870605e+003,4.0291025391e+003,4.0303845215e+003,3.9556411133e+003,4.0306411133e+003,4.0312819824e+003,4.0367949219e+003,4.0278205566e+003,3.9591025391e+003,3.9942307129e+003,3.9966667480e+003,3.9942307129e+003,4.0223076172e+003,
2.9375000000e+000,4.0071794434e+003,3.9655129395e+003,4.0211538086e+003,4.0241025391e+003,3.9474357910e+003,4.0229487305e+003,4.0260256348e+003,4.0291025391e+003,4.0224357910e+003,3.9505129395e+003,3.9866667480e+003,3.9888461914e+003,3.9866667480e+003,4.0132050781e+003,
2.9453125000e+000,4.0230769043e+003,3.9689743652e+003,4.0257692871e+003,4.0374357910e+003,3.9834614258e+003,4.0244870605e+003,4.0250000000e+003,4.0374357910e+003,4.0298718262e+003,3.9625642090e+003,3.9969230957e+003,4.0000000000e+003,3.9955129395e+003,4.0201281738e+003,
2.9531250000e+000,3.9867949219e+003,3.9293588867e+003,3.9885898438e+003,4.0020512695e+003,3.9520512695e+003,3.9885898438e+003,3.9894870605e+003,4.0002563477e+003,3.9925642090e+003,3.9220512695e+003,3.9546154785e+003,3.9619230957e+003,3.9617949219e+003,3.9828205566e+003,
2.9609375000e+000,3.9317949219e+003,3.8716667480e+003,3.9339743652e+003,3.9403845215e+003,3.8878205566e+003,3.9326923828e+003,3.9438461914e+003,3.9406411133e+003,3.9333332520e+003,3.8541025391e+003,3.8911538086e+003,3.9065385742e+003,3.9064101563e+003,3.9262819824e+003,
2.9687500000e+000,3.9523076172e+003,3.8889743652e+003,3.9487180176e+003,3.9528205566e+003,3.9025642090e+003,3.9465385742e+003,3.9567949219e+003,3.9551281738e+003,3.9475642090e+003,3.8691025391e+003,3.9085898438e+003,3.9238461914e+003,3.9215385742e+003,3.9426923828e+003,
2.9765625000e+000,3.9844870605e+003,3.9089743652e+003,3.9646154785e+003,3.9706411133e+003,3.9160256348e+003,3.9651281738e+003,3.9691025391e+003,3.9702563477e+003,3.9680769043e+003,3.8921794434e+003,3.9279487305e+003,3.9406411133e+003,3.9476923828e+003,3.9589743652e+003,
2.9843750000e+000,3.9853845215e+003,3.9052563477e+003,3.9616667480e+003,3.9691025391e+003,3.9070512695e+003,3.9625642090e+003,3.9660256348e+003,3.9642307129e+003,3.9658974609e+003,3.8917949219e+003,3.9235898438e+003,3.9356411133e+003,3.9488461914e+003,3.9533332520e+003,
2.9921875000e+000,3.9761538086e+003,3.8942307129e+003,3.9541025391e+003,3.9558974609e+003,3.8989743652e+003,3.9466667480e+003,3.9524357910e+003,3.9496154785e+003,3.9541025391e+003,3.8852563477e+003,3.9214101563e+003,3.9311538086e+003,3.9324357910e+003,3.9464101563e+003,
3.0000000000e+000,3.9624357910e+003,3.8784614258e+003,3.9388461914e+003,3.9367949219e+003,3.8802563477e+003,3.9305129395e+003,3.9367949219e+003,3.9367949219e+003,3.9414101563e+003,3.8694870605e+003,3.9087180176e+003,3.9205129395e+003,3.9146154785e+003,3.9360256348e+003,
3.0078125000e+000,3.9503845215e+003,3.8575642090e+003,3.9214101563e+003,3.9116667480e+003,3.8343588867e+003,3.9152563477e+003,3.9243588867e+003,3.9225642090e+003,3.9285898438e+003,3.8478205566e+003,3.8842307129e+003,3.9060256348e+003,3.9010256348e+003,3.9256411133e+003,
3.0156250000e+000,3.9816667480e+003,3.8853845215e+003,3.9491025391e+003,3.9387180176e+003,3.8562819824e+003,3.9444870605e+003,3.9539743652e+003,3.9505129395e+003,3.9562819824e+003,3.8767949219e+003,3.9085898438e+003,3.9320512695e+003,3.9351281738e+003,3.9541025391e+003,
3.0234375000e+000,4.0355129395e+003,3.9378205566e+003,3.9989743652e+003,3.9911538086e+003,3.9180769043e+003,3.9961538086e+003,4.0035898438e+003,4.0015385742e+003,4.0055129395e+003,3.9324357910e+003,3.9602563477e+003,3.9806411133e+003,3.9923076172e+003,4.0037180176e+003,
3.0312500000e+000,4.1478203125e+003,4.0528205566e+003,4.1100000000e+003,4.1056411133e+003,4.0714101563e+003,4.1037177734e+003,4.1091025391e+003,4.1165385742e+003,4.1135898438e+003,4.0562819824e+003,4.0970512695e+003,4.1043588867e+003,4.0987177734e+003,4.1141025391e+003,
3.0390625000e+000,4.1526923828e+003,4.0630769043e+003,4.1147436523e+003,4.1133334961e+003,4.0643588867e+003,4.1091025391e+003,4.1148715820e+003,4.1221796875e+003,4.1200000000e+003,4.0662819824e+003,4.1021796875e+003,4.1097436523e+003,4.1078203125e+003,4.1200000000e+003,
3.0468750000e+000,4.2324360352e+003,4.1491025391e+003,4.1810258789e+003,4.1883334961e+003,4.1491025391e+003,4.1888461914e+003,4.1903847656e+003,4.1938461914e+003,4.1846152344e+003,4.1403847656e+003,4.1588461914e+003,4.1770512695e+003,4.1789741211e+003,4.1873076172e+003,
3.0546875000e+000,4.5612822266e+003,4.4907690430e+003,4.5162822266e+003,4.5089741211e+003,4.4808974609e+003,4.5066665039e+003,4.5102563477e+003,4.5230771484e+003,4.5098715820e+003,4.4851284180e+003,4.5137177734e+003,4.5088461914e+003,4.5210258789e+003,4.5161538086e+003,
3.0625000000e+000,4.6415385742e+003,4.5815385742e+003,4.6016665039e+003,4.5932050781e+003,4.5633334961e+003,4.5906411133e+003,4.5910258789e+003,4.6092309570e+003,4.5937177734e+003,4.5766665039e+003,4.6091025391e+003,4.5957690430e+003,4.6124360352e+003,4.6017949219e+003,
3.0703125000e+000,4.5838461914e+003,4.5410258789e+003,4.5478203125e+003,4.5421796875e+003,4.5202563477e+003,4.5580771484e+003,4.5467949219e+003,4.5680771484e+003,4.5535898438e+003,4.5392309570e+003,4.5650000000e+003,4.5523076172e+003,4.5614101563e+003,4.5475639648e+003,
3.0781250000e+000,4.5094873047e+003,4.4673076172e+003,4.4776923828e+003,4.4703847656e+003,4.4539741211e+003,4.4905126953e+003,4.4793588867e+003,4.5006411133e+003,4.4888461914e+003,4.4717949219e+003,4.4939741211e+003,4.4830771484e+003,4.4860258789e+003,4.4758974609e+003,
3.0859375000e+000,4.3483334961e+003,4.3107690430e+003,4.3360258789e+003,4.3237177734e+003,4.3201284180e+003,4.3425639648e+003,4.3343588867e+003,4.3561538086e+003,4.3461538086e+003,4.3217949219e+003,4.3388461914e+003,4.3323076172e+003,4.3373076172e+003,4.3294873047e+003,
3.0937500000e+000,4.3124360352e+003,4.2767949219e+003,4.3019228516e+003,4.2914101563e+003,4.2864101563e+003,4.3092309570e+003,4.3021796875e+003,4.3235898438e+003,4.3120512695e+003,4.2828203125e+003,4.2982050781e+003,4.2956411133e+003,4.3044873047e+003,4.2938461914e+003,
3.1015625000e+000,4.2371796875e+003,4.1969228516e+003,4.2255126953e+003,4.2187177734e+003,4.2028203125e+003,4.2362822266e+003,4.2333334961e+003,4.2503847656e+003,4.2365385742e+003,4.1950000000e+003,4.2174360352e+003,4.2194873047e+003,4.2198715820e+003,4.2147436523e+003,
3.1093750000e+000,4.2151284180e+003,4.1694873047e+003,4.2023076172e+003,4.1956411133e+003,4.1769228516e+003,4.2144873047e+003,4.2123076172e+003,4.2260258789e+003,4.2120512695e+003,4.1678203125e+003,4.1976923828e+003,4.1971796875e+003,4.1911538086e+003,4.1914101563e+003,
3.1171875000e+000,4.2091025391e+003,4.1603847656e+003,4.1951284180e+003,4.1858974609e+003,4.1682050781e+003,4.2115385742e+003,4.2076923828e+003,4.2207690430e+003,4.2080771484e+003,4.1687177734e+003,4.1970512695e+003,4.1884614258e+003,4.1978203125e+003,4.1894873047e+003,
3.1250000000e+000,4.1911538086e+003,4.1425639648e+003,4.1792309570e+003,4.1692309570e+003,4.1414101563e+003,4.1941025391e+003,4.1928203125e+003,4.2067949219e+003,4.1939741211e+003,4.1541025391e+003,4.1738461914e+003,4.1710258789e+003,4.1853847656e+003,4.1746152344e+003,
3.1328125000e+000,4.1637177734e+003,4.1107690430e+003,4.1529487305e+003,4.1416665039e+003,4.0991025391e+003,4.1619228516e+003,4.1657690430e+003,4.1778203125e+003,4.1665385742e+003,4.1215385742e+003,4.1323076172e+003,4.1406411133e+003,4.1503847656e+003,4.1488461914e+003,
3.1406250000e+000,4.1729487305e+003,4.1164101563e+003,4.1601284180e+003,4.1466665039e+003,4.1125639648e+003,4.1679487305e+003,4.1705126953e+003,4.1815385742e+003,4.1719228516e+003,4.1252563477e+003,4.1392309570e+003,4.1460258789e+003,4.1510258789e+003,4.1544873047e+003,
3.1484375000e+000,4.1882050781e+003,4.1271796875e+003,4.1738461914e+003,4.1567949219e+003,4.1369228516e+003,4.1812822266e+003,4.1805126953e+003,4.1917949219e+003,4.1834614258e+003,4.1364101563e+003,4.1558974609e+003,4.1585898438e+003,4.1596152344e+003,4.1652563477e+003,
3.1562500000e+000,4.1820512695e+003,4.1252563477e+003,4.1657690430e+003,4.1571796875e+003,4.1273076172e+003,4.1723076172e+003,4.1732050781e+003,4.1800000000e+003,4.1717949219e+003,4.1360258789e+003,4.1560258789e+003,4.1502563477e+003,4.1510258789e+003,4.1588461914e+003,
3.1640625000e+000,4.1676923828e+003,4.1116665039e+003,4.1528203125e+003,4.1428203125e+003,4.1205126953e+003,4.1606411133e+003,4.1594873047e+003,4.1648715820e+003,4.1567949219e+003,4.1205126953e+003,4.1382050781e+003,4.1360258789e+003,4.1360258789e+003,4.1448715820e+003,
3.1718750000e+000,4.2194873047e+003,4.1624360352e+003,4.2052563477e+003,4.1902563477e+003,4.1820512695e+003,4.2134614258e+003,4.2094873047e+003,4.2126923828e+003,4.2037177734e+003,4.1598715820e+003,4.1815385742e+003,4.1844873047e+003,4.1844873047e+003,4.1944873047e+003,
3.1796875000e+000,4.3561538086e+003,4.3055126953e+003,4.3365385742e+003,4.3175639648e+003,4.3087177734e+003,4.3485898438e+003,4.3388461914e+003,4.3452563477e+003,4.3353847656e+003,4.3085898438e+003,4.3301284180e+003,4.3207690430e+003,4.3258974609e+003,4.3310258789e+003,
3.1875000000e+000,4.3364101563e+003,4.2873076172e+003,4.3193588867e+003,4.3005126953e+003,4.2862822266e+003,4.3321796875e+003,4.3224360352e+003,4.3298715820e+003,4.3189741211e+003,4.2929487305e+003,4.3144873047e+003,4.3028203125e+003,4.3116665039e+003,4.3115385742e+003,
3.1953125000e+000,4.2794873047e+003,4.2362822266e+003,4.2656411133e+003,4.2655126953e+003,4.2419228516e+003,4.2823076172e+003,4.2767949219e+003,4.2902563477e+003,4.2752563477e+003,4.2375639648e+003,4.2593588867e+003,4.2478203125e+003,4.2592309570e+003,4.2551284180e+003,
3.2031250000e+000,4.3076923828e+003,4.2641025391e+003,4.2926923828e+003,4.2908974609e+003,4.2823076172e+003,4.3098715820e+003,4.3037177734e+003,4.3179487305e+003,4.3047436523e+003,4.2682050781e+003,4.2860258789e+003,4.2778203125e+003,4.2851284180e+003,4.2843588867e+003,
3.2109375000e+000,4.3748715820e+003,4.3355126953e+003,4.3601284180e+003,4.3367949219e+003,4.3430771484e+003,4.3800000000e+003,4.3680771484e+003,4.3844873047e+003,4.3717949219e+003,4.3451284180e+003,4.3603847656e+003,4.3528203125e+003,4.3550000000e+003,4.3573076172e+003,
3.2187500000e+000,4.3567949219e+003,4.3226923828e+003,4.3448715820e+003,4.3211538086e+003,4.3169228516e+003,4.3648715820e+003,4.3532050781e+003,4.3701284180e+003,4.3530771484e+003,4.3256411133e+003,4.3446152344e+003,4.3370512695e+003,4.3392309570e+003,4.3416665039e+003,
3.2265625000e+000,4.3021796875e+003,4.2752563477e+003,4.2942309570e+003,4.2778203125e+003,4.2761538086e+003,4.3134614258e+003,4.3035898438e+003,4.3187177734e+003,4.2980771484e+003,4.2687177734e+003,4.2907690430e+003,4.2834614258e+003,4.2853847656e+003,4.2897436523e+003,
3.2343750000e+000,4.2812822266e+003,4.2542309570e+003,4.2729487305e+003,4.2605126953e+003,4.2680771484e+003,4.2937177734e+003,4.2828203125e+003,4.2958974609e+003,4.2782050781e+003,4.2485898438e+003,4.2692309570e+003,4.2619228516e+003,4.2632050781e+003,4.2687177734e+003,
3.2421875000e+000,4.2780771484e+003,4.2488461914e+003,4.2660258789e+003,4.2528203125e+003,4.2566665039e+003,4.2916665039e+003,4.2785898438e+003,4.2846152344e+003,4.2700000000e+003,4.2360258789e+003,4.2553847656e+003,4.2580771484e+003,4.2548715820e+003,4.2661538086e+003,
3.2500000000e+000,4.3106411133e+003,4.2835898438e+003,4.2976923828e+003,4.2800000000e+003,4.2833334961e+003,4.3212822266e+003,4.3089741211e+003,4.3155126953e+003,4.2973076172e+003,4.2667949219e+003,4.2873076172e+003,4.2885898438e+003,4.2870512695e+003,4.2987177734e+003,
3.2578125000e+000,4.3630771484e+003,4.3415385742e+003,4.3519228516e+003,4.3275639648e+003,4.3326923828e+003,4.3692309570e+003,4.3578203125e+003,4.3701284180e+003,4.3478203125e+003,4.3312822266e+003,4.3502563477e+003,4.3396152344e+003,4.3443588867e+003,4.3511538086e+003,
3.2656250000e+000,4.3592309570e+003,4.3391025391e+003,4.3507690430e+003,4.3253847656e+003,4.3244873047e+003,4.3652563477e+003,4.3551284180e+003,4.3685898438e+003,4.3467949219e+003,4.3328203125e+003,4.3515385742e+003,4.3383334961e+003,4.3434614258e+003,4.3484614258e+003,
3.2734375000e+000,4.3494873047e+003,4.3293588867e+003,4.3429487305e+003,4.3174360352e+003,4.3097436523e+003,4.3552563477e+003,4.3467949219e+003,4.3594873047e+003,4.3388461914e+003,4.3216665039e+003,4.3421796875e+003,4.3308974609e+003,4.3358974609e+003,4.3401284180e+003,
3.2812500000e+000,4.3701284180e+003,4.3489741211e+003,4.3653847656e+003,4.3329487305e+003,4.3615385742e+003,4.3839741211e+003,4.3735898438e+003,4.3897436523e+003,4.3721796875e+003,4.3500000000e+003,4.3679487305e+003,4.3565385742e+003,4.3625639648e+003,4.3689741211e+003,
3.2890625000e+000,4.3311538086e+003,4.3115385742e+003,4.3300000000e+003,4.2980771484e+003,4.3123076172e+003,4.3464101563e+003,4.3403847656e+003,4.3570512695e+003,4.3406411133e+003,4.3175639648e+003,4.3328203125e+003,4.3234614258e+003,4.3229487305e+003,4.3339741211e+003,
3.2968750000e+000,4.3712822266e+003,4.3448715820e+003,4.3653847656e+003,4.3341025391e+003,4.3474360352e+003,4.3762822266e+003,4.3738461914e+003,4.3884614258e+003,4.3735898438e+003,4.3479487305e+003,4.3616665039e+003,4.3555126953e+003,4.3635898438e+003,4.3688461914e+003,
3.3046875000e+000,4.4351284180e+003,4.4101284180e+003,4.4262822266e+003,4.3962822266e+003,4.4248715820e+003,4.4397436523e+003,4.4334614258e+003,4.4460258789e+003,4.4297436523e+003,4.4098715820e+003,4.4271796875e+003,4.4150000000e+003,4.4280771484e+003,4.4298715820e+003,
3.3125000000e+000,4.4456411133e+003,4.4339741211e+003,4.4384614258e+003,4.4176923828e+003,4.4502563477e+003,4.4593588867e+003,4.4435898438e+003,4.4623076172e+003,4.4428203125e+003,4.4297436523e+003,4.4535898438e+003,4.4292309570e+003,4.4410258789e+003,4.4439741211e+003,
3.3203125000e+000,3.8312819824e+003,3.7955129395e+003,3.8451281738e+003,3.8106411133e+003,3.7765385742e+003,3.8489743652e+003,3.8471794434e+003,3.8660256348e+003,3.8544870605e+003,3.8038461914e+003,3.8151281738e+003,3.8292307129e+003,3.8270512695e+003,3.8423076172e+003,
3.3281250000e+000,3.7188461914e+003,3.6653845215e+003,3.7284614258e+003,3.6956411133e+003,3.6578205566e+003,3.7294870605e+003,3.7321794434e+003,3.7407692871e+003,3.7352563477e+003,3.6771794434e+003,3.6879487305e+003,3.7074357910e+003,3.7046154785e+003,3.7229487305e+003,
3.3359375000e+000,3.5784614258e+003,3.4888461914e+003,3.5579487305e+003,3.5661538086e+003,3.5265385742e+003,3.5689743652e+003,3.5726923828e+003,3.5705129395e+003,3.5711538086e+003,3.4937180176e+003,3.5148718262e+003,3.5351281738e+003,3.5256411133e+003,3.5551281738e+003,
3.3437500000e+000,3.5641025391e+003,3.4680769043e+003,3.5351281738e+003,3.5492307129e+003,3.5048718262e+003,3.5482050781e+003,3.5546154785e+003,3.5521794434e+003,3.5529487305e+003,3.4678205566e+003,3.4912819824e+003,3.5124357910e+003,3.5052563477e+003,3.5348718262e+003,
3.3515625000e+000,3.5582050781e+003,3.4542307129e+003,3.5164101563e+003,3.5230769043e+003,3.4647436523e+003,3.5306411133e+003,3.5453845215e+003,3.5408974609e+003,3.5482050781e+003,3.4558974609e+003,3.4746154785e+003,3.4929487305e+003,3.4971794434e+003,3.5214101563e+003,
3.3593750000e+000,3.5414101563e+003,3.4332050781e+003,3.4956411133e+003,3.4974357910e+003,3.4350000000e+003,3.5103845215e+003,3.5264101563e+003,3.5212819824e+003,3.5330769043e+003,3.4410256348e+003,3.4551281738e+003,3.4734614258e+003,3.4775642090e+003,3.5017949219e+003,
3.3671875000e+000,3.4373076172e+003,3.3050000000e+003,3.3783332520e+003,3.3837180176e+003,3.3316667480e+003,3.3879487305e+003,3.4001281738e+003,3.3967949219e+003,3.4116667480e+003,3.3123076172e+003,3.3239743652e+003,3.3597436523e+003,3.3450000000e+003,3.3823076172e+003,
3.3750000000e+000,3.4292307129e+003,3.2896154785e+003,3.3637180176e+003,3.3717949219e+003,3.3216667480e+003,3.3702563477e+003,3.3842307129e+003,3.3808974609e+003,3.3951281738e+003,3.2937180176e+003,3.3051281738e+003,3.3442307129e+003,3.3323076172e+003,3.3684614258e+003,
3.3828125000e+000,3.4457692871e+003,3.2979487305e+003,3.3710256348e+003,3.3758974609e+003,3.3235898438e+003,3.3770512695e+003,3.3961538086e+003,3.3893588867e+003,3.4026923828e+003,3.3051281738e+003,3.3150000000e+003,3.3496154785e+003,3.3503845215e+003,3.3776923828e+003,
3.3906250000e+000,3.4678205566e+003,3.3182050781e+003,3.3903845215e+003,3.3912819824e+003,3.3384614258e+003,3.3991025391e+003,3.4184614258e+003,3.4083332520e+003,3.4216667480e+003,3.3280769043e+003,3.3382050781e+003,3.3685898438e+003,3.3707692871e+003,3.3965385742e+003,
3.3984375000e+000,3.5078205566e+003,3.3580769043e+003,3.4271794434e+003,3.4267949219e+003,3.3726923828e+003,3.4385898438e+003,3.4569230957e+003,3.4442307129e+003,3.4578205566e+003,3.3691025391e+003,3.3787180176e+003,3.4056411133e+003,3.4065385742e+003,3.4326923828e+003,
3.4062500000e+000,3.5596154785e+003,3.4106411133e+003,3.4748718262e+003,3.4766667480e+003,3.4189743652e+003,3.4873076172e+003,3.5044870605e+003,3.4914101563e+003,3.5050000000e+003,3.4215385742e+003,3.4283332520e+003,3.4539743652e+003,3.4535898438e+003,3.4801281738e+003,
3.4140625000e+000,3.8206411133e+003,3.6698718262e+003,3.7252563477e+003,3.7238461914e+003,3.6893588867e+003,3.7312819824e+003,3.7465385742e+003,3.7314101563e+003,3.7373076172e+003,3.6676923828e+003,3.6737180176e+003,3.6974357910e+003,3.6998718262e+003,3.7208974609e+003,
3.4218750000e+000,4.0020512695e+003,3.8589743652e+003,3.9046154785e+003,3.8993588867e+003,3.8900000000e+003,3.9142307129e+003,3.9276923828e+003,3.9120512695e+003,3.9146154785e+003,3.8553845215e+003,3.8642307129e+003,3.8774357910e+003,3.8830769043e+003,3.8991025391e+003,
3.4296875000e+000,4.4444873047e+003,4.3351284180e+003,4.3520512695e+003,4.3483334961e+003,4.3521796875e+003,4.3620512695e+003,4.3674360352e+003,4.3712822266e+003,4.3703847656e+003,4.3464101563e+003,4.3482050781e+003,4.3361538086e+003,4.3517949219e+003,4.3523076172e+003,
