Time (s),AF3,F7,F3,FC5,T7,P7,O1,O2,P8,T8,FC6,F4,F8,AF4,Sampling Rate
0.0000000000e+000,1.6689743652e+003,1.4564102783e+003,1.4564102783e+003,1.5417949219e+003,1.5111538086e+003,1.4582050781e+003,1.5444871826e+003,1.4787178955e+003,1.5824359131e+003,1.6173077393e+003,1.4279487305e+003,1.5753846436e+003,1.4708974609e+003,1.4679487305e+003,128
7.8125000000e-003,1.6037178955e+003,1.3861538086e+003,1.3879487305e+003,1.4730769043e+003,1.4543590088e+003,1.3864102783e+003,1.4776922607e+003,1.4080769043e+003,1.5156409912e+003,1.5439743652e+003,1.3585897217e+003,1.5064102783e+003,1.4012821045e+003,1.4026922607e+003,
1.5625000000e-002,1.5632050781e+003,1.3339743652e+003,1.3439743652e+003,1.4321794434e+003,1.4182050781e+003,1.3375640869e+003,1.4360256348e+003,1.3621794434e+003,1.4752564697e+003,1.4998718262e+003,1.3106409912e+003,1.4615384521e+003,1.3552564697e+003,1.3619230957e+003,
2.3437500000e-002,1.5574359131e+003,1.3062821045e+003,1.3303846436e+003,1.4188461914e+003,1.3408974609e+003,1.3284615479e+003,1.4143590088e+003,1.3464102783e+003,1.4474359131e+003,1.4679487305e+003,1.2928205566e+003,1.4343590088e+003,1.3397435303e+003,1.3428205566e+003,
3.1250000000e-002,1.5419230957e+003,1.2983333740e+003,1.3091025391e+003,1.3957692871e+003,1.3528205566e+003,1.3085897217e+003,1.3921794434e+003,1.3283333740e+003,1.4279487305e+003,1.4432050781e+003,1.2794871826e+003,1.4132050781e+003,1.3228205566e+003,1.3225640869e+003,
3.9062500000e-002,1.4037178955e+003,1.1646153564e+003,1.1801281738e+003,1.2669230957e+003,1.3201281738e+003,1.1775640869e+003,1.2634615479e+003,1.1948718262e+003,1.2970512695e+003,1.3052564697e+003,1.1482050781e+003,1.2793590088e+003,1.1903846436e+003,1.1975640869e+003,
4.6875000000e-002,1.6162821045e+003,1.3203846436e+003,1.3479487305e+003,1.4478205566e+003,1.4546153564e+003,1.3458974609e+003,1.4423077393e+003,1.3591025391e+003,1.4739743652e+003,1.4969230957e+003,1.3029487305e+003,1.4669230957e+003,1.3587178955e+003,1.3629487305e+003,
5.4687500000e-002,1.7314102783e+003,1.4242307129e+003,1.4498718262e+003,1.5555128174e+003,1.5808974609e+003,1.4382050781e+003,1.5461538086e+003,1.4579487305e+003,1.5767949219e+003,1.6071794434e+003,1.4026922607e+003,1.5751281738e+003,1.4617949219e+003,1.4643590088e+003,
6.2500000000e-002,1.9347435303e+003,1.6397435303e+003,1.6542307129e+003,1.7617949219e+003,1.8087178955e+003,1.6334615479e+003,1.7401281738e+003,1.6582050781e+003,1.7706409912e+003,1.8217949219e+003,1.6164102783e+003,1.7807692871e+003,1.6701281738e+003,1.6693590088e+003,
7.0312500000e-002,2.2196154785e+003,1.9543590088e+003,1.9415384521e+003,2.0439743652e+003,2.0374359131e+003,1.9276922607e+003,2.0170512695e+003,1.9396153564e+003,2.0451281738e+003,2.1217949219e+003,1.9221794434e+003,2.0711538086e+003,1.9712821045e+003,1.9532050781e+003,
7.8125000000e-002,2.3552563477e+003,2.0955129395e+003,2.0755129395e+003,2.1794870605e+003,2.1824357910e+003,2.0583332520e+003,2.1483332520e+003,2.0675642090e+003,2.1733332520e+003,2.2623076172e+003,2.0629487305e+003,2.2057692871e+003,2.1115385742e+003,2.0878205566e+003,
8.5937500000e-002,2.6194870605e+003,2.3897436523e+003,2.3465385742e+003,2.4541025391e+003,2.5065385742e+003,2.3251281738e+003,2.4052563477e+003,2.3344870605e+003,2.4294870605e+003,2.5496154785e+003,2.3564101563e+003,2.4797436523e+003,2.3983332520e+003,2.3651281738e+003,
9.3750000000e-002,2.7407692871e+003,2.5280769043e+003,2.4700000000e+003,2.5803845215e+003,2.6579487305e+003,2.4514101563e+003,2.5256411133e+003,2.4606411133e+003,2.5506411133e+003,2.6839743652e+003,2.4898718262e+003,2.6073076172e+003,2.5311538086e+003,2.4917949219e+003,
1.0156250000e-001,3.1369230957e+003,2.9776923828e+003,2.8784614258e+003,2.9762819824e+003,3.0902563477e+003,2.8758974609e+003,2.9360256348e+003,2.8802563477e+003,2.9626923828e+003,3.1305129395e+003,2.9337180176e+003,3.0282050781e+003,2.9665385742e+003,2.9019230957e+003,
1.0937500000e-001,3.2193588867e+003,3.0757692871e+003,2.9726923828e+003,3.0605129395e+003,3.1773076172e+003,2.9705129395e+003,3.0260256348e+003,2.9746154785e+003,3.0529487305e+003,3.2306411133e+003,3.0387180176e+003,3.1243588867e+003,3.0625642090e+003,2.9939743652e+003,
1.1718750000e-001,3.3307692871e+003,3.2102563477e+003,3.1001281738e+003,3.1843588867e+003,3.3064101563e+003,3.0973076172e+003,3.1478205566e+003,3.1001281738e+003,3.1746154785e+003,3.3648718262e+003,3.1785898438e+003,3.2528205566e+003,3.1943588867e+003,3.1164101563e+003,
1.2500000000e-001,3.4098718262e+003,3.3039743652e+003,3.1821794434e+003,3.2711538086e+003,3.3978205566e+003,3.1832050781e+003,3.2301281738e+003,3.1842307129e+003,3.2576923828e+003,3.4537180176e+003,3.2676923828e+003,3.3356411133e+003,3.2842307129e+003,3.1974357910e+003,
1.3281250000e-001,3.5144870605e+003,3.4591025391e+003,3.3175642090e+003,3.3969230957e+003,3.5311538086e+003,3.3284614258e+003,3.3574357910e+003,3.3276923828e+003,3.3907692871e+003,3.6043588867e+003,3.4171794434e+003,3.4811538086e+003,3.4278205566e+003,3.3334614258e+003,
1.4062500000e-001,3.4475642090e+003,3.3992307129e+003,3.2648718262e+003,3.3402563477e+003,3.4657692871e+003,3.2728205566e+003,3.3017949219e+003,3.2725642090e+003,3.3341025391e+003,3.5485898438e+003,3.3598718262e+003,3.4302563477e+003,3.3700000000e+003,3.2800000000e+003,
1.4843750000e-001,3.3811538086e+003,3.3356411133e+003,3.2092307129e+003,3.2853845215e+003,3.3929487305e+003,3.2134614258e+003,3.2458974609e+003,3.2115385742e+003,3.2746154785e+003,3.4871794434e+003,3.2974357910e+003,3.3735898438e+003,3.3100000000e+003,3.2223076172e+003,
1.5625000000e-001,3.3571794434e+003,3.3138461914e+003,3.1921794434e+003,3.2702563477e+003,3.3574357910e+003,3.1935898438e+003,3.2292307129e+003,3.1879487305e+003,3.2541025391e+003,3.4643588867e+003,3.2747436523e+003,3.3538461914e+003,3.2906411133e+003,3.2025642090e+003,
1.6406250000e-001,3.2397436523e+003,3.2300000000e+003,3.0965385742e+003,3.1657692871e+003,3.2962819824e+003,3.0971794434e+003,3.1242307129e+003,3.1026923828e+003,3.1669230957e+003,3.3717949219e+003,3.1841025391e+003,3.2657692871e+003,3.1980769043e+003,3.1080769043e+003,
1.7187500000e-001,3.1983332520e+003,3.1957692871e+003,3.0587180176e+003,3.1315385742e+003,3.2779487305e+003,3.0603845215e+003,3.0948718262e+003,3.0637180176e+003,3.1278205566e+003,3.3256411133e+003,3.1419230957e+003,3.2275642090e+003,3.1585898438e+003,3.0684614258e+003,
1.7968750000e-001,4.1023076172e+003,4.1408974609e+003,3.9578205566e+003,4.0475642090e+003,4.1942309570e+003,3.9630769043e+003,4.0030769043e+003,3.9410256348e+003,3.9944870605e+003,4.2283334961e+003,4.0607692871e+003,4.1171796875e+003,4.0798718262e+003,3.9661538086e+003,
1.8750000000e-001,4.6298715820e+003,4.7447436523e+003,4.5210258789e+003,4.5864101563e+003,4.7676923828e+003,4.5306411133e+003,4.5247436523e+003,4.5347436523e+003,4.5647436523e+003,4.8703847656e+003,4.6905126953e+003,4.7046152344e+003,4.6755126953e+003,4.5364101563e+003,
1.9531250000e-001,4.4792309570e+003,4.6055126953e+003,4.3898715820e+003,4.4441025391e+003,4.6180771484e+003,4.3988461914e+003,4.3924360352e+003,4.4047436523e+003,4.4333334961e+003,4.7366665039e+003,4.5562822266e+003,4.5741025391e+003,4.5376923828e+003,4.4005126953e+003,
2.0312500000e-001,4.5339741211e+003,4.6980771484e+003,4.4782050781e+003,4.5479487305e+003,4.7048715820e+003,4.4858974609e+003,4.4901284180e+003,4.4748715820e+003,4.5017949219e+003,4.7998715820e+003,4.6353847656e+003,4.6476923828e+003,4.6169228516e+003,4.4783334961e+003,
2.1093750000e-001,4.6534614258e+003,4.8653847656e+003,4.6379487305e+003,4.7229487305e+003,4.8862822266e+003,4.6383334961e+003,4.6301284180e+003,4.6411538086e+003,4.6624360352e+003,4.9815385742e+003,4.8141025391e+003,4.8160258789e+003,4.7789741211e+003,4.6385898438e+003,
2.1875000000e-001,4.4537177734e+003,4.6700000000e+003,4.4560258789e+003,4.5407690430e+003,4.6753847656e+003,4.4580771484e+003,4.4456411133e+003,4.4620512695e+003,4.4851284180e+003,4.7969228516e+003,4.6250000000e+003,4.6339741211e+003,4.5903847656e+003,4.4552563477e+003,
2.2656250000e-001,4.2219228516e+003,4.4378203125e+003,4.2401284180e+003,4.3239741211e+003,4.4314101563e+003,4.2452563477e+003,4.2320512695e+003,4.2455126953e+003,4.2716665039e+003,4.5692309570e+003,4.3952563477e+003,4.4147436523e+003,4.3656411133e+003,4.2367949219e+003,
2.3437500000e-001,3.9971794434e+003,4.2108974609e+003,4.0316667480e+003,4.1079487305e+003,4.2251284180e+003,4.0387180176e+003,4.0362819824e+003,4.0279487305e+003,4.0593588867e+003,4.3279487305e+003,4.1598715820e+003,4.1965385742e+003,4.1428203125e+003,4.0232050781e+003,
2.4218750000e-001,4.2978203125e+003,4.5289741211e+003,4.3302563477e+003,4.3923076172e+003,4.5576923828e+003,4.3371796875e+003,4.3393588867e+003,4.3273076172e+003,4.3566665039e+003,4.6262822266e+003,4.4675639648e+003,4.4898715820e+003,4.4443588867e+003,4.3219228516e+003,
2.5000000000e-001,4.3239741211e+003,4.5600000000e+003,4.3619228516e+003,4.4238461914e+003,4.5725639648e+003,4.3702563477e+003,4.3669228516e+003,4.3632050781e+003,4.3910258789e+003,4.6651284180e+003,4.5039741211e+003,4.5225639648e+003,4.4761538086e+003,4.3542309570e+003,
2.5781250000e-001,4.2553847656e+003,4.4941025391e+003,4.3029487305e+003,4.3639741211e+003,4.4967949219e+003,4.3111538086e+003,4.3046152344e+003,4.3073076172e+003,4.3355126953e+003,4.6084614258e+003,4.4444873047e+003,4.4647436523e+003,4.4144873047e+003,4.2956411133e+003,
2.6562500000e-001,3.9782050781e+003,4.2198715820e+003,4.0438461914e+003,4.0951281738e+003,4.2257690430e+003,4.0475642090e+003,4.0498718262e+003,4.0526923828e+003,4.0851281738e+003,4.3401284180e+003,4.1748715820e+003,4.2061538086e+003,4.1491025391e+003,4.0360256348e+003,
2.7343750000e-001,3.8666667480e+003,4.1089741211e+003,3.9369230957e+003,3.9828205566e+003,4.1112822266e+003,3.9375642090e+003,3.9494870605e+003,3.9460256348e+003,3.9803845215e+003,4.2252563477e+003,4.0611538086e+003,4.0973076172e+003,4.0400000000e+003,3.9269230957e+003,
2.8125000000e-001,3.8207692871e+003,4.0623076172e+003,3.8920512695e+003,3.9361538086e+003,4.0529487305e+003,3.8905129395e+003,3.9101281738e+003,3.8980769043e+003,3.9334614258e+003,4.1719228516e+003,4.0098718262e+003,4.0483332520e+003,3.9932050781e+003,3.8792307129e+003,
2.8906250000e-001,4.2597436523e+003,4.5175639648e+003,4.3279487305e+003,4.3578203125e+003,4.5132050781e+003,4.3243588867e+003,4.3300000000e+003,4.3211538086e+003,4.3501284180e+003,4.6139741211e+003,4.4638461914e+003,4.4866665039e+003,4.4361538086e+003,4.3220512695e+003,
2.9687500000e-001,4.2243588867e+003,4.4832050781e+003,4.3012822266e+003,4.3211538086e+003,4.4650000000e+003,4.2934614258e+003,4.2975639648e+003,4.2960258789e+003,4.3229487305e+003,4.5861538086e+003,4.4353847656e+003,4.4592309570e+003,4.4058974609e+003,4.2920512695e+003,
3.0468750000e-001,3.8007692871e+003,4.0385898438e+003,3.8993588867e+003,3.9010256348e+003,3.9911538086e+003,3.8829487305e+003,3.8928205566e+003,3.8888461914e+003,3.9247436523e+003,4.1576923828e+003,4.0015385742e+003,4.0405129395e+003,3.9823076172e+003,3.8744870605e+003,
3.1250000000e-001,3.4596154785e+003,3.6850000000e+003,3.5605129395e+003,3.5753845215e+003,3.6864101563e+003,3.5492307129e+003,3.5726923828e+003,3.5550000000e+003,3.5991025391e+003,3.7943588867e+003,3.6387180176e+003,3.7017949219e+003,3.6246154785e+003,3.5371794434e+003,
3.2031250000e-001,3.3958974609e+003,3.6164101563e+003,3.4952563477e+003,3.5198718262e+003,3.6073076172e+003,3.4867949219e+003,3.5138461914e+003,3.4917949219e+003,3.5383332520e+003,3.7243588867e+003,3.5688461914e+003,3.6344870605e+003,3.5566667480e+003,3.4720512695e+003,
3.2812500000e-001,3.2533332520e+003,3.4450000000e+003,3.3501281738e+003,3.3735898438e+003,3.3978205566e+003,3.3366667480e+003,3.3715385742e+003,3.3353845215e+003,3.3937180176e+003,3.5614101563e+003,3.4044870605e+003,3.4779487305e+003,3.4026923828e+003,3.3248718262e+003,
3.3593750000e-001,3.3753845215e+003,3.5621794434e+003,3.4548718262e+003,3.4693588867e+003,3.5480769043e+003,3.4456411133e+003,3.4796154785e+003,3.4369230957e+003,3.4935898438e+003,3.6617949219e+003,3.5148718262e+003,3.5830769043e+003,3.5144870605e+003,3.4347436523e+003,
3.4375000000e-001,3.4535898438e+003,3.6457692871e+003,3.5271794434e+003,3.5443588867e+003,3.6270512695e+003,3.5216667480e+003,3.5543588867e+003,3.5153845215e+003,3.5703845215e+003,3.7438461914e+003,3.5951281738e+003,3.6596154785e+003,3.5941025391e+003,3.5111538086e+003,
3.5156250000e-001,3.4985898438e+003,3.6938461914e+003,3.5689743652e+003,3.5879487305e+003,3.6601281738e+003,3.5639743652e+003,3.5957692871e+003,3.5616667480e+003,3.6157692871e+003,3.7935898438e+003,3.6417949219e+003,3.7052563477e+003,3.6403845215e+003,3.5555129395e+003,
3.5937500000e-001,3.4901281738e+003,3.6801281738e+003,3.5583332520e+003,3.5771794434e+003,3.6107692871e+003,3.5488461914e+003,3.5787180176e+003,3.5498718262e+003,3.6038461914e+003,3.7810256348e+003,3.6305129395e+003,3.6952563477e+003,3.6287180176e+003,3.5429487305e+003,
3.6718750000e-001,3.5176923828e+003,3.7091025391e+003,3.5850000000e+003,3.6106411133e+003,3.6480769043e+003,3.5784614258e+003,3.6064101563e+003,3.5762819824e+003,3.6270512695e+003,3.8023076172e+003,3.6639743652e+003,3.7233332520e+003,3.6600000000e+003,3.5750000000e+003,
3.7500000000e-001,3.5589743652e+003,3.7548718262e+003,3.6250000000e+003,3.6506411133e+003,3.7008974609e+003,3.6207692871e+003,3.6496154785e+003,3.6201281738e+003,3.6701281738e+003,3.8508974609e+003,3.7085898438e+003,3.7661538086e+003,3.7060256348e+003,3.6192307129e+003,
3.8281250000e-001,3.5983332520e+003,3.7958974609e+003,3.6624357910e+003,3.6844870605e+003,3.7387180176e+003,3.6587180176e+003,3.6879487305e+003,3.6615385742e+003,3.7121794434e+003,3.8983332520e+003,3.7491025391e+003,3.8041025391e+003,3.7478205566e+003,3.6580769043e+003,
3.9062500000e-001,3.6037180176e+003,3.7925642090e+003,3.6673076172e+003,3.6779487305e+003,3.7083332520e+003,3.6565385742e+003,3.6851281738e+003,3.6689743652e+003,3.7219230957e+003,3.9070512695e+003,3.7519230957e+003,3.8038461914e+003,3.7471794434e+003,3.6576923828e+003,
3.9843750000e-001,3.5634614258e+003,3.7475642090e+003,3.6292307129e+003,3.6382050781e+003,3.6543588867e+003,3.6134614258e+003,3.6428205566e+003,3.6288461914e+003,3.6823076172e+003,3.8619230957e+003,3.7108974609e+003,3.7643588867e+003,3.7025642090e+003,3.6174357910e+003,
4.0625000000e-001,3.5187180176e+003,3.7024357910e+003,3.5862819824e+003,3.5996154785e+003,3.6089743652e+003,3.5683332520e+003,3.5988461914e+003,3.5838461914e+003,3.6375642090e+003,3.8130769043e+003,3.6671794434e+003,3.7226923828e+003,3.6562819824e+003,3.5752563477e+003,
4.1406250000e-001,3.5419230957e+003,3.7201281738e+003,3.6066667480e+003,3.6356411133e+003,3.6415385742e+003,3.5826923828e+003,3.6187180176e+003,3.5983332520e+003,3.6455129395e+003,3.8196154785e+003,3.6784614258e+003,3.7406411133e+003,3.6766667480e+003,3.5884614258e+003,
4.2187500000e-001,3.5347436523e+003,3.7123076172e+003,3.6010256348e+003,3.6284614258e+003,3.6261538086e+003,3.5812819824e+003,3.6152563477e+003,3.5950000000e+003,3.6433332520e+003,3.8115385742e+003,3.6717949219e+003,3.7351281738e+003,3.6692307129e+003,3.5810256348e+003,
4.2968750000e-001,3.3498718262e+003,3.5358974609e+003,3.4224357910e+003,3.4608974609e+003,3.4119230957e+003,3.4210256348e+003,3.4529487305e+003,3.4316667480e+003,3.4784614258e+003,3.6408974609e+003,3.4901281738e+003,3.5600000000e+003,3.4843588867e+003,3.4061538086e+003,
4.3750000000e-001,3.3514101563e+003,3.5324357910e+003,3.4133332520e+003,3.4670512695e+003,3.4274357910e+003,3.3902563477e+003,3.4406411133e+003,3.4050000000e+003,3.4576923828e+003,3.6025642090e+003,3.4633332520e+003,3.5376923828e+003,3.4642307129e+003,3.3930769043e+003,
4.4531250000e-001,3.4285898438e+003,3.6124357910e+003,3.4860256348e+003,3.5385898438e+003,3.5182050781e+003,3.4633332520e+003,3.5117949219e+003,3.4752563477e+003,3.5320512695e+003,3.6753845215e+003,3.5382050781e+003,3.6121794434e+003,3.5392307129e+003,3.4679487305e+003,
4.5312500000e-001,3.4815385742e+003,3.6670512695e+003,3.5465385742e+003,3.5903845215e+003,3.5391025391e+003,3.5288461914e+003,3.5674357910e+003,3.5432050781e+003,3.5935898438e+003,3.7441025391e+003,3.6011538086e+003,3.6750000000e+003,3.5924357910e+003,3.5297436523e+003,
4.6093750000e-001,3.4273076172e+003,3.6067949219e+003,3.4934614258e+003,3.5457692871e+003,3.4676923828e+003,3.4761538086e+003,3.5150000000e+003,3.4933332520e+003,3.5417949219e+003,3.6882050781e+003,3.5480769043e+003,3.6193588867e+003,3.5357692871e+003,3.4752563477e+003,
4.6875000000e-001,3.2996154785e+003,3.4694870605e+003,3.3608974609e+003,3.4298718262e+003,3.3455129395e+003,3.3483332520e+003,3.3880769043e+003,3.3620512695e+003,3.4192307129e+003,3.5498718262e+003,3.4135898438e+003,3.4843588867e+003,3.4028205566e+003,3.3428205566e+003,
4.7656250000e-001,3.2546154785e+003,3.4232050781e+003,3.3130769043e+003,3.3791025391e+003,3.3146154785e+003,3.3023076172e+003,3.3419230957e+003,3.3119230957e+003,3.3762819824e+003,3.5017949219e+003,3.3610256348e+003,3.4356411133e+003,3.3551281738e+003,3.2953845215e+003,
4.8437500000e-001,3.2555129395e+003,3.4206411133e+003,3.3061538086e+003,3.3460256348e+003,3.3200000000e+003,3.2924357910e+003,3.3357692871e+003,3.3035898438e+003,3.3689743652e+003,3.5037180176e+003,3.3484614258e+003,3.4305129395e+003,3.3521794434e+003,3.2930769043e+003,
4.9218750000e-001,3.2755129395e+003,3.4376923828e+003,3.3241025391e+003,3.3638461914e+003,3.3315385742e+003,3.3098718262e+003,3.3552563477e+003,3.3235898438e+003,3.3852563477e+003,3.5230769043e+003,3.3705129395e+003,3.4512819824e+003,3.3733332520e+003,3.3151281738e+003,
5.0000000000e-001,3.2907692871e+003,3.4494870605e+003,3.3380769043e+003,3.3828205566e+003,3.3337180176e+003,3.3233332520e+003,3.3696154785e+003,3.3379487305e+003,3.3991025391e+003,3.5347436523e+003,3.3884614258e+003,3.4651281738e+003,3.3894870605e+003,3.3333332520e+003,
5.0781250000e-001,3.2739743652e+003,3.4335898438e+003,3.3215385742e+003,3.3655129395e+003,3.3152563477e+003,3.3062819824e+003,3.3516667480e+003,3.3212819824e+003,3.3844870605e+003,3.5167949219e+003,3.3698718262e+003,3.4458974609e+003,3.3707692871e+003,3.3156411133e+003,
5.1562500000e-001,3.1241025391e+003,3.2761538086e+003,3.1705129395e+003,3.1978205566e+003,3.1517949219e+003,3.1565385742e+003,3.2021794434e+003,3.1756411133e+003,3.2393588867e+003,3.3596154785e+003,3.2091025391e+003,3.2914101563e+003,3.2070512695e+003,3.1561538086e+003,
5.2343750000e-001,3.0662819824e+003,3.2108974609e+003,3.1089743652e+003,3.1358974609e+003,3.0800000000e+003,3.0961538086e+003,3.1446154785e+003,3.1175642090e+003,3.1825642090e+003,3.2984614258e+003,3.1476923828e+003,3.2305129395e+003,3.1460256348e+003,3.0955129395e+003,
5.3125000000e-001,3.0003845215e+003,3.1383332520e+003,3.0385898438e+003,3.0693588867e+003,3.0015385742e+003,3.0262819824e+003,3.0788461914e+003,3.0523076172e+003,3.1198718262e+003,3.2302563477e+003,3.0783332520e+003,3.1614101563e+003,3.0794870605e+003,3.0288461914e+003,
5.3906250000e-001,2.4083332520e+003,2.4779487305e+003,2.4324357910e+003,2.4448718262e+003,2.3867949219e+003,2.4133332520e+003,2.4862819824e+003,2.4426923828e+003,2.5257692871e+003,2.5814101563e+003,2.4324357910e+003,2.5516667480e+003,2.4476923828e+003,2.4328205566e+003,
5.4687500000e-001,2.3573076172e+003,2.4087180176e+003,2.3724357910e+003,2.3882050781e+003,2.3153845215e+003,2.3542307129e+003,2.4312819824e+003,2.3796154785e+003,2.4651281738e+003,2.5151281738e+003,2.3632050781e+003,2.4860256348e+003,2.3825642090e+003,2.3708974609e+003,
5.5468750000e-001,2.4030769043e+003,2.4385898438e+003,2.3914101563e+003,2.4243588867e+003,2.3175642090e+003,2.3764101563e+003,2.4550000000e+003,2.4006411133e+003,2.4889743652e+003,2.5356411133e+003,2.3778205566e+003,2.4996154785e+003,2.4080769043e+003,2.3930769043e+003,
5.6250000000e-001,2.5060256348e+003,2.5262819824e+003,2.4741025391e+003,2.5126923828e+003,2.4241025391e+003,2.4560256348e+003,2.5373076172e+003,2.4714101563e+003,2.5715385742e+003,2.6219230957e+003,2.4623076172e+003,2.5829487305e+003,2.4884614258e+003,2.4752563477e+003,
5.7031250000e-001,2.6343588867e+003,2.6506411133e+003,2.5951281738e+003,2.6367949219e+003,2.5323076172e+003,2.5770512695e+003,2.6607692871e+003,2.5882050781e+003,2.6876923828e+003,2.7439743652e+003,2.5832050781e+003,2.7037180176e+003,2.6093588867e+003,2.5921794434e+003,
5.7812500000e-001,3.1324357910e+003,3.1697436523e+003,3.0747436523e+003,3.1271794434e+003,3.0223076172e+003,3.0666667480e+003,3.1321794434e+003,3.0869230957e+003,3.1657692871e+003,3.2570512695e+003,3.0984614258e+003,3.1883332520e+003,3.1170512695e+003,3.0791025391e+003,
5.8593750000e-001,3.2039743652e+003,3.2469230957e+003,3.1487180176e+003,3.2048718262e+003,3.1182050781e+003,3.1389743652e+003,3.1983332520e+003,3.1625642090e+003,3.2379487305e+003,3.3398718262e+003,3.1839743652e+003,3.2639743652e+003,3.1953845215e+003,3.1561538086e+003,
5.9375000000e-001,3.2694870605e+003,3.3166667480e+003,3.2223076172e+003,3.2901281738e+003,3.2117949219e+003,3.2029487305e+003,3.2629487305e+003,3.2239743652e+003,3.3015385742e+003,3.4170512695e+003,3.2623076172e+003,3.3425642090e+003,3.2662819824e+003,3.2273076172e+003,
6.0156250000e-001,3.3139743652e+003,3.3661538086e+003,3.2666667480e+003,3.3385898438e+003,3.2529487305e+003,3.2450000000e+003,3.3066667480e+003,3.2662819824e+003,3.3439743652e+003,3.4651281738e+003,3.3082050781e+003,3.3911538086e+003,3.3129487305e+003,3.2706411133e+003,
6.0937500000e-001,3.2879487305e+003,3.3474357910e+003,3.2516667480e+003,3.3019230957e+003,3.1993588867e+003,3.2173076172e+003,3.2758974609e+003,3.2508974609e+003,3.3203845215e+003,3.4492307129e+003,3.2923076172e+003,3.3742307129e+003,3.2973076172e+003,3.2503845215e+003,
6.1718750000e-001,3.2134614258e+003,3.2684614258e+003,3.1847436523e+003,3.2265385742e+003,3.1198718262e+003,3.1423076172e+003,3.2024357910e+003,3.1752563477e+003,3.2469230957e+003,3.3730769043e+003,3.2182050781e+003,3.3033332520e+003,3.2226923828e+003,3.1797436523e+003,
6.2500000000e-001,3.0901281738e+003,3.1485898438e+003,3.0675642090e+003,3.1084614258e+003,3.0050000000e+003,3.0225642090e+003,3.0888461914e+003,3.0519230957e+003,3.1315385742e+003,3.2508974609e+003,3.0976923828e+003,3.1906411133e+003,3.1024357910e+003,3.0641025391e+003,
6.3281250000e-001,3.0374357910e+003,3.1010256348e+003,3.0155129395e+003,3.0592307129e+003,2.9630769043e+003,2.9760256348e+003,3.0443588867e+003,3.0055129395e+003,3.0866667480e+003,3.2000000000e+003,3.0489743652e+003,3.1434614258e+003,3.0538461914e+003,3.0157692871e+003,
6.4062500000e-001,2.9311538086e+003,2.9792307129e+003,2.9116667480e+003,2.9569230957e+003,2.8450000000e+003,2.8843588867e+003,2.9511538086e+003,2.9062819824e+003,2.9851281738e+003,3.0761538086e+003,2.9353845215e+003,3.0307692871e+003,2.9429487305e+003,2.9091025391e+003,
6.4843750000e-001,2.9574357910e+003,3.0002563477e+003,2.9358974609e+003,2.9832050781e+003,2.8537180176e+003,2.9096154785e+003,2.9744870605e+003,2.9274357910e+003,3.0060256348e+003,3.0985898438e+003,2.9544870605e+003,3.0516667480e+003,2.9625642090e+003,2.9306411133e+003,
6.5625000000e-001,2.9912819824e+003,3.0343588867e+003,2.9667949219e+003,3.0173076172e+003,2.8794870605e+003,2.9411538086e+003,3.0047436523e+003,2.9584614258e+003,3.0360256348e+003,3.1347436523e+003,2.9832050781e+003,3.0837180176e+003,2.9910256348e+003,2.9610256348e+003,
6.6406250000e-001,3.1921794434e+003,3.2446154785e+003,3.1592307129e+003,3.2003845215e+003,3.1330769043e+003,3.1374357910e+003,3.2067949219e+003,3.1583332520e+003,3.2243588867e+003,3.3365385742e+003,3.1856411133e+003,3.2752563477e+003,3.1897436523e+003,3.1543588867e+003,
6.7187500000e-001,3.2937180176e+003,3.3544870605e+003,3.2655129395e+003,3.3048718262e+003,3.2201281738e+003,3.2441025391e+003,3.3089743652e+003,3.2665385742e+003,3.3296154785e+003,3.4505129395e+003,3.2997436523e+003,3.3850000000e+003,3.2987180176e+003,3.2611538086e+003,
6.7968750000e-001,3.2237180176e+003,3.2985898438e+003,3.2097436523e+003,3.2448718262e+003,3.1530769043e+003,3.1837180176e+003,3.2443588867e+003,3.2150000000e+003,3.2787180176e+003,3.4048718262e+003,3.2537180176e+003,3.3400000000e+003,3.2479487305e+003,3.2088461914e+003,
6.8750000000e-001,3.1556411133e+003,3.2260256348e+003,3.1402563477e+003,3.1724357910e+003,3.0985898438e+003,3.1142307129e+003,3.1784614258e+003,3.1410256348e+003,3.2082050781e+003,3.3265385742e+003,3.1812819824e+003,3.2674357910e+003,3.1757692871e+003,3.1385898438e+003,
6.9531250000e-001,3.2617949219e+003,3.3362819824e+003,3.2351281738e+003,3.2669230957e+003,3.2210256348e+003,3.2151281738e+003,3.2835898438e+003,3.2275642090e+003,3.2966667480e+003,3.4152563477e+003,3.2770512695e+003,3.3578205566e+003,3.2697436523e+003,3.2351281738e+003,
7.0312500000e-001,3.6811538086e+003,3.7885898438e+003,3.6596154785e+003,3.6943588867e+003,3.6223076172e+003,3.6323076172e+003,3.6812819824e+003,3.6615385742e+003,3.7205129395e+003,3.8837180176e+003,3.7238461914e+003,3.7966667480e+003,3.7158974609e+003,3.6606411133e+003,
7.1093750000e-001,3.5151281738e+003,3.6184614258e+003,3.5046154785e+003,3.5356411133e+003,3.4587180176e+003,3.4719230957e+003,3.5210256348e+003,3.5065385742e+003,3.5644870605e+003,3.7237180176e+003,3.5652563477e+003,3.6417949219e+003,3.5551281738e+003,3.5052563477e+003,
7.1875000000e-001,3.0511538086e+003,3.1464101563e+003,3.0557692871e+003,3.0844870605e+003,3.0296154785e+003,3.0301281738e+003,3.0847436523e+003,3.0620512695e+003,3.1271794434e+003,3.2574357910e+003,3.1057692871e+003,3.1898718262e+003,3.0935898438e+003,3.0629487305e+003,
7.2656250000e-001,2.8751281738e+003,2.9638461914e+003,2.8814101563e+003,2.9092307129e+003,2.8710256348e+003,2.8630769043e+003,2.9212819824e+003,2.8910256348e+003,2.9617949219e+003,3.0742307129e+003,2.9237180176e+003,3.0152563477e+003,2.9155129395e+003,2.8921794434e+003,
7.3437500000e-001,2.6944870605e+003,2.7435898438e+003,2.6948718262e+003,2.7229487305e+003,2.6628205566e+003,2.6743588867e+003,2.7460256348e+003,2.6956411133e+003,2.7762819824e+003,2.8583332520e+003,2.7079487305e+003,2.8228205566e+003,2.7180769043e+003,2.7065385742e+003,
7.4218750000e-001,2.6569230957e+003,2.6971794434e+003,2.6550000000e+003,2.6893588867e+003,2.6026923828e+003,2.6287180176e+003,2.7066667480e+003,2.6529487305e+003,2.7350000000e+003,2.8142307129e+003,2.6642307129e+003,2.7791025391e+003,2.6750000000e+003,2.6664101563e+003,
7.5000000000e-001,2.4875642090e+003,2.5192307129e+003,2.4821794434e+003,2.5283332520e+003,2.4156411133e+003,2.4487180176e+003,2.5371794434e+003,2.4807692871e+003,2.5646154785e+003,2.6329487305e+003,2.4810256348e+003,2.6017949219e+003,2.4942307129e+003,2.4933332520e+003,
7.5781250000e-001,2.4025642090e+003,2.4288461914e+003,2.3930769043e+003,2.4414101563e+003,2.3311538086e+003,2.3606411133e+003,2.4505129395e+003,2.3921794434e+003,2.4758974609e+003,2.5361538086e+003,2.3830769043e+003,2.5110256348e+003,2.4014101563e+003,2.4042307129e+003,
7.6562500000e-001,2.4110256348e+003,2.4153845215e+003,2.3838461914e+003,2.4552563477e+003,2.2947436523e+003,2.3551281738e+003,2.4461538086e+003,2.3833332520e+003,2.4673076172e+003,2.5202563477e+003,2.3634614258e+003,2.5007692871e+003,2.3928205566e+003,2.3946154785e+003,
7.7343750000e-001,2.4739743652e+003,2.4724357910e+003,2.4433332520e+003,2.5302563477e+003,2.3424357910e+003,2.4117949219e+003,2.5071794434e+003,2.4434614258e+003,2.5279487305e+003,2.5841025391e+003,2.4252563477e+003,2.5612819824e+003,2.4541025391e+003,2.4516667480e+003,
7.8125000000e-001,2.5546154785e+003,2.5497436523e+003,2.5194870605e+003,2.6210256348e+003,2.4252563477e+003,2.4869230957e+003,2.5856411133e+003,2.5228205566e+003,2.6071794434e+003,2.6666667480e+003,2.5061538086e+003,2.6393588867e+003,2.5348718262e+003,2.5262819824e+003,
7.8906250000e-001,2.6466667480e+003,2.6421794434e+003,2.6039743652e+003,2.7157692871e+003,2.5382050781e+003,2.5756411133e+003,2.6739743652e+003,2.6148718262e+003,2.6971794434e+003,2.7611538086e+003,2.5996154785e+003,2.7276923828e+003,2.6292307129e+003,2.6125642090e+003,
7.9687500000e-001,2.9369230957e+003,2.9570512695e+003,2.8733332520e+003,2.9698718262e+003,2.8782050781e+003,2.8766667480e+003,2.9555129395e+003,2.9021794434e+003,2.9766667480e+003,3.0678205566e+003,2.9088461914e+003,3.0142307129e+003,2.9324357910e+003,2.8941025391e+003,
8.0468750000e-001,3.0326923828e+003,3.0573076172e+003,2.9697436523e+003,3.0633332520e+003,2.9620512695e+003,2.9705129395e+003,3.0491025391e+003,2.9974357910e+003,3.0724357910e+003,3.1696154785e+003,3.0096154785e+003,3.1091025391e+003,3.0288461914e+003,2.9865385742e+003,
8.1250000000e-001,3.1587180176e+003,3.1944870605e+003,3.0976923828e+003,3.1982050781e+003,3.0929487305e+003,3.0925642090e+003,3.1633332520e+003,3.1358974609e+003,3.2089743652e+003,3.3203845215e+003,3.1515385742e+003,3.2397436523e+003,3.1674357910e+003,3.1101281738e+003,
8.2031250000e-001,3.0494870605e+003,3.0855129395e+003,3.0025642090e+003,3.0896154785e+003,2.9626923828e+003,3.0019230957e+003,3.0683332520e+003,3.0248718262e+003,3.0983332520e+003,3.2038461914e+003,3.0424357910e+003,3.1423076172e+003,3.0616667480e+003,3.0120512695e+003,
8.2812500000e-001,3.1039743652e+003,3.1426923828e+003,3.0589743652e+003,3.1444870605e+003,3.0200000000e+003,3.0558974609e+003,3.1226923828e+003,3.0785898438e+003,3.1480769043e+003,3.2561538086e+003,3.0973076172e+003,3.1975642090e+003,3.1160256348e+003,3.0665385742e+003,
8.3593750000e-001,3.2738461914e+003,3.3346154785e+003,3.2296154785e+003,3.3080769043e+003,3.2238461914e+003,3.2120512695e+003,3.2817949219e+003,3.2453845215e+003,3.3041025391e+003,3.4302563477e+003,3.2741025391e+003,3.3714101563e+003,3.2887180176e+003,3.2355129395e+003,
8.4375000000e-001,3.3837180176e+003,3.4415385742e+003,3.3462819824e+003,3.4142307129e+003,3.3426923828e+003,3.3214101563e+003,3.3853845215e+003,3.3483332520e+003,3.4084614258e+003,3.5434614258e+003,3.3866667480e+003,3.4829487305e+003,3.3969230957e+003,3.3421794434e+003,
8.5156250000e-001,3.4392307129e+003,3.5008974609e+003,3.4056411133e+003,3.4751281738e+003,3.4012819824e+003,3.3779487305e+003,3.4421794434e+003,3.4094870605e+003,3.4671794434e+003,3.6051281738e+003,3.4469230957e+003,3.5424357910e+003,3.4564101563e+003,3.4000000000e+003,
8.5937500000e-001,3.4366667480e+003,3.5276923828e+003,3.4158974609e+003,3.4811538086e+003,3.4123076172e+003,3.3905129395e+003,3.4553845215e+003,3.4287180176e+003,3.4820512695e+003,3.6301281738e+003,3.4733332520e+003,3.5591025391e+003,3.4757692871e+003,3.4179487305e+003,
8.6718750000e-001,3.4280769043e+003,3.5219230957e+003,3.4121794434e+003,3.4750000000e+003,3.4082050781e+003,3.3894870605e+003,3.4532050781e+003,3.4226923828e+003,3.4755129395e+003,3.6242307129e+003,3.4714101563e+003,3.5558974609e+003,3.4712819824e+003,3.4148718262e+003,
8.7500000000e-001,3.5279487305e+003,3.6188461914e+003,3.5123076172e+003,3.5800000000e+003,3.5011538086e+003,3.4948718262e+003,3.5542307129e+003,3.5182050781e+003,3.5694870605e+003,3.7214101563e+003,3.5737180176e+003,3.6597436523e+003,3.5711538086e+003,3.5133332520e+003,
8.8281250000e-001,3.5974357910e+003,3.6892307129e+003,3.5775642090e+003,3.6508974609e+003,3.5634614258e+003,3.5637180176e+003,3.6187180176e+003,3.5847436523e+003,3.6365385742e+003,3.7929487305e+003,3.6438461914e+003,3.7287180176e+003,3.6398718262e+003,3.5787180176e+003,
8.9062500000e-001,3.5308974609e+003,3.6329487305e+003,3.5262819824e+003,3.5923076172e+003,3.5167949219e+003,3.5051281738e+003,3.5532050781e+003,3.5282050781e+003,3.5850000000e+003,3.7412819824e+003,3.5888461914e+003,3.6734614258e+003,3.5812819824e+003,3.5214101563e+003,
8.9843750000e-001,3.4742307129e+003,3.5811538086e+003,3.4805129395e+003,3.5382050781e+003,3.4769230957e+003,3.4533332520e+003,3.5028205566e+003,3.4775642090e+003,3.5335898438e+003,3.6843588867e+003,3.5338461914e+003,3.6215385742e+003,3.5284614258e+003,3.4711538086e+003,
9.0625000000e-001,3.4643588867e+003,3.5783332520e+003,3.4751281738e+003,3.5288461914e+003,3.4792307129e+003,3.4467949219e+003,3.4988461914e+003,3.4724357910e+003,3.5266667480e+003,3.6735898438e+003,3.5247436523e+003,3.6134614258e+003,3.5217949219e+003,3.4650000000e+003,
9.1406250000e-001,3.4966667480e+003,3.6187180176e+003,3.5053845215e+003,3.5603845215e+003,3.5160256348e+003,3.4815385742e+003,3.5360256348e+003,3.5085898438e+003,3.5608974609e+003,3.7076923828e+003,3.5593588867e+003,3.6466667480e+003,3.5566667480e+003,3.4987180176e+003,
9.2187500000e-001,3.4815385742e+003,3.6038461914e+003,3.4974357910e+003,3.5523076172e+003,3.5043588867e+003,3.4838461914e+003,3.5326923828e+003,3.5046154785e+003,3.5579487305e+003,3.7101281738e+003,3.5620512695e+003,3.6484614258e+003,3.5516667480e+003,3.4926923828e+003,
9.2968750000e-001,3.4603845215e+003,3.5815385742e+003,3.4830769043e+003,3.5332050781e+003,3.4892307129e+003,3.4658974609e+003,3.5143588867e+003,3.4867949219e+003,3.5400000000e+003,3.6908974609e+003,3.5416667480e+003,3.6285898438e+003,3.5353845215e+003,3.4748718262e+003,
9.3750000000e-001,3.3567949219e+003,3.4758974609e+003,3.3825642090e+003,3.4224357910e+003,3.3838461914e+003,3.3583332520e+003,3.4164101563e+003,3.3912819824e+003,3.4429487305e+003,3.5882050781e+003,3.4393588867e+003,3.5280769043e+003,3.4339743652e+003,3.3819230957e+003,
9.4531250000e-001,3.0558974609e+003,3.1575642090e+003,3.0862819824e+003,3.1223076172e+003,3.0337180176e+003,3.0570512695e+003,3.1194870605e+003,3.0896154785e+003,3.1523076172e+003,3.2762819824e+003,3.1282050781e+003,3.2287180176e+003,3.1221794434e+003,3.0829487305e+003,
9.5312500000e-001,2.9708974609e+003,3.0673076172e+003,2.9926923828e+003,3.0247436523e+003,2.9780769043e+003,2.9658974609e+003,3.0444870605e+003,2.9939743652e+003,3.0674357910e+003,3.1669230957e+003,3.0179487305e+003,3.1233332520e+003,3.0274357910e+003,2.9902563477e+003,
9.6093750000e-001,3.0206411133e+003,3.1144870605e+003,3.0355129395e+003,3.0726923828e+003,3.0266667480e+003,3.0085898438e+003,3.0883332520e+003,3.0410256348e+003,3.1144870605e+003,3.2179487305e+003,3.0665385742e+003,3.1719230957e+003,3.0770512695e+003,3.0384614258e+003,
9.6875000000e-001,3.0465385742e+003,3.1258974609e+003,3.0542307129e+003,3.0967949219e+003,3.0300000000e+003,3.0264101563e+003,3.1016667480e+003,3.0628205566e+003,3.1332050781e+003,3.2444870605e+003,3.0910256348e+003,3.1973076172e+003,3.0964101563e+003,3.0603845215e+003,
9.7656250000e-001,3.0121794434e+003,3.0837180176e+003,3.0187180176e+003,3.0615385742e+003,2.9921794434e+003,2.9928205566e+003,3.0653845215e+003,3.0273076172e+003,3.0978205566e+003,3.2067949219e+003,3.0546154785e+003,3.1588461914e+003,3.0569230957e+003,3.0230769043e+003,
9.8437500000e-001,2.9403845215e+003,3.0100000000e+003,2.9414101563e+003,2.9837180176e+003,2.9392307129e+003,2.9276923828e+003,3.0012819824e+003,2.9539743652e+003,3.0264101563e+003,3.1220512695e+003,2.9711538086e+003,3.0724357910e+003,2.9764101563e+003,2.9429487305e+003,
9.9218750000e-001,2.9957692871e+003,3.0664101563e+003,2.9920512695e+003,3.0326923828e+003,2.9833332520e+003,2.9794870605e+003,3.0534614258e+003,3.0044870605e+003,3.0751281738e+003,3.1742307129e+003,3.0217949219e+003,3.1248718262e+003,3.0298718262e+003,2.9951281738e+003,
1.0000000000e+000,3.1460256348e+003,3.2151281738e+003,3.1353845215e+003,3.1724357910e+003,3.0960256348e+003,3.1193588867e+003,3.1885898438e+003,3.1460256348e+003,3.2157692871e+003,3.3282050781e+003,3.1744870605e+003,3.2729487305e+003,3.1796154785e+003,3.1429487305e+003,
1.0078125000e+000,3.1679487305e+003,3.2378205566e+003,3.1588461914e+003,3.1950000000e+003,3.1143588867e+003,3.1407692871e+003,3.2060256348e+003,3.1689743652e+003,3.2406411133e+003,3.3561538086e+003,3.2035898438e+003,3.2976923828e+003,3.2038461914e+003,3.1676923828e+003,
1.0156250000e+000,3.0325642090e+003,3.1062819824e+003,3.0275642090e+003,3.0644870605e+003,3.0255129395e+003,3.0103845215e+003,3.0728205566e+003,3.0412819824e+003,3.1153845215e+003,3.2239743652e+003,3.0751281738e+003,3.1696154785e+003,3.0746154785e+003,3.0406411133e+003,
1.0234375000e+000,2.9838461914e+003,3.0547436523e+003,2.9753845215e+003,3.0153845215e+003,2.9844870605e+003,2.9585898438e+003,3.0246154785e+003,2.9923076172e+003,3.0658974609e+003,3.1734614258e+003,3.0221794434e+003,3.1187180176e+003,3.0267949219e+003,2.9907692871e+003,
1.0312500000e+000,2.9344870605e+003,3.0008974609e+003,2.9237180176e+003,2.9670512695e+003,2.9310256348e+003,2.9061538086e+003,2.9765385742e+003,2.9425642090e+003,3.0167949219e+003,3.1230769043e+003,2.9683332520e+003,3.0675642090e+003,2.9775642090e+003,2.9401281738e+003,
1.0390625000e+000,2.8800000000e+003,2.9408974609e+003,2.8694870605e+003,2.9146154785e+003,2.8620512695e+003,2.8500000000e+003,2.9242307129e+003,2.8873076172e+003,2.9635898438e+003,3.0665385742e+003,2.9097436523e+003,3.0119230957e+003,2.9216667480e+003,2.8848718262e+003,
1.0468750000e+000,2.7328205566e+003,2.7730769043e+003,2.7128205566e+003,2.7473076172e+003,2.6701281738e+003,2.6937180176e+003,2.7776923828e+003,2.7306411133e+003,2.8112819824e+003,2.8978205566e+003,2.7470512695e+003,2.8533332520e+003,2.7615385742e+003,2.7296154785e+003,
1.0546875000e+000,2.7487180176e+003,2.7848718262e+003,2.7238461914e+003,2.7555129395e+003,2.6901281738e+003,2.7035898438e+003,2.7907692871e+003,2.7414101563e+003,2.8205129395e+003,2.9073076172e+003,2.7558974609e+003,2.8644870605e+003,2.7739743652e+003,2.7391025391e+003,
1.0625000000e+000,2.9525642090e+003,2.9835898438e+003,2.9223076172e+003,2.9561538086e+003,2.9148718262e+003,2.8943588867e+003,2.9732050781e+003,2.9306411133e+003,3.0087180176e+003,3.1110256348e+003,2.9505129395e+003,3.0550000000e+003,2.9694870605e+003,2.9308974609e+003,
1.0703125000e+000,2.9650000000e+003,2.9934614258e+003,2.9279487305e+003,2.9620512695e+003,2.8910256348e+003,2.9076923828e+003,2.9833332520e+003,2.9339743652e+003,3.0158974609e+003,3.1147436523e+003,2.9655129395e+003,3.0667949219e+003,2.9810256348e+003,2.9497436523e+003,
1.0781250000e+000,3.1570512695e+003,3.1932050781e+003,3.1116667480e+003,3.1462819824e+003,3.0779487305e+003,3.0891025391e+003,3.1693588867e+003,3.1055129395e+003,3.1875642090e+003,3.2908974609e+003,3.1515385742e+003,3.2485898438e+003,3.1705129395e+003,3.1348718262e+003,
1.0859375000e+000,4.1296152344e+003,4.2214101563e+003,4.0764101563e+003,4.1097436523e+003,4.1170512695e+003,4.0383332520e+003,4.0910256348e+003,4.0626923828e+003,4.1160258789e+003,4.3062822266e+003,4.1638461914e+003,4.2252563477e+003,4.1625639648e+003,4.1019228516e+003,
1.0937500000e+000,3.6665385742e+003,3.7800000000e+003,3.6625642090e+003,3.6838461914e+003,3.6696154785e+003,3.6228205566e+003,3.6644870605e+003,3.6592307129e+003,3.7043588867e+003,3.8947436523e+003,3.7429487305e+003,3.8137180176e+003,3.7293588867e+003,3.6739743652e+003,
1.1015625000e+000,3.5082050781e+003,3.6224357910e+003,3.5103845215e+003,3.5332050781e+003,3.5039743652e+003,3.4762819824e+003,3.5233332520e+003,3.5025642090e+003,3.5524357910e+003,3.7250000000e+003,3.5787180176e+003,3.6557692871e+003,3.5728205566e+003,3.5160256348e+003,
1.1093750000e+000,3.4825642090e+003,3.5974357910e+003,3.4855129395e+003,3.5105129395e+003,3.4788461914e+003,3.4555129395e+003,3.5055129395e+003,3.4735898438e+003,3.5267949219e+003,3.6902563477e+003,3.5478205566e+003,3.6274357910e+003,3.5473076172e+003,3.4892307129e+003,
1.1171875000e+000,3.5646154785e+003,3.6806411133e+003,3.5684614258e+003,3.5898718262e+003,3.5866667480e+003,3.5406411133e+003,3.5891025391e+003,3.5606411133e+003,3.6158974609e+003,3.7824357910e+003,3.6393588867e+003,3.7132050781e+003,3.6315385742e+003,3.5798718262e+003,
1.1250000000e+000,3.5048718262e+003,3.6247436523e+003,3.5180769043e+003,3.5208974609e+003,3.5217949219e+003,3.4946154785e+003,3.5476923828e+003,3.5180769043e+003,3.5811538086e+003,3.7337180176e+003,3.5941025391e+003,3.6621794434e+003,3.5819230957e+003,3.5332050781e+003,
1.1328125000e+000,3.5612819824e+003,3.6870512695e+003,3.5765385742e+003,3.5760256348e+003,3.5734614258e+003,3.5533332520e+003,3.6071794434e+003,3.5728205566e+003,3.6350000000e+003,3.7874357910e+003,3.6491025391e+003,3.7182050781e+003,3.6420512695e+003,3.5885898438e+003,
1.1406250000e+000,3.6707692871e+003,3.8051281738e+003,3.6865385742e+003,3.6858974609e+003,3.6910256348e+003,3.6639743652e+003,3.7156411133e+003,3.6803845215e+003,3.7392307129e+003,3.8996154785e+003,3.7602563477e+003,3.8279487305e+003,3.7557692871e+003,3.6975642090e+003,
1.1484375000e+000,3.9043588867e+003,4.0557692871e+003,3.9194870605e+003,3.9229487305e+003,3.9646154785e+003,3.8997436523e+003,3.9443588867e+003,3.9161538086e+003,3.9691025391e+003,4.1532050781e+003,4.0076923828e+003,4.0644870605e+003,3.9974357910e+003,3.9342307129e+003,
1.1562500000e+000,3.9975642090e+003,4.1548715820e+003,4.0134614258e+003,4.0164101563e+003,4.0729487305e+003,3.9935898438e+003,4.0364101563e+003,4.0100000000e+003,4.0619230957e+003,4.2532050781e+003,4.1070512695e+003,4.1579487305e+003,4.0932050781e+003,4.0291025391e+003,
1.1640625000e+000,4.0988461914e+003,4.2625639648e+003,4.1165385742e+003,4.1152563477e+003,4.1807690430e+003,4.0960258789e+003,4.1366665039e+003,4.1094873047e+003,4.1592309570e+003,4.3556411133e+003,4.2123076172e+003,4.2576923828e+003,4.1969228516e+003,4.1307690430e+003,
1.1718750000e+000,4.8023076172e+003,5.0507690430e+003,4.8455126953e+003,4.8389741211e+003,4.9220512695e+003,4.8332050781e+003,4.8435898438e+003,4.8325639648e+003,4.8557690430e+003,5.1139741211e+003,4.9873076172e+003,4.9907690430e+003,4.9492309570e+003,4.8564101563e+003,
1.1796875000e+000,4.8714101563e+003,5.1358974609e+003,4.9229487305e+003,4.9194873047e+003,5.0060258789e+003,4.9098715820e+003,4.9194873047e+003,4.9103847656e+003,4.9339741211e+003,5.1997436523e+003,5.0726923828e+003,5.0730771484e+003,5.0311538086e+003,4.9370512695e+003,
1.1875000000e+000,5.0670512695e+003,5.3723076172e+003,5.1465385742e+003,5.1258974609e+003,5.2285898438e+003,5.1319228516e+003,5.1332050781e+003,5.1333334961e+003,5.1485898438e+003,5.4298715820e+003,5.3052563477e+003,5.2925639648e+003,5.2608974609e+003,5.1560258789e+003,
1.1953125000e+000,4.9385898438e+003,5.2706411133e+003,5.0571796875e+003,5.0067949219e+003,5.1491025391e+003,5.0334614258e+003,5.0267949219e+003,5.0457690430e+003,5.0557690430e+003,5.3370512695e+003,5.2121796875e+003,5.1980771484e+003,5.1587177734e+003,5.0546152344e+003,
1.2031250000e+000,4.7457690430e+003,5.0800000000e+003,4.8765385742e+003,4.8244873047e+003,4.9696152344e+003,4.8501284180e+003,4.8450000000e+003,4.8658974609e+003,4.8805126953e+003,5.1494873047e+003,5.0253847656e+003,5.0161538086e+003,4.9710258789e+003,4.8730771484e+003,
1.2109375000e+000,4.2419228516e+003,4.5657690430e+003,4.3973076172e+003,4.3461538086e+003,4.4407690430e+003,4.3683334961e+003,4.3773076172e+003,4.3742309570e+003,4.3982050781e+003,4.6202563477e+003,4.5023076172e+003,4.5225639648e+003,4.4623076172e+003,4.3891025391e+003,
1.2187500000e+000,4.1621796875e+003,4.4701284180e+003,4.3219228516e+003,4.2575639648e+003,4.3453847656e+003,4.2914101563e+003,4.3083334961e+003,4.3010258789e+003,4.3352563477e+003,4.5325639648e+003,4.4130771484e+003,4.4425639648e+003,4.3801284180e+003,4.3132050781e+003,
1.2265625000e+000,4.0755129395e+003,4.3785898438e+003,4.2388461914e+003,4.1706411133e+003,4.2617949219e+003,4.2073076172e+003,4.2274360352e+003,4.2223076172e+003,4.2584614258e+003,4.4491025391e+003,4.3279487305e+003,4.3606411133e+003,4.2930771484e+003,4.2300000000e+003,
1.2343750000e+000,3.9608974609e+003,4.2584614258e+003,4.1275639648e+003,4.0584614258e+003,4.1461538086e+003,4.0969228516e+003,4.1208974609e+003,4.1144873047e+003,4.1511538086e+003,4.3352563477e+003,4.2105126953e+003,4.2497436523e+003,4.1764101563e+003,4.1188461914e+003,
1.2421875000e+000,3.8044870605e+003,4.0864101563e+003,3.9679487305e+003,3.9058974609e+003,3.9811538086e+003,3.9441025391e+003,3.9752563477e+003,3.9602563477e+003,3.9970512695e+003,4.1688461914e+003,4.0394870605e+003,4.0898718262e+003,4.0138461914e+003,3.9626923828e+003,
1.2500000000e+000,3.8941025391e+003,4.1553847656e+003,4.0457692871e+003,3.9858974609e+003,4.0515385742e+003,4.0171794434e+003,4.0530769043e+003,4.0384614258e+003,4.0791025391e+003,4.2400000000e+003,4.1215385742e+003,4.1671796875e+003,4.0952563477e+003,4.0443588867e+003,
1.2578125000e+000,3.8971794434e+003,4.1594873047e+003,4.0487180176e+003,3.9892307129e+003,4.0482050781e+003,4.0165385742e+003,4.0512819824e+003,4.0424357910e+003,4.0838461914e+003,4.2467949219e+003,4.1256411133e+003,4.1703847656e+003,4.0967949219e+003,4.0487180176e+003,
1.2656250000e+000,3.8233332520e+003,4.0875642090e+003,3.9765385742e+003,3.9201281738e+003,3.9746154785e+003,3.9434614258e+003,3.9770512695e+003,3.9730769043e+003,4.0146154785e+003,4.1788461914e+003,4.0514101563e+003,4.0985898438e+003,4.0216667480e+003,3.9787180176e+003,
1.2734375000e+000,3.5108974609e+003,3.7626923828e+003,3.6682050781e+003,3.6188461914e+003,3.6758974609e+003,3.6393588867e+003,3.6783332520e+003,3.6674357910e+003,3.7092307129e+003,3.8589743652e+003,3.7271794434e+003,3.7885898438e+003,3.7025642090e+003,3.6728205566e+003,
1.2812500000e+000,3.3815385742e+003,3.6182050781e+003,3.5364101563e+003,3.4891025391e+003,3.5473076172e+003,3.5085898438e+003,3.5547436523e+003,3.5347436523e+003,3.5770512695e+003,3.7134614258e+003,3.5865385742e+003,3.6544870605e+003,3.5662819824e+003,3.5400000000e+003,
1.2890625000e+000,3.3192307129e+003,3.5412819824e+003,3.4676923828e+003,3.4230769043e+003,3.4774357910e+003,3.4398718262e+003,3.4917949219e+003,3.4655129395e+003,3.5096154785e+003,3.6352563477e+003,3.5125642090e+003,3.5834614258e+003,3.4960256348e+003,3.4698718262e+003,
1.2968750000e+000,3.2315385742e+003,3.4175642090e+003,3.3507692871e+003,3.3646154785e+003,3.3389743652e+003,3.3192307129e+003,3.3757692871e+003,3.3438461914e+003,3.4005129395e+003,3.5123076172e+003,3.3812819824e+003,3.4591025391e+003,3.3773076172e+003,3.3534614258e+003,
1.3046875000e+000,3.2107692871e+003,3.3880769043e+003,3.3250000000e+003,3.3528205566e+003,3.3121794434e+003,3.2916667480e+003,3.3510256348e+003,3.3211538086e+003,3.3785898438e+003,3.4850000000e+003,3.3574357910e+003,3.4347436523e+003,3.3543588867e+003,3.3315385742e+003,
1.3125000000e+000,3.0898718262e+003,3.2451281738e+003,3.1916667480e+003,3.2270512695e+003,3.1588461914e+003,3.1614101563e+003,3.2192307129e+003,3.1919230957e+003,3.2567949219e+003,3.3457692871e+003,3.2175642090e+003,3.3020512695e+003,3.2166667480e+003,3.2058974609e+003,
1.3203125000e+000,3.1455129395e+003,3.2757692871e+003,3.2273076172e+003,3.2584614258e+003,3.2069230957e+003,3.2003845215e+003,3.2646154785e+003,3.2162819824e+003,3.2800000000e+003,3.3691025391e+003,3.2443588867e+003,3.3308974609e+003,3.2451281738e+003,3.2341025391e+003,
1.3281250000e+000,3.2223076172e+003,3.3484614258e+003,3.2971794434e+003,3.3246154785e+003,3.2871794434e+003,3.2697436523e+003,3.3348718262e+003,3.2880769043e+003,3.3475642090e+003,3.4421794434e+003,3.3184614258e+003,3.4034614258e+003,3.3165385742e+003,3.3064101563e+003,
1.3359375000e+000,3.4502563477e+003,3.5793588867e+003,3.5096154785e+003,3.5294870605e+003,3.5324357910e+003,3.4858974609e+003,3.5453845215e+003,3.5070512695e+003,3.5603845215e+003,3.6692307129e+003,3.5452563477e+003,3.6230769043e+003,3.5352563477e+003,3.5279487305e+003,
1.3437500000e+000,3.5465385742e+003,3.6773076172e+003,3.6000000000e+003,3.6248718262e+003,3.6291025391e+003,3.5807692871e+003,3.6383332520e+003,3.6001281738e+003,3.6526923828e+003,3.7674357910e+003,3.6423076172e+003,3.7147436523e+003,3.6317949219e+003,3.6183332520e+003,
1.3515625000e+000,3.7210256348e+003,3.8556411133e+003,3.7684614258e+003,3.8032050781e+003,3.7891025391e+003,3.7521794434e+003,3.8046154785e+003,3.7741025391e+003,3.8193588867e+003,3.9519230957e+003,3.8244870605e+003,3.8862819824e+003,3.8103845215e+003,3.7828205566e+003,
1.3593750000e+000,3.7544870605e+003,3.8957692871e+003,3.8043588867e+003,3.8392307129e+003,3.8156411133e+003,3.7857692871e+003,3.8339743652e+003,3.8112819824e+003,3.8526923828e+003,3.9920512695e+003,3.8644870605e+003,3.9220512695e+003,3.8470512695e+003,3.8156411133e+003,
1.3671875000e+000,3.6980769043e+003,3.8670512695e+003,3.7630769043e+003,3.7887180176e+003,3.7926923828e+003,3.7430769043e+003,3.7887180176e+003,3.7689743652e+003,3.8121794434e+003,3.9452563477e+003,3.8239743652e+003,3.8788461914e+003,3.8047436523e+003,3.7728205566e+003,
1.3750000000e+000,3.7262819824e+003,3.8961538086e+003,3.7915385742e+003,3.8183332520e+003,3.8326923828e+003,3.7752563477e+003,3.8224357910e+003,3.7969230957e+003,3.8420512695e+003,3.9737180176e+003,3.8535898438e+003,3.9080769043e+003,3.8379487305e+003,3.8037180176e+003,
1.3828125000e+000,3.8776923828e+003,4.0447436523e+003,3.9360256348e+003,3.9726923828e+003,3.9675642090e+003,3.9307692871e+003,3.9716667480e+003,3.9461538086e+003,3.9901281738e+003,4.1361538086e+003,4.0087180176e+003,4.0551281738e+003,3.9974357910e+003,3.9539743652e+003,
1.3906250000e+000,3.9271794434e+003,4.0970512695e+003,3.9847436523e+003,4.0237180176e+003,4.0029487305e+003,3.9833332520e+003,4.0188461914e+003,3.9984614258e+003,4.0394870605e+003,4.1937177734e+003,4.0624357910e+003,4.1044873047e+003,4.0489743652e+003,4.0030769043e+003,
1.3984375000e+000,3.9035898438e+003,4.0841025391e+003,3.9715385742e+003,4.0028205566e+003,4.0284614258e+003,3.9687180176e+003,4.0037180176e+003,3.9830769043e+003,4.0220512695e+003,4.1673076172e+003,4.0493588867e+003,4.0862819824e+003,4.0230769043e+003,3.9834614258e+003,
1.4062500000e+000,3.9103845215e+003,4.0921794434e+003,3.9779487305e+003,4.0115385742e+003,4.0603845215e+003,3.9760256348e+003,4.0101281738e+003,3.9902563477e+003,4.0305129395e+003,4.1730771484e+003,4.0591025391e+003,4.0924357910e+003,4.0305129395e+003,3.9912819824e+003,
1.4140625000e+000,3.9051281738e+003,4.0894870605e+003,3.9717949219e+003,4.0101281738e+003,4.0632050781e+003,3.9725642090e+003,4.0038461914e+003,3.9887180176e+003,4.0288461914e+003,4.1729487305e+003,4.0575642090e+003,4.0894870605e+003,4.0287180176e+003,3.9892307129e+003,
1.4218750000e+000,3.8534614258e+003,4.0410256348e+003,3.9220512695e+003,3.9630769043e+003,4.0007692871e+003,3.9251281738e+003,3.9546154785e+003,3.9447436523e+003,3.9834614258e+003,4.1293588867e+003,4.0091025391e+003,4.0451281738e+003,3.9824357910e+003,3.9441025391e+003,
1.4296875000e+000,3.5106411133e+003,3.6779487305e+003,3.5950000000e+003,3.6164101563e+003,3.6197436523e+003,3.5846154785e+003,3.6319230957e+003,3.6137180176e+003,3.6564101563e+003,3.7773076172e+003,3.6538461914e+003,3.7160256348e+003,3.6434614258e+003,3.6185898438e+003,
1.4375000000e+000,3.3111538086e+003,3.4621794434e+003,3.3903845215e+003,3.4193588867e+003,3.3728205566e+003,3.3773076172e+003,3.4329487305e+003,3.4176923828e+003,3.4648718262e+003,3.5694870605e+003,3.4373076172e+003,3.5073076172e+003,3.4355129395e+003,3.4051281738e+003,
1.4453125000e+000,3.2289743652e+003,3.3730769043e+003,3.3042307129e+003,3.3373076172e+003,3.2765385742e+003,3.2962819824e+003,3.3546154785e+003,3.3320512695e+003,3.3819230957e+003,3.4758974609e+003,3.3473076172e+003,3.4230769043e+003,3.3485898438e+003,3.3210256348e+003,
1.4531250000e+000,3.2302563477e+003,3.3541025391e+003,3.2967949219e+003,3.3380769043e+003,3.2953845215e+003,3.2914101563e+003,3.3515385742e+003,3.3155129395e+003,3.3644870605e+003,3.4498718262e+003,3.3315385742e+003,3.4121794434e+003,3.3335898438e+003,3.3130769043e+003,
1.4609375000e+000,3.4035898438e+003,3.5246154785e+003,3.4562819824e+003,3.5041025391e+003,3.5016667480e+003,3.4510256348e+003,3.5116667480e+003,3.4721794434e+003,3.5219230957e+003,3.6134614258e+003,3.4906411133e+003,3.5701281738e+003,3.4941025391e+003,3.4666667480e+003,
1.4687500000e+000,3.4057692871e+003,3.5261538086e+003,3.4576923828e+003,3.5069230957e+003,3.4883332520e+003,3.4543588867e+003,3.5152563477e+003,3.4729487305e+003,3.5216667480e+003,3.6141025391e+003,3.4924357910e+003,3.5750000000e+003,3.4973076172e+003,3.4669230957e+003,
1.4765625000e+000,3.4624357910e+003,3.5785898438e+003,3.5107692871e+003,3.5600000000e+003,3.5291025391e+003,3.5058974609e+003,3.5608974609e+003,3.5228205566e+003,3.5670512695e+003,3.6703845215e+003,3.5476923828e+003,3.6297436523e+003,3.5489743652e+003,3.5171794434e+003,
1.4843750000e+000,3.4846154785e+003,3.6020512695e+003,3.5303845215e+003,3.5782050781e+003,3.5539743652e+003,3.5241025391e+003,3.5758974609e+003,3.5441025391e+003,3.5882050781e+003,3.6958974609e+003,3.5703845215e+003,3.6497436523e+003,3.5685898438e+003,3.5369230957e+003,
1.4921875000e+000,3.4561538086e+003,3.5769230957e+003,3.4994870605e+003,3.5425642090e+003,3.5178205566e+003,3.4916667480e+003,3.5466667480e+003,3.5100000000e+003,3.5592307129e+003,3.6580769043e+003,3.5382050781e+003,3.6175642090e+003,3.5373076172e+003,3.5084614258e+003,
1.5000000000e+000,3.5219230957e+003,3.6393588867e+003,3.5608974609e+003,3.6062819824e+003,3.5803845215e+003,3.5533332520e+003,3.6098718262e+003,3.5679487305e+003,3.6155129395e+003,3.7165385742e+003,3.6017949219e+003,3.6771794434e+003,3.6020512695e+003,3.5705129395e+003,
1.5078125000e+000,3.7714101563e+003,3.8897436523e+003,3.8000000000e+003,3.8506411133e+003,3.8319230957e+003,3.7934614258e+003,3.8461538086e+003,3.8101281738e+003,3.8502563477e+003,3.9689743652e+003,3.8543588867e+003,3.9185898438e+003,3.8511538086e+003,3.8124357910e+003,
1.5156250000e+000,3.8864101563e+003,4.0126923828e+003,3.9142307129e+003,3.9615385742e+003,3.9438461914e+003,3.9074357910e+003,3.9564101563e+003,3.9267949219e+003,3.9641025391e+003,4.0910256348e+003,3.9734614258e+003,4.0357692871e+003,3.9670512695e+003,3.9284614258e+003,
1.5234375000e+000,3.9798718262e+003,4.1178203125e+003,4.0097436523e+003,4.0500000000e+003,4.0312819824e+003,4.0025642090e+003,4.0476923828e+003,4.0219230957e+003,4.0574357910e+003,4.1906411133e+003,4.0720512695e+003,4.1335898438e+003,4.0629487305e+003,4.0255129395e+003,
1.5312500000e+000,4.0624357910e+003,4.2123076172e+003,4.0956411133e+003,4.1284614258e+003,4.1115385742e+003,4.0878205566e+003,4.1296152344e+003,4.1053847656e+003,4.1383334961e+003,4.2787177734e+003,4.1615385742e+003,4.2210258789e+003,4.1501284180e+003,4.1125639648e+003,
1.5390625000e+000,4.2130771484e+003,4.3866665039e+003,4.2666665039e+003,4.2997436523e+003,4.3364101563e+003,4.2616665039e+003,4.2935898438e+003,4.2757690430e+003,4.2956411133e+003,4.4715385742e+003,4.3546152344e+003,4.4005126953e+003,4.3323076172e+003,4.2826923828e+003,
1.5468750000e+000,4.4128203125e+003,4.6315385742e+003,4.4787177734e+003,4.4938461914e+003,4.5538461914e+003,4.4817949219e+003,4.5010258789e+003,4.4844873047e+003,4.5080771484e+003,4.6864101563e+003,4.5778203125e+003,4.6082050781e+003,4.5542309570e+003,4.4929487305e+003,
1.5546875000e+000,4.4810258789e+003,4.7026923828e+003,4.5515385742e+003,4.5630771484e+003,4.6297436523e+003,4.5480771484e+003,4.5673076172e+003,4.5552563477e+003,4.5757690430e+003,4.7602563477e+003,4.6542309570e+003,4.6802563477e+003,4.6270512695e+003,4.5628203125e+003,
1.5625000000e+000,4.6117949219e+003,4.8432050781e+003,4.6951284180e+003,4.7198715820e+003,4.7764101563e+003,4.6911538086e+003,4.7079487305e+003,4.6985898438e+003,4.7169228516e+003,4.9114101563e+003,4.8096152344e+003,4.8269228516e+003,4.7732050781e+003,4.7060258789e+003,
1.5703125000e+000,4.8800000000e+003,5.1480771484e+003,4.9823076172e+003,4.9951284180e+003,5.0628203125e+003,4.9746152344e+003,4.9893588867e+003,4.9917949219e+003,4.9975639648e+003,5.2097436523e+003,5.1088461914e+003,5.1112822266e+003,5.0655126953e+003,4.9941025391e+003,
1.5781250000e+000,4.9207690430e+003,5.2024360352e+003,5.0317949219e+003,5.0420512695e+003,5.1102563477e+003,5.0210258789e+003,5.0342309570e+003,5.0474360352e+003,5.0502563477e+003,5.2683334961e+003,5.1660258789e+003,5.1635898438e+003,5.1200000000e+003,5.0432050781e+003,
1.5859375000e+000,4.7069228516e+003,4.9969228516e+003,4.8432050781e+003,4.8589741211e+003,4.8819228516e+003,4.8366665039e+003,4.8435898438e+003,4.8629487305e+003,4.8735898438e+003,5.0778203125e+003,4.9726923828e+003,4.9807690430e+003,4.9225639648e+003,4.8483334961e+003,
1.5937500000e+000,4.6456411133e+003,4.9312822266e+003,4.7876923828e+003,4.8034614258e+003,4.8323076172e+003,4.7832050781e+003,4.7905126953e+003,4.8029487305e+003,4.8135898438e+003,5.0117949219e+003,4.9087177734e+003,4.9211538086e+003,4.8593588867e+003,4.7907690430e+003,
1.6015625000e+000,4.6717949219e+003,4.9619228516e+003,4.8214101563e+003,4.8366665039e+003,4.9101284180e+003,4.8184614258e+003,4.8283334961e+003,4.8338461914e+003,4.8380771484e+003,5.0375639648e+003,4.9412822266e+003,4.9482050781e+003,4.8929487305e+003,4.8265385742e+003,
1.6093750000e+000,4.6908974609e+003,4.9891025391e+003,4.8443588867e+003,4.8593588867e+003,4.9450000000e+003,4.8401284180e+003,4.8516665039e+003,4.8592309570e+003,4.8624360352e+003,5.0638461914e+003,4.9682050781e+003,4.9714101563e+003,4.9205126953e+003,4.8512822266e+003,
1.6171875000e+000,4.5016665039e+003,4.8110258789e+003,4.6697436523e+003,4.6879487305e+003,4.7397436523e+003,4.6667949219e+003,4.6811538086e+003,4.6888461914e+003,4.7042309570e+003,4.8897436523e+003,4.7812822266e+003,4.7935898438e+003,4.7402563477e+003,4.6710258789e+003,
1.6250000000e+000,4.4279487305e+003,4.7343588867e+003,4.6012822266e+003,4.6205126953e+003,4.6661538086e+003,4.6016665039e+003,4.6156411133e+003,4.6188461914e+003,4.6351284180e+003,4.8132050781e+003,4.7039741211e+003,4.7206411133e+003,4.6634614258e+003,4.5980771484e+003,
1.6328125000e+000,4.3566665039e+003,4.6539741211e+003,4.5369228516e+003,4.5548715820e+003,4.6012822266e+003,4.5362822266e+003,4.5511538086e+003,4.5482050781e+003,4.5589741211e+003,4.7288461914e+003,4.6266665039e+003,4.6493588867e+003,4.5857690430e+003,4.5275639648e+003,
1.6406250000e+000,4.3333334961e+003,4.6271796875e+003,4.5125639648e+003,4.5315385742e+003,4.5700000000e+003,4.5088461914e+003,4.5250000000e+003,4.5220512695e+003,4.5314101563e+003,4.6992309570e+003,4.5997436523e+003,4.6242309570e+003,4.5603847656e+003,4.5043588867e+003,
1.6484375000e+000,4.2758974609e+003,4.5633334961e+003,4.4491025391e+003,4.4760258789e+003,4.4826923828e+003,4.4415385742e+003,4.4625639648e+003,4.4503847656e+003,4.4676923828e+003,4.6289741211e+003,4.5305126953e+003,4.5584614258e+003,4.4991025391e+003,4.4500000000e+003,
1.6562500000e+000,4.2900000000e+003,4.5750000000e+003,4.4642309570e+003,4.4919228516e+003,4.5020512695e+003,4.4543588867e+003,4.4765385742e+003,4.4593588867e+003,4.4783334961e+003,4.6388461914e+003,4.5439741211e+003,4.5716665039e+003,4.5119228516e+003,4.4643588867e+003,
1.6640625000e+000,4.3015385742e+003,4.5843588867e+003,4.4764101563e+003,4.5051284180e+003,4.5217949219e+003,4.4642309570e+003,4.4855126953e+003,4.4678203125e+003,4.4879487305e+003,4.6475639648e+003,4.5567949219e+003,4.5824360352e+003,4.5228203125e+003,4.4750000000e+003,
1.6718750000e+000,4.2821796875e+003,4.5632050781e+003,4.4561538086e+003,4.4871796875e+003,4.5088461914e+003,4.4435898438e+003,4.4615385742e+003,4.4485898438e+003,4.4701284180e+003,4.6271796875e+003,4.5387177734e+003,4.5617949219e+003,4.5025639648e+003,4.4542309570e+003,
1.6796875000e+000,4.1785898438e+003,4.4575639648e+003,4.3471796875e+003,4.3903847656e+003,4.4085898438e+003,4.3466665039e+003,4.3665385742e+003,4.3482050781e+003,4.3735898438e+003,4.5155126953e+003,4.4238461914e+003,4.4541025391e+003,4.3910258789e+003,4.3501284180e+003,
1.6875000000e+000,4.7482050781e+003,5.0548715820e+003,4.9083334961e+003,4.9621796875e+003,4.9933334961e+003,4.9156411133e+003,4.9221796875e+003,4.9096152344e+003,4.9224360352e+003,5.0997436523e+003,5.0141025391e+003,5.0144873047e+003,4.9800000000e+003,4.9101284180e+003,
1.6953125000e+000,4.8829487305e+003,5.2047436523e+003,5.0452563477e+003,5.0975639648e+003,5.1333334961e+003,5.0539741211e+003,5.0556411133e+003,5.0426923828e+003,5.0514101563e+003,5.2396152344e+003,5.1573076172e+003,5.1530771484e+003,5.1194873047e+003,5.0466665039e+003,
1.7031250000e+000,5.2516665039e+003,5.5974360352e+003,5.4161538086e+003,5.4642309570e+003,5.5065385742e+003,5.4278203125e+003,5.4242309570e+003,5.4091025391e+003,5.4084614258e+003,5.6158974609e+003,5.5425639648e+003,5.5271796875e+003,5.4969228516e+003,5.4173076172e+003,
1.7109375000e+000,5.4838461914e+003,5.8497436523e+003,5.6516665039e+003,5.7001284180e+003,5.7537177734e+003,5.6634614258e+003,5.6538461914e+003,5.6439741211e+003,5.6364101563e+003,5.8646152344e+003,5.7929487305e+003,5.7644873047e+003,5.7419228516e+003,5.6528203125e+003,
1.7187500000e+000,6.2108974609e+003,6.6574360352e+003,6.3988461914e+003,6.4517949219e+003,6.5602563477e+003,6.4133334961e+003,6.3710258789e+003,6.3785898438e+003,6.3467949219e+003,6.6533334961e+003,6.5853847656e+003,6.5138461914e+003,6.5121796875e+003,6.3943588867e+003,
1.7265625000e+000,6.9860258789e+003,7.3224360352e+003,7.1532050781e+003,7.1750000000e+003,7.2550000000e+003,7.1525639648e+003,7.1100000000e+003,7.1191025391e+003,7.0773076172e+003,7.2937177734e+003,7.2765385742e+003,7.2288461914e+003,7.2237177734e+003,7.1371796875e+003,
1.7343750000e+000,7.2088461914e+003,7.5208974609e+003,7.3643588867e+003,7.3812822266e+003,7.4606411133e+003,7.3637177734e+003,7.3161538086e+003,7.3366665039e+003,7.2951284180e+003,7.4934614258e+003,7.4856411133e+003,7.4293588867e+003,7.4364101563e+003,7.3517949219e+003,
1.7421875000e+000,7.4846152344e+003,7.6592309570e+003,7.5980771484e+003,7.6074360352e+003,7.6401284180e+003,7.6014101563e+003,7.5706411133e+003,7.5905126953e+003,7.5696152344e+003,7.6628203125e+003,7.6524360352e+003,7.6300000000e+003,7.6262822266e+003,7.5967949219e+003,
1.7500000000e+000,7.4808974609e+003,7.6024360352e+003,7.5965385742e+003,7.5958974609e+003,7.6000000000e+003,7.5948715820e+003,7.5766665039e+003,7.5852563477e+003,7.5687177734e+003,7.6075639648e+003,7.6029487305e+003,7.6120512695e+003,7.5951284180e+003,7.5917949219e+003,
1.7578125000e+000,7.4807690430e+003,7.6455126953e+003,7.6370512695e+003,7.6260258789e+003,7.6414101563e+003,7.6329487305e+003,7.6048715820e+003,7.6214101563e+003,7.5938461914e+003,7.6365385742e+003,7.6423076172e+003,7.6465385742e+003,7.6412822266e+003,7.6250000000e+003,
1.7656250000e+000,7.4767949219e+003,7.6988461914e+003,7.6483334961e+003,7.6398715820e+003,7.6821796875e+003,7.6467949219e+003,7.6044873047e+003,7.6358974609e+003,7.5997436523e+003,7.6871796875e+003,7.6887177734e+003,7.6696152344e+003,7.6748715820e+003,7.6365385742e+003,
1.7734375000e+000,7.3188461914e+003,7.5706411133e+003,7.5165385742e+003,7.5024360352e+003,7.5415385742e+003,7.5141025391e+003,7.4746152344e+003,7.5008974609e+003,7.4664101563e+003,7.5671796875e+003,7.5571796875e+003,7.5511538086e+003,7.5298715820e+003,7.5053847656e+003,
1.7812500000e+000,7.2756411133e+003,7.5623076172e+003,7.5151284180e+003,7.4969228516e+003,7.5319228516e+003,7.5142309570e+003,7.4771796875e+003,7.4970512695e+003,7.4646152344e+003,7.5548715820e+003,7.5502563477e+003,7.5442309570e+003,7.5260258789e+003,7.5023076172e+003,
1.7890625000e+000,7.2458974609e+003,7.6128203125e+003,7.5428203125e+003,7.5250000000e+003,7.5769228516e+003,7.5462822266e+003,7.5030771484e+003,7.5279487305e+003,7.4921796875e+003,7.6011538086e+003,7.6001284180e+003,7.5726923828e+003,7.5711538086e+003,7.5294873047e+003,
1.7968750000e+000,7.1853847656e+003,7.6543588867e+003,7.5397436523e+003,7.5239741211e+003,7.6093588867e+003,7.5470512695e+003,7.4921796875e+003,7.5323076172e+003,7.4884614258e+003,7.6426923828e+003,7.6396152344e+003,7.5805126953e+003,7.5957690430e+003,7.5265385742e+003,
1.8046875000e+000,6.3112822266e+003,6.9888461914e+003,6.7834614258e+003,6.7326923828e+003,6.8883334961e+003,6.7885898438e+003,6.7105126953e+003,6.7682050781e+003,6.7085898438e+003,6.9741025391e+003,6.9553847656e+003,6.8738461914e+003,6.8525639648e+003,6.7546152344e+003,
1.8125000000e+000,6.1600000000e+003,6.8900000000e+003,6.6608974609e+003,6.6101284180e+003,6.7685898438e+003,6.6732050781e+003,6.5884614258e+003,6.6397436523e+003,6.5784614258e+003,6.8620512695e+003,6.8462822266e+003,6.7515385742e+003,6.7375639648e+003,6.6283334961e+003,
1.8203125000e+000,6.0951284180e+003,6.8519228516e+003,6.6165385742e+003,6.5846152344e+003,6.7435898438e+003,6.6289741211e+003,6.5503847656e+003,6.5975639648e+003,6.5370512695e+003,6.8171796875e+003,6.8080771484e+003,6.7047436523e+003,6.7020512695e+003,6.5884614258e+003,
1.8281250000e+000,6.0910258789e+003,6.7996152344e+003,6.5910258789e+003,6.5515385742e+003,6.7219228516e+003,6.5923076172e+003,6.5242309570e+003,6.5770512695e+003,6.5219228516e+003,6.7748715820e+003,6.7673076172e+003,6.6770512695e+003,6.6692309570e+003,6.5702563477e+003,
1.8359375000e+000,6.1205126953e+003,6.8443588867e+003,6.6269228516e+003,6.5879487305e+003,6.7553847656e+003,6.6308974609e+003,6.5578203125e+003,6.6110258789e+003,6.5533334961e+003,6.8171796875e+003,6.8114101563e+003,6.7107690430e+003,6.7094873047e+003,6.6044873047e+003,
1.8437500000e+000,6.2665385742e+003,6.9665385742e+003,6.7569228516e+003,6.7169228516e+003,6.8423076172e+003,6.7607690430e+003,6.6903847656e+003,6.7333334961e+003,6.6820512695e+003,6.9343588867e+003,6.9342309570e+003,6.8335898438e+003,6.8326923828e+003,6.7360258789e+003,
1.8515625000e+000,6.3410258789e+003,7.0592309570e+003,6.8356411133e+003,6.7857690430e+003,6.9565385742e+003,6.8450000000e+003,6.7733334961e+003,6.8184614258e+003,6.7674360352e+003,7.0251284180e+003,7.0219228516e+003,6.9169228516e+003,6.9207690430e+003,6.8211538086e+003,
1.8593750000e+000,6.3597436523e+003,7.0775639648e+003,6.8542309570e+003,6.8097436523e+003,6.9935898438e+003,6.8680771484e+003,6.7926923828e+003,6.8416665039e+003,6.7873076172e+003,7.0453847656e+003,7.0411538086e+003,6.9334614258e+003,6.9423076172e+003,6.8416665039e+003,
1.8671875000e+000,6.1791025391e+003,6.8935898438e+003,6.6841025391e+003,6.6528203125e+003,6.8008974609e+003,6.7085898438e+003,6.6293588867e+003,6.6771796875e+003,6.6233334961e+003,6.8624360352e+003,6.8614101563e+003,6.7552563477e+003,6.7615385742e+003,6.6682050781e+003,
1.8750000000e+000,6.1342309570e+003,6.8478203125e+003,6.6419228516e+003,6.6071796875e+003,6.7457690430e+003,6.6655126953e+003,6.5897436523e+003,6.6320512695e+003,6.5812822266e+003,6.8103847656e+003,6.8117949219e+003,6.7094873047e+003,6.7130771484e+003,6.6220512695e+003,
1.8828125000e+000,6.1347436523e+003,6.8488461914e+003,6.6429487305e+003,6.6146152344e+003,6.7508974609e+003,6.6587177734e+003,6.5861538086e+003,6.6350000000e+003,6.5848715820e+003,6.8092309570e+003,6.8070512695e+003,6.7111538086e+003,6.7120512695e+003,6.6208974609e+003,
1.8906250000e+000,6.0607690430e+003,6.7705126953e+003,6.5711538086e+003,6.5576923828e+003,6.6791025391e+003,6.5837177734e+003,6.5108974609e+003,6.5678203125e+003,6.5173076172e+003,6.7402563477e+003,6.7339741211e+003,6.6434614258e+003,6.6391025391e+003,6.5524360352e+003,
1.8984375000e+000,5.5000000000e+003,6.1605126953e+003,6.0146152344e+003,6.0338461914e+003,6.0898715820e+003,6.0353847656e+003,5.9680771484e+003,6.0147436523e+003,5.9797436523e+003,6.1550000000e+003,6.1553847656e+003,6.0816665039e+003,6.0638461914e+003,6.0032050781e+003,
1.9062500000e+000,5.3944873047e+003,6.0403847656e+003,5.9053847656e+003,5.9179487305e+003,5.9738461914e+003,5.9282050781e+003,5.8641025391e+003,5.9033334961e+003,5.8752563477e+003,6.0334614258e+003,6.0384614258e+003,5.9679487305e+003,5.9508974609e+003,5.8921796875e+003,
1.9140625000e+000,5.3610258789e+003,5.9962822266e+003,5.8662822266e+003,5.8688461914e+003,5.9253847656e+003,5.8869228516e+003,5.8266665039e+003,5.8624360352e+003,5.8384614258e+003,5.9866665039e+003,5.9930771484e+003,5.9279487305e+003,5.9097436523e+003,5.8516665039e+003,
1.9218750000e+000,5.3565385742e+003,5.9828203125e+003,5.8553847656e+003,5.8508974609e+003,5.8993588867e+003,5.8708974609e+003,5.8143588867e+003,5.8507690430e+003,5.8278203125e+003,5.9712822266e+003,5.9764101563e+003,5.9185898438e+003,5.8969228516e+003,5.8415385742e+003,
1.9296875000e+000,5.2630771484e+003,5.8550000000e+003,5.7326923828e+003,5.7311538086e+003,5.7906411133e+003,5.7507690430e+003,5.6987177734e+003,5.7271796875e+003,5.6998715820e+003,5.8220512695e+003,5.8335898438e+003,5.7817949219e+003,5.7647436523e+003,5.7270512695e+003,
1.9375000000e+000,5.3589741211e+003,5.9465385742e+003,5.8205126953e+003,5.8133334961e+003,5.9025639648e+003,5.8401284180e+003,5.7898715820e+003,5.8123076172e+003,5.7833334961e+003,5.9058974609e+003,5.9198715820e+003,5.8650000000e+003,5.8524360352e+003,5.8133334961e+003,
1.9453125000e+000,5.9762822266e+003,6.5721796875e+003,6.4146152344e+003,6.4019228516e+003,6.5110258789e+003,6.4388461914e+003,6.3793588867e+003,6.4092309570e+003,6.3743588867e+003,6.5319228516e+003,6.5475639648e+003,6.4679487305e+003,6.4693588867e+003,6.4134614258e+003,
1.9531250000e+000,6.1415385742e+003,6.7510258789e+003,6.5807690430e+003,6.5666665039e+003,6.6651284180e+003,6.6083334961e+003,6.5321796875e+003,6.5856411133e+003,6.5464101563e+003,6.7266665039e+003,6.7429487305e+003,6.6461538086e+003,6.6516665039e+003,6.5866665039e+003,
1.9609375000e+000,6.0841025391e+003,6.6989741211e+003,6.5273076172e+003,6.5100000000e+003,6.6169228516e+003,6.5562822266e+003,6.4802563477e+003,6.5342309570e+003,6.4921796875e+003,6.6724360352e+003,6.6871796875e+003,6.5885898438e+003,6.5960258789e+003,6.5305126953e+003,
1.9687500000e+000,6.2017949219e+003,6.8229487305e+003,6.6511538086e+003,6.6301284180e+003,6.7556411133e+003,6.6855126953e+003,6.6135898438e+003,6.6502563477e+003,6.5989741211e+003,6.7794873047e+003,6.7982050781e+003,6.6965385742e+003,6.7119228516e+003,6.6425639648e+003,
1.9765625000e+000,6.4994873047e+003,7.1362822266e+003,6.9457690430e+003,6.9234614258e+003,7.0612822266e+003,6.9711538086e+003,6.8873076172e+003,6.9450000000e+003,6.8888461914e+003,7.0897436523e+003,7.1151284180e+003,6.9935898438e+003,7.0203847656e+003,6.9383334961e+003,
1.9843750000e+000,6.4276923828e+003,7.0724360352e+003,6.8802563477e+003,6.8548715820e+003,6.9841025391e+003,6.9064101563e+003,6.8192309570e+003,6.8856411133e+003,6.8278203125e+003,7.0288461914e+003,7.0538461914e+003,6.9317949219e+003,6.9548715820e+003,6.8739741211e+003,
1.9921875000e+000,6.2852563477e+003,6.9321796875e+003,6.7476923828e+003,6.7158974609e+003,6.8343588867e+003,6.7762822266e+003,6.6878203125e+003,6.7551284180e+003,6.6962822266e+003,6.8903847656e+003,6.9161538086e+003,6.7997436523e+003,6.8158974609e+003,6.7401284180e+003,
2.0000000000e+000,6.0464101563e+003,6.6785898438e+003,6.5223076172e+003,6.4753847656e+003,6.5934614258e+003,6.5521796875e+003,6.4678203125e+003,6.5196152344e+003,6.4637177734e+003,6.6338461914e+003,6.6648715820e+003,6.5637177734e+003,6.5724360352e+003,6.5070512695e+003,
2.0078125000e+000,6.0074360352e+003,6.6212822266e+003,6.4737177734e+003,6.4288461914e+003,6.5671796875e+003,6.4917949219e+003,6.4229487305e+003,6.4684614258e+003,6.4164101563e+003,6.5716665039e+003,6.6044873047e+003,6.5075639648e+003,6.5171796875e+003,6.4578203125e+003,
2.0156250000e+000,5.9916665039e+003,6.6057690430e+003,6.4556411133e+003,6.4138461914e+003,6.5396152344e+003,6.4729487305e+003,6.4058974609e+003,6.4528203125e+003,6.4000000000e+003,6.5544873047e+003,6.5865385742e+003,6.4905126953e+003,6.4978203125e+003,6.4420512695e+003,
2.0234375000e+000,5.9725639648e+003,6.5864101563e+003,6.4358974609e+003,6.3953847656e+003,6.5053847656e+003,6.4556411133e+003,6.3870512695e+003,6.4346152344e+003,6.3816665039e+003,6.5338461914e+003,6.5656411133e+003,6.4707690430e+003,6.4765385742e+003,6.4235898438e+003,
2.0312500000e+000,5.9058974609e+003,6.5182050781e+003,6.3764101563e+003,6.3312822266e+003,6.4401284180e+003,6.4016665039e+003,6.3251284180e+003,6.3752563477e+003,6.3247436523e+003,6.4658974609e+003,6.5001284180e+003,6.4084614258e+003,6.4133334961e+003,6.3624360352e+003,
2.0390625000e+000,5.8430771484e+003,6.4585898438e+003,6.3215385742e+003,6.2728203125e+003,6.3956411133e+003,6.3473076172e+003,6.2685898438e+003,6.3197436523e+003,6.2694873047e+003,6.4056411133e+003,6.4433334961e+003,6.3530771484e+003,6.3566665039e+003,6.3070512695e+003,
2.0468750000e+000,5.7878203125e+003,6.4070512695e+003,6.2724360352e+003,6.2225639648e+003,6.3541025391e+003,6.2984614258e+003,6.2208974609e+003,6.2705126953e+003,6.2197436523e+003,6.3528203125e+003,6.3947436523e+003,6.3052563477e+003,6.3069228516e+003,6.2591025391e+003,
2.0546875000e+000,5.4188461914e+003,6.0008974609e+003,5.8894873047e+003,5.8391025391e+003,5.9392309570e+003,5.9128203125e+003,5.8500000000e+003,5.8938461914e+003,5.8525639648e+003,5.9560258789e+003,5.9920512695e+003,5.9137177734e+003,5.9056411133e+003,5.8817949219e+003,
2.0625000000e+000,5.4097436523e+003,6.0343588867e+003,5.9075639648e+003,5.8588461914e+003,5.9780771484e+003,5.9375639648e+003,5.8721796875e+003,5.9044873047e+003,5.8588461914e+003,5.9692309570e+003,6.0173076172e+003,5.9248715820e+003,5.9303847656e+003,5.8992309570e+003,
2.0703125000e+000,6.8351284180e+003,7.0512822266e+003,7.0470512695e+003,7.0198715820e+003,7.0247436523e+003,7.0523076172e+003,7.0484614258e+003,7.0071796875e+003,6.9815385742e+003,7.0016665039e+003,7.0373076172e+003,7.0441025391e+003,7.0193588867e+003,7.0317949219e+003,
2.0781250000e+000,7.2678203125e+003,7.5707690430e+003,7.5011538086e+003,7.4507690430e+003,7.5391025391e+003,7.4930771484e+003,7.4394873047e+003,7.4811538086e+003,7.4379487305e+003,7.5401284180e+003,7.5624360352e+003,7.5138461914e+003,7.5100000000e+003,7.4894873047e+003,
2.0859375000e+000,6.9235898438e+003,7.4605126953e+003,7.3188461914e+003,7.2585898438e+003,7.4150000000e+003,7.3278203125e+003,7.2338461914e+003,7.3121796875e+003,7.2433334961e+003,7.4158974609e+003,7.4514101563e+003,7.3446152344e+003,7.3629487305e+003,7.3098715820e+003,
2.0937500000e+000,6.1770512695e+003,6.8215385742e+003,6.7079487305e+003,6.6351284180e+003,6.7584614258e+003,6.7251284180e+003,6.6319228516e+003,6.7005126953e+003,6.6212822266e+003,6.7732050781e+003,6.8251284180e+003,6.7306411133e+003,6.7273076172e+003,6.6919228516e+003,
2.1015625000e+000,5.9269228516e+003,6.5348715820e+003,6.4128203125e+003,6.3380771484e+003,6.4687177734e+003,6.4361538086e+003,6.3623076172e+003,6.3946152344e+003,6.3432050781e+003,6.4498715820e+003,6.5191025391e+003,6.4157690430e+003,6.4335898438e+003,6.4005126953e+003,
2.1093750000e+000,6.0633334961e+003,6.7369228516e+003,6.5800000000e+003,6.5056411133e+003,6.6639741211e+003,6.6089741211e+003,6.5267949219e+003,6.5591025391e+003,6.5016665039e+003,6.6342309570e+003,6.7110258789e+003,6.5852563477e+003,6.6205126953e+003,6.5710258789e+003,
2.1171875000e+000,6.2879487305e+003,6.9720512695e+003,6.8047436523e+003,6.7324360352e+003,6.8970512695e+003,6.8308974609e+003,6.7460258789e+003,6.7838461914e+003,6.7214101563e+003,6.8689741211e+003,6.9444873047e+003,6.8141025391e+003,6.8537177734e+003,6.7974360352e+003,
2.1250000000e+000,6.4756411133e+003,7.0589741211e+003,6.9265385742e+003,6.8565385742e+003,6.9934614258e+003,6.9373076172e+003,6.8588461914e+003,6.9124360352e+003,6.8534614258e+003,6.9843588867e+003,7.0464101563e+003,6.9407690430e+003,6.9625639648e+003,6.9193588867e+003,
2.1328125000e+000,6.3634614258e+003,7.0332050781e+003,6.8666665039e+003,6.7914101563e+003,6.9508974609e+003,6.9079487305e+003,6.8089741211e+003,6.8539741211e+003,6.7882050781e+003,6.9306411133e+003,7.0150000000e+003,6.8780771484e+003,6.9315385742e+003,6.8680771484e+003,
2.1406250000e+000,6.6441025391e+003,7.2473076172e+003,7.0939741211e+003,7.0264101563e+003,7.1630771484e+003,7.1351284180e+003,7.0482050781e+003,7.0788461914e+003,7.0153847656e+003,7.1469228516e+003,7.2270512695e+003,7.1053847656e+003,7.1567949219e+003,7.0971796875e+003,
2.1484375000e+000,7.0223076172e+003,7.4583334961e+003,7.3521796875e+003,7.2988461914e+003,7.3858974609e+003,7.3776923828e+003,7.3202563477e+003,7.3326923828e+003,7.2816665039e+003,7.3791025391e+003,7.4416665039e+003,7.3623076172e+003,7.3928203125e+003,7.3529487305e+003,
2.1562500000e+000,7.5716665039e+003,7.6297436523e+003,7.6423076172e+003,7.6256411133e+003,7.6150000000e+003,7.6288461914e+003,7.6319228516e+003,7.6189741211e+003,7.6067949219e+003,7.6176923828e+003,7.6278203125e+003,7.6438461914e+003,7.6255126953e+003,7.6320512695e+003,
2.1640625000e+000,7.6380771484e+003,7.6375639648e+003,7.6698715820e+003,7.6670512695e+003,7.6489741211e+003,7.6558974609e+003,7.6617949219e+003,7.6539741211e+003,7.6520512695e+003,7.6480771484e+003,7.6402563477e+003,7.6682050781e+003,7.6506411133e+003,7.6592309570e+003,
2.1718750000e+000,7.5891025391e+003,7.6535898438e+003,7.6669228516e+003,7.6682050781e+003,7.6725639648e+003,7.6653847656e+003,7.6532050781e+003,7.6632050781e+003,7.6576923828e+003,7.6691025391e+003,7.6573076172e+003,7.6666665039e+003,7.6669228516e+003,7.6603847656e+003,
2.1796875000e+000,6.7612822266e+003,7.3605126953e+003,7.2701284180e+003,7.1733334961e+003,7.3071796875e+003,7.2815385742e+003,7.1994873047e+003,7.2578203125e+003,7.1814101563e+003,7.2958974609e+003,7.3560258789e+003,7.2820512695e+003,7.2938461914e+003,7.2524360352e+003,
2.1875000000e+000,6.6732050781e+003,7.3067949219e+003,7.2093588867e+003,7.1093588867e+003,7.2580771484e+003,7.2271796875e+003,7.1343588867e+003,7.2012822266e+003,7.1253847656e+003,7.2419228516e+003,7.3051284180e+003,7.2212822266e+003,7.2425639648e+003,7.1950000000e+003,
2.1953125000e+000,6.4639741211e+003,7.1414101563e+003,7.0200000000e+003,6.9370512695e+003,7.0879487305e+003,7.0515385742e+003,6.9450000000e+003,7.0233334961e+003,6.9508974609e+003,7.0666665039e+003,7.1514101563e+003,7.0335898438e+003,7.0764101563e+003,7.0174360352e+003,
2.2031250000e+000,6.3548715820e+003,7.0133334961e+003,6.9005126953e+003,6.8171796875e+003,6.9608974609e+003,6.9320512695e+003,6.8415385742e+003,6.8958974609e+003,6.8260258789e+003,6.9216665039e+003,7.0085898438e+003,6.9126923828e+003,6.9316665039e+003,6.8942309570e+003,
2.2109375000e+000,6.3388461914e+003,6.9938461914e+003,6.8880771484e+003,6.8003847656e+003,6.9361538086e+003,6.9226923828e+003,6.8307690430e+003,6.8880771484e+003,6.8166665039e+003,6.9106411133e+003,6.9907690430e+003,6.9039741211e+003,6.9193588867e+003,6.8832050781e+003,
2.2187500000e+000,6.1844873047e+003,6.8021796875e+003,6.7091025391e+003,6.6173076172e+003,6.7324360352e+003,6.7330771484e+003,6.6487177734e+003,6.7096152344e+003,6.6424360352e+003,6.7215385742e+003,6.8116665039e+003,6.7157690430e+003,6.7365385742e+003,6.7060258789e+003,
2.2265625000e+000,5.8042309570e+003,6.4074360352e+003,6.3284614258e+003,6.2426923828e+003,6.3707690430e+003,6.3492309570e+003,6.2744873047e+003,6.3353847656e+003,6.2769228516e+003,6.3266665039e+003,6.4228203125e+003,6.3343588867e+003,6.3484614258e+003,6.3312822266e+003,
2.2343750000e+000,5.6535898438e+003,6.2350000000e+003,6.1729487305e+003,6.0846152344e+003,6.2014101563e+003,6.1943588867e+003,6.1256411133e+003,6.1810258789e+003,6.1266665039e+003,6.1582050781e+003,6.2548715820e+003,6.1801284180e+003,6.1870512695e+003,6.1767949219e+003,
2.2421875000e+000,5.3616665039e+003,5.8912822266e+003,5.8584614258e+003,5.7638461914e+003,5.8485898438e+003,5.8739741211e+003,5.8194873047e+003,5.8603847656e+003,5.8183334961e+003,5.8176923828e+003,5.9262822266e+003,5.8588461914e+003,5.8623076172e+003,5.8642309570e+003,
2.2500000000e+000,5.3191025391e+003,5.8335898438e+003,5.8075639648e+003,5.7115385742e+003,5.7948715820e+003,5.8188461914e+003,5.7670512695e+003,5.8078203125e+003,5.7683334961e+003,5.7623076172e+003,5.8687177734e+003,5.8047436523e+003,5.8079487305e+003,5.8148715820e+003,
2.2578125000e+000,5.2339741211e+003,5.7158974609e+003,5.7039741211e+003,5.6073076172e+003,5.6757690430e+003,5.7130771484e+003,5.6657690430e+003,5.7060258789e+003,5.6726923828e+003,5.6539741211e+003,5.7474360352e+003,5.6971796875e+003,5.6979487305e+003,5.7161538086e+003,
2.2656250000e+000,5.1703847656e+003,5.6385898438e+003,5.6323076172e+003,5.5373076172e+003,5.5935898438e+003,5.6428203125e+003,5.5989741211e+003,5.6360258789e+003,5.6065385742e+003,5.5807690430e+003,5.6721796875e+003,5.6253847656e+003,5.6239741211e+003,5.6465385742e+003,
2.2734375000e+000,5.0943588867e+003,5.5487177734e+003,5.5492309570e+003,5.4569228516e+003,5.5057690430e+003,5.5607690430e+003,5.5205126953e+003,5.5541025391e+003,5.5278203125e+003,5.4947436523e+003,5.5884614258e+003,5.5428203125e+003,5.5384614258e+003,5.5647436523e+003,
2.2812500000e+000,4.9098715820e+003,5.3293588867e+003,5.3498715820e+003,5.2616665039e+003,5.3121796875e+003,5.3626923828e+003,5.3248715820e+003,5.3587177734e+003,5.3358974609e+003,5.2861538086e+003,5.3821796875e+003,5.3419228516e+003,5.3351284180e+003,5.3655126953e+003,
2.2890625000e+000,4.8030771484e+003,5.2029487305e+003,5.2334614258e+003,5.1452563477e+003,5.1946152344e+003,5.2494873047e+003,5.2124360352e+003,5.2461538086e+003,5.2243588867e+003,5.1638461914e+003,5.2575639648e+003,5.2229487305e+003,5.2171796875e+003,5.2494873047e+003,
2.2968750000e+000,4.7178203125e+003,5.0987177734e+003,5.1367949219e+003,5.0475639648e+003,5.0897436523e+003,5.1567949219e+003,5.1235898438e+003,5.1516665039e+003,5.1311538086e+003,5.0592309570e+003,5.1512822266e+003,5.1226923828e+003,5.1175639648e+003,5.1537177734e+003,
2.3046875000e+000,5.2338461914e+003,5.5794873047e+003,5.5906411133e+003,5.5197436523e+003,5.5771796875e+003,5.6089741211e+003,5.5735898438e+003,5.5926923828e+003,5.5717949219e+003,5.5151284180e+003,5.6138461914e+003,5.5714101563e+003,5.5729487305e+003,5.6008974609e+003,
2.3125000000e+000,5.2821796875e+003,5.6284614258e+003,5.6343588867e+003,5.5612822266e+003,5.6271796875e+003,5.6517949219e+003,5.6119228516e+003,5.6369228516e+003,5.6116665039e+003,5.5629487305e+003,5.6585898438e+003,5.6150000000e+003,5.6165385742e+003,5.6430771484e+003,
2.3203125000e+000,5.3982050781e+003,5.7533334961e+003,5.7371796875e+003,5.6573076172e+003,5.7220512695e+003,5.7552563477e+003,5.7155126953e+003,5.7411538086e+003,5.7084614258e+003,5.6750000000e+003,5.7710258789e+003,5.7164101563e+003,5.7241025391e+003,5.7524360352e+003,
2.3281250000e+000,5.5224360352e+003,5.8707690430e+003,5.8550000000e+003,5.7753847656e+003,5.8370512695e+003,5.8644873047e+003,5.8162822266e+003,5.8580771484e+003,5.8223076172e+003,5.8061538086e+003,5.8932050781e+003,5.8330771484e+003,5.8457690430e+003,5.8667949219e+003,
2.3359375000e+000,5.4502563477e+003,5.7871796875e+003,5.7810258789e+003,5.6962822266e+003,5.7543588867e+003,5.7929487305e+003,5.7430771484e+003,5.7850000000e+003,5.7508974609e+003,5.7302563477e+003,5.8156411133e+003,5.7603847656e+003,5.7682050781e+003,5.7920512695e+003,
2.3437500000e+000,5.3610258789e+003,5.6767949219e+003,5.6806411133e+003,5.5865385742e+003,5.6478203125e+003,5.7043588867e+003,5.6632050781e+003,5.6871796875e+003,5.6496152344e+003,5.6046152344e+003,5.7066665039e+003,5.6553847656e+003,5.6585898438e+003,5.6833334961e+003,
2.3515625000e+000,5.4689741211e+003,5.7874360352e+003,5.7826923828e+003,5.6921796875e+003,5.7638461914e+003,5.8035898438e+003,5.7653847656e+003,5.7869228516e+003,5.7451284180e+003,5.7020512695e+003,5.8080771484e+003,5.7525639648e+003,5.7611538086e+003,5.7823076172e+003,
2.3593750000e+000,5.7174360352e+003,6.0448715820e+003,6.0201284180e+003,5.9403847656e+003,6.0358974609e+003,6.0343588867e+003,5.9921796875e+003,6.0235898438e+003,5.9788461914e+003,5.9566665039e+003,6.0582050781e+003,5.9903847656e+003,6.0091025391e+003,6.0221796875e+003,
2.3671875000e+000,5.7362822266e+003,6.0638461914e+003,6.0394873047e+003,5.9623076172e+003,6.0620512695e+003,6.0533334961e+003,6.0048715820e+003,6.0455126953e+003,6.0023076172e+003,5.9883334961e+003,6.0847436523e+003,6.0142309570e+003,6.0307690430e+003,6.0435898438e+003,
2.3750000000e+000,5.4201284180e+003,5.7332050781e+003,5.7353847656e+003,5.6574360352e+003,5.7226923828e+003,5.7570512695e+003,5.6996152344e+003,5.7346152344e+003,5.6974360352e+003,5.6662822266e+003,5.7634614258e+003,5.7016665039e+003,5.7055126953e+003,5.7297436523e+003,
2.3828125000e+000,5.4061538086e+003,5.7176923828e+003,5.7150000000e+003,5.6397436523e+003,5.6953847656e+003,5.7397436523e+003,5.6861538086e+003,5.7103847656e+003,5.6738461914e+003,5.6375639648e+003,5.7375639648e+003,5.6752563477e+003,5.6847436523e+003,5.7084614258e+003,
2.3906250000e+000,5.6202563477e+003,5.9366665039e+003,5.9103847656e+003,5.8382050781e+003,5.8987177734e+003,5.9355126953e+003,5.8876923828e+003,5.9067949219e+003,5.8689741211e+003,5.8408974609e+003,5.9421796875e+003,5.8716665039e+003,5.8934614258e+003,5.9100000000e+003,
2.3984375000e+000,5.7401284180e+003,6.0587177734e+003,6.0264101563e+003,5.9515385742e+003,6.0232050781e+003,6.0498715820e+003,5.9996152344e+003,6.0260258789e+003,5.9864101563e+003,5.9655126953e+003,6.0665385742e+003,5.9921796875e+003,6.0147436523e+003,6.0280771484e+003,
2.4062500000e+000,5.8076923828e+003,6.1270512695e+003,6.0967949219e+003,6.0160258789e+003,6.1007690430e+003,6.1212822266e+003,6.0594873047e+003,6.1020512695e+003,6.0538461914e+003,6.0405126953e+003,6.1430771484e+003,6.0630771484e+003,6.0869228516e+003,6.0952563477e+003,
2.4140625000e+000,5.8305126953e+003,6.1493588867e+003,6.1173076172e+003,6.0384614258e+003,6.1074360352e+003,6.1416665039e+003,6.0829487305e+003,6.1198715820e+003,6.0692309570e+003,6.0578203125e+003,6.1628203125e+003,6.0808974609e+003,6.1076923828e+003,6.1158974609e+003,
2.4218750000e+000,5.9170512695e+003,6.2361538086e+003,6.1993588867e+003,6.1230771484e+003,6.1743588867e+003,6.2232050781e+003,6.1689741211e+003,6.1983334961e+003,6.1458974609e+003,6.1392309570e+003,6.2479487305e+003,6.1614101563e+003,6.1917949219e+003,6.1994873047e+003,
2.4296875000e+000,6.0624360352e+003,6.3851284180e+003,6.3398715820e+003,6.2666665039e+003,6.3116665039e+003,6.3644873047e+003,6.3120512695e+003,6.3375639648e+003,6.2838461914e+003,6.2853847656e+003,6.3970512695e+003,6.3024360352e+003,6.3376923828e+003,6.3423076172e+003,
2.4375000000e+000,6.4257690430e+003,6.7860258789e+003,6.7123076172e+003,6.6307690430e+003,6.7806411133e+003,6.7469228516e+003,6.6661538086e+003,6.7193588867e+003,6.6582050781e+003,6.6893588867e+003,6.7989741211e+003,6.6806411133e+003,6.7278203125e+003,6.7105126953e+003,
2.4453125000e+000,6.3538461914e+003,6.7323076172e+003,6.6555126953e+003,6.5825639648e+003,6.6728203125e+003,6.6810258789e+003,6.6052563477e+003,6.6601284180e+003,6.5971796875e+003,6.6262822266e+003,6.7453847656e+003,6.6242309570e+003,6.6696152344e+003,6.6529487305e+003,
2.4531250000e+000,6.2946152344e+003,6.6746152344e+003,6.6023076172e+003,6.5373076172e+003,6.6144873047e+003,6.6232050781e+003,6.5491025391e+003,6.6044873047e+003,6.5434614258e+003,6.5674360352e+003,6.6911538086e+003,6.5724360352e+003,6.6128203125e+003,6.6006411133e+003,
2.4609375000e+000,6.3021796875e+003,6.6787177734e+003,6.6165385742e+003,6.5647436523e+003,6.6341025391e+003,6.6307690430e+003,6.5555126953e+003,6.6057690430e+003,6.5460258789e+003,6.5643588867e+003,6.6937177734e+003,6.5808974609e+003,6.6206411133e+003,6.6121796875e+003,
2.4687500000e+000,6.3017949219e+003,6.6938461914e+003,6.6351284180e+003,6.5820512695e+003,6.6052563477e+003,6.6466665039e+003,6.5643588867e+003,6.6332050781e+003,6.5610258789e+003,6.5867949219e+003,6.7094873047e+003,6.5983334961e+003,6.6362822266e+003,6.6301284180e+003,
2.4765625000e+000,6.1526923828e+003,6.5394873047e+003,6.4873076172e+003,6.4256411133e+003,6.4530771484e+003,6.5028203125e+003,6.4262822266e+003,6.4885898438e+003,6.4174360352e+003,6.4314101563e+003,6.5607690430e+003,6.4502563477e+003,6.4838461914e+003,6.4817949219e+003,
2.4843750000e+000,6.1606411133e+003,6.5458974609e+003,6.4969228516e+003,6.4212822266e+003,6.5044873047e+003,6.5244873047e+003,6.4546152344e+003,6.4943588867e+003,6.4244873047e+003,6.4239741211e+003,6.5647436523e+003,6.4501284180e+003,6.4932050781e+003,6.4929487305e+003,
2.4921875000e+000,6.3653847656e+003,6.7692309570e+003,6.7076923828e+003,6.6285898438e+003,6.7476923828e+003,6.7385898438e+003,6.6641025391e+003,6.7039741211e+003,6.6296152344e+003,6.6398715820e+003,6.7806411133e+003,6.6562822266e+003,6.7134614258e+003,6.7061538086e+003,
2.5000000000e+000,6.8401284180e+003,7.2315385742e+003,7.1519228516e+003,7.0750000000e+003,7.1901284180e+003,7.1752563477e+003,7.0982050781e+003,7.1567949219e+003,7.0748715820e+003,7.1256411133e+003,7.2380771484e+003,7.1193588867e+003,7.1685898438e+003,7.1548715820e+003,
2.5078125000e+000,6.8501284180e+003,7.2087177734e+003,7.1447436523e+003,7.0697436523e+003,7.1597436523e+003,7.1657690430e+003,7.0978203125e+003,7.1465385742e+003,7.0714101563e+003,7.1161538086e+003,7.2178203125e+003,7.1188461914e+003,7.1507690430e+003,7.1453847656e+003,
2.5156250000e+000,7.0356411133e+003,7.3694873047e+003,7.3135898438e+003,7.2534614258e+003,7.3341025391e+003,7.3407690430e+003,7.2821796875e+003,7.3158974609e+003,7.2571796875e+003,7.2911538086e+003,7.3775639648e+003,7.2921796875e+003,7.3235898438e+003,7.3152563477e+003,
2.5234375000e+000,7.2285898438e+003,7.5407690430e+003,7.4815385742e+003,7.4350000000e+003,7.5171796875e+003,7.5088461914e+003,7.4539741211e+003,7.4903847656e+003,7.4383334961e+003,7.4738461914e+003,7.5485898438e+003,7.4655126953e+003,7.5020512695e+003,7.4860258789e+003,
2.5312500000e+000,7.5678203125e+003,7.6078203125e+003,7.6094873047e+003,7.5943588867e+003,7.6029487305e+003,7.5993588867e+003,7.5994873047e+003,7.6042309570e+003,7.5862822266e+003,7.5978203125e+003,7.6126923828e+003,7.6148715820e+003,7.6024360352e+003,7.6057690430e+003,
2.5390625000e+000,7.6226923828e+003,7.5878203125e+003,7.6023076172e+003,7.5988461914e+003,7.5884614258e+003,7.5900000000e+003,7.6029487305e+003,7.5912822266e+003,7.5892309570e+003,7.5892309570e+003,7.5862822266e+003,7.6074360352e+003,7.5898715820e+003,7.5974360352e+003,
2.5468750000e+000,7.6862822266e+003,7.6205126953e+003,7.6317949219e+003,7.6433334961e+003,7.6265385742e+003,7.6279487305e+003,7.6416665039e+003,7.6257690430e+003,7.6357690430e+003,7.6312822266e+003,7.6138461914e+003,7.6357690430e+003,7.6270512695e+003,7.6300000000e+003,
2.5546875000e+000,7.7288461914e+003,7.6648715820e+003,7.6671796875e+003,7.6902563477e+003,7.6730771484e+003,7.6732050781e+003,7.6815385742e+003,7.6721796875e+003,7.6869228516e+003,7.6830771484e+003,7.6575639648e+003,7.6716665039e+003,7.6735898438e+003,7.6698715820e+003,
2.5625000000e+000,7.4843588867e+003,7.5970512695e+003,7.5924360352e+003,7.5494873047e+003,7.5867949219e+003,7.5835898438e+003,7.5665385742e+003,7.5760258789e+003,7.5510258789e+003,7.5678203125e+003,7.6034614258e+003,7.5888461914e+003,7.5821796875e+003,7.5873076172e+003,
2.5703125000e+000,7.1573076172e+003,7.4939741211e+003,7.4716665039e+003,7.3724360352e+003,7.4743588867e+003,7.4798715820e+003,7.4038461914e+003,7.4741025391e+003,7.4042309570e+003,7.4519228516e+003,7.5182050781e+003,7.4539741211e+003,7.4724360352e+003,7.4711538086e+003,
2.5781250000e+000,6.9226923828e+003,7.3261538086e+003,7.2987177734e+003,7.1667949219e+003,7.2908974609e+003,7.3041025391e+003,7.2180771484e+003,7.2950000000e+003,7.2117949219e+003,7.2542309570e+003,7.3617949219e+003,7.2725639648e+003,7.2920512695e+003,7.2994873047e+003,
2.5859375000e+000,6.4821796875e+003,7.0478203125e+003,6.9829487305e+003,6.8070512695e+003,6.9750000000e+003,6.9970512695e+003,6.8906411133e+003,6.9787177734e+003,6.8783334961e+003,6.9094873047e+003,7.0957690430e+003,6.9374360352e+003,6.9858974609e+003,6.9875639648e+003,
2.5937500000e+000,5.9316665039e+003,6.4010258789e+003,6.4070512695e+003,6.2510258789e+003,6.3508974609e+003,6.4141025391e+003,6.3332050781e+003,6.4071796875e+003,6.3323076172e+003,6.3010258789e+003,6.4534614258e+003,6.3508974609e+003,6.3758974609e+003,6.4074360352e+003,
2.6015625000e+000,5.7548715820e+003,6.2052563477e+003,6.2252563477e+003,6.0569228516e+003,6.1591025391e+003,6.2269228516e+003,6.1512822266e+003,6.2166665039e+003,6.1464101563e+003,6.1000000000e+003,6.2591025391e+003,6.1641025391e+003,6.1828203125e+003,6.2252563477e+003,
2.6093750000e+000,5.4560258789e+003,5.9002563477e+003,5.9265385742e+003,5.7478203125e+003,5.8315385742e+003,5.9298715820e+003,5.8605126953e+003,5.9150000000e+003,5.8480771484e+003,5.7766665039e+003,5.9555126953e+003,5.8594873047e+003,5.8802563477e+003,5.9271796875e+003,
2.6171875000e+000,5.3930771484e+003,5.8129487305e+003,5.8460258789e+003,5.6793588867e+003,5.7378203125e+003,5.8534614258e+003,5.7912822266e+003,5.8394873047e+003,5.7769228516e+003,5.6911538086e+003,5.8667949219e+003,5.7793588867e+003,5.7989741211e+003,5.8471796875e+003,
2.6250000000e+000,5.4266665039e+003,5.7794873047e+003,5.8221796875e+003,5.6829487305e+003,5.7694873047e+003,5.8441025391e+003,5.7901284180e+003,5.8341025391e+003,5.7869228516e+003,5.6744873047e+003,5.8343588867e+003,5.7573076172e+003,5.7764101563e+003,5.8316665039e+003,
2.6328125000e+000,5.4076923828e+003,5.7514101563e+003,5.7984614258e+003,5.6533334961e+003,5.7626923828e+003,5.8183334961e+003,5.7641025391e+003,5.8103847656e+003,5.7641025391e+003,5.6488461914e+003,5.8100000000e+003,5.7324360352e+003,5.7505126953e+003,5.8093588867e+003,
2.6406250000e+000,5.3430771484e+003,5.6534614258e+003,5.7203847656e+003,5.5723076172e+003,5.6580771484e+003,5.7288461914e+003,5.6800000000e+003,5.7264101563e+003,5.6789741211e+003,5.5588461914e+003,5.7182050781e+003,5.6508974609e+003,5.6641025391e+003,5.7307690430e+003,
2.6484375000e+000,5.3156411133e+003,5.6115385742e+003,5.6860258789e+003,5.5438461914e+003,5.5992309570e+003,5.6919228516e+003,5.6451284180e+003,5.6917949219e+003,5.6437177734e+003,5.5226923828e+003,5.6785898438e+003,5.6151284180e+003,5.6275639648e+003,5.6966665039e+003,
2.6562500000e+000,5.0601284180e+003,5.3194873047e+003,5.4092309570e+003,5.2716665039e+003,5.3041025391e+003,5.4111538086e+003,5.3702563477e+003,5.4147436523e+003,5.3733334961e+003,5.2401284180e+003,5.3874360352e+003,5.3291025391e+003,5.3401284180e+003,5.4153847656e+003,
2.6640625000e+000,4.9473076172e+003,5.1889741211e+003,5.2829487305e+003,5.1444873047e+003,5.1821796875e+003,5.2834614258e+003,5.2458974609e+003,5.2847436523e+003,5.2474360352e+003,5.1053847656e+003,5.2550000000e+003,5.1980771484e+003,5.2102563477e+003,5.2858974609e+003,
2.6718750000e+000,4.8769228516e+003,5.1017949219e+003,5.1975639648e+003,5.0623076172e+003,5.0971796875e+003,5.1994873047e+003,5.1646152344e+003,5.1966665039e+003,5.1632050781e+003,5.0123076172e+003,5.1666665039e+003,5.1110258789e+003,5.1244873047e+003,5.2000000000e+003,
2.6796875000e+000,4.8555126953e+003,5.0662822266e+003,5.1620512695e+003,5.0335898438e+003,5.0561538086e+003,5.1678203125e+003,5.1348715820e+003,5.1615385742e+003,5.1316665039e+003,4.9733334961e+003,5.1319228516e+003,5.0778203125e+003,5.0911538086e+003,5.1674360352e+003,
2.6875000000e+000,4.5788461914e+003,4.7426923828e+003,4.8558974609e+003,4.7332050781e+003,4.7243588867e+003,4.8606411133e+003,4.8343588867e+003,4.8688461914e+003,4.8524360352e+003,4.6678203125e+003,4.8189741211e+003,4.7750000000e+003,4.7783334961e+003,4.8698715820e+003,
2.6953125000e+000,4.3969228516e+003,4.5420512695e+003,4.6700000000e+003,4.5461538086e+003,4.5365385742e+003,4.6689741211e+003,4.6470512695e+003,4.6796152344e+003,4.6635898438e+003,4.4687177734e+003,4.6189741211e+003,4.5841025391e+003,4.5816665039e+003,4.6800000000e+003,
2.7031250000e+000,4.0314101563e+003,4.1070512695e+003,4.2647436523e+003,4.1608974609e+003,4.1329487305e+003,4.2664101563e+003,4.2553847656e+003,4.2660258789e+003,4.2600000000e+003,4.0270512695e+003,4.1762822266e+003,4.1702563477e+003,4.1602563477e+003,4.2743588867e+003,
2.7109375000e+000,3.7660256348e+003,3.7879487305e+003,3.9679487305e+003,3.8707692871e+003,3.8176923828e+003,3.9697436523e+003,3.9741025391e+003,3.9742307129e+003,3.9755129395e+003,3.7144870605e+003,3.8538461914e+003,3.8671794434e+003,3.8532050781e+003,3.9730769043e+003,
2.7187500000e+000,3.6839743652e+003,3.6903845215e+003,3.8766667480e+003,3.7800000000e+003,3.7221794434e+003,3.8783332520e+003,3.8883332520e+003,3.8842307129e+003,3.8853845215e+003,3.6175642090e+003,3.7556411133e+003,3.7741025391e+003,3.7566667480e+003,3.8810256348e+003,
2.7265625000e+000,3.5273076172e+003,3.4738461914e+003,3.6737180176e+003,3.5958974609e+003,3.5135898438e+003,3.6832050781e+003,3.6992307129e+003,3.6928205566e+003,3.6998718262e+003,3.4089743652e+003,3.5480769043e+003,3.5738461914e+003,3.5492307129e+003,3.6888461914e+003,
2.7343750000e+000,3.3588461914e+003,3.2507692871e+003,3.4662819824e+003,3.3987180176e+003,3.2869230957e+003,3.4660256348e+003,3.4948718262e+003,3.4779487305e+003,3.4887180176e+003,3.1882050781e+003,3.3171794434e+003,3.3626923828e+003,3.3347436523e+003,3.4783332520e+003,
2.7421875000e+000,3.3846154785e+003,3.2652563477e+003,3.4787180176e+003,3.4106411133e+003,3.2851281738e+003,3.4774357910e+003,3.5082050781e+003,3.4860256348e+003,3.4987180176e+003,3.2001281738e+003,3.3265385742e+003,3.3733332520e+003,3.3488461914e+003,3.4911538086e+003,
2.7500000000e+000,3.4906411133e+003,3.3362819824e+003,3.5469230957e+003,3.4797436523e+003,3.3619230957e+003,3.5412819824e+003,3.5667949219e+003,3.5494870605e+003,3.5707692871e+003,3.2753845215e+003,3.4002563477e+003,3.4397436523e+003,3.4198718262e+003,3.5644870605e+003,
2.7578125000e+000,3.4310256348e+003,3.2643588867e+003,3.4751281738e+003,3.4146154785e+003,3.3089743652e+003,3.4698718262e+003,3.4951281738e+003,3.4802563477e+003,3.5033332520e+003,3.2060256348e+003,3.3294870605e+003,3.3696154785e+003,3.3476923828e+003,3.4947436523e+003,
2.7656250000e+000,3.3069230957e+003,3.1201281738e+003,3.3279487305e+003,3.2806411133e+003,3.1710256348e+003,3.3319230957e+003,3.3633332520e+003,3.3347436523e+003,3.3556411133e+003,3.0510256348e+003,3.1769230957e+003,3.2251281738e+003,3.1969230957e+003,3.3491025391e+003,
2.7734375000e+000,3.3738461914e+003,3.1816667480e+003,3.3834614258e+003,3.3367949219e+003,3.2202563477e+003,3.3925642090e+003,3.4273076172e+003,3.3858974609e+003,3.4037180176e+003,3.0985898438e+003,3.2292307129e+003,3.2800000000e+003,3.2515385742e+003,3.4029487305e+003,
2.7812500000e+000,3.5661538086e+003,3.3730769043e+003,3.5624357910e+003,3.5141025391e+003,3.4007692871e+003,3.5746154785e+003,3.6094870605e+003,3.5602563477e+003,3.5744870605e+003,3.2761538086e+003,3.4106411133e+003,3.4582050781e+003,3.4339743652e+003,3.5806411133e+003,
2.7890625000e+000,3.8374357910e+003,3.6475642090e+003,3.8191025391e+003,3.7710256348e+003,3.6728205566e+003,3.8317949219e+003,3.8628205566e+003,3.8157692871e+003,3.8260256348e+003,3.5433332520e+003,3.6782050781e+003,3.7157692871e+003,3.6996154785e+003,3.8379487305e+003,
2.7968750000e+000,4.3539741211e+003,4.1701284180e+003,4.3133334961e+003,4.2783334961e+003,4.2020512695e+003,4.3135898438e+003,4.3197436523e+003,4.3193588867e+003,4.3155126953e+003,4.0997436523e+003,4.2139741211e+003,4.2256411133e+003,4.2184614258e+003,4.3382050781e+003,
2.8046875000e+000,4.8082050781e+003,4.6657690430e+003,4.7588461914e+003,4.7157690430e+003,4.6708974609e+003,4.7716665039e+003,4.7729487305e+003,4.7612822266e+003,4.7488461914e+003,4.5615385742e+003,4.6941025391e+003,4.6810258789e+003,4.6950000000e+003,4.7893588867e+003,
2.8125000000e+000,5.0053847656e+003,4.8753847656e+003,4.9533334961e+003,4.9169228516e+003,4.8753847656e+003,4.9685898438e+003,4.9637177734e+003,4.9615385742e+003,4.9429487305e+003,4.7764101563e+003,4.9069228516e+003,4.8842309570e+003,4.9034614258e+003,4.9867949219e+003,
2.8203125000e+000,5.1243588867e+003,5.0182050781e+003,5.0910258789e+003,5.0582050781e+003,5.0053847656e+003,5.1060258789e+003,5.0837177734e+003,5.1044873047e+003,5.0737177734e+003,4.9370512695e+003,5.0591025391e+003,5.0269228516e+003,5.0482050781e+003,5.1133334961e+003,
2.8281250000e+000,5.2448715820e+003,5.1687177734e+003,5.2206411133e+003,5.1747436523e+003,5.1671796875e+003,5.2423076172e+003,5.2158974609e+003,5.2301284180e+003,5.1946152344e+003,5.0647436523e+003,5.1948715820e+003,5.1506411133e+003,5.1816665039e+003,5.2416665039e+003,
2.8359375000e+000,5.3748715820e+003,5.3080771484e+003,5.3534614258e+003,5.3091025391e+003,5.3121796875e+003,5.3751284180e+003,5.3447436523e+003,5.3619228516e+003,5.3232050781e+003,5.2101284180e+003,5.3371796875e+003,5.2841025391e+003,5.3214101563e+003,5.3737177734e+003,
2.8437500000e+000,5.5639741211e+003,5.5242309570e+003,5.5662822266e+003,5.5160258789e+003,5.5365385742e+003,5.5802563477e+003,5.5433334961e+003,5.5710258789e+003,5.5248715820e+003,5.4429487305e+003,5.5689741211e+003,5.5029487305e+003,5.5474360352e+003,5.5829487305e+003,
2.8515625000e+000,5.5337177734e+003,5.5064101563e+003,5.5432050781e+003,5.4870512695e+003,5.5165385742e+003,5.5614101563e+003,5.5226923828e+003,5.5511538086e+003,5.5046152344e+003,5.4174360352e+003,5.5505126953e+003,5.4832050781e+003,5.5267949219e+003,5.5610258789e+003,
2.8593750000e+000,5.4621796875e+003,5.4544873047e+003,5.4814101563e+003,5.4191025391e+003,5.4520512695e+003,5.5107690430e+003,5.4673076172e+003,5.4957690430e+003,5.4475639648e+003,5.3532050781e+003,5.4907690430e+003,5.4238461914e+003,5.4614101563e+003,5.4962822266e+003,
2.8671875000e+000,5.4420512695e+003,5.4369228516e+003,5.4669228516e+003,5.4044873047e+003,5.4293588867e+003,5.4952563477e+003,5.4514101563e+003,5.4783334961e+003,5.4291025391e+003,5.3370512695e+003,5.4693588867e+003,5.4056411133e+003,5.4396152344e+003,5.4761538086e+003,
2.8750000000e+000,5.3707690430e+003,5.3667949219e+003,5.4096152344e+003,5.3517949219e+003,5.3578203125e+003,5.4260258789e+003,5.3857690430e+003,5.4120512695e+003,5.3703847656e+003,5.2778203125e+003,5.3992309570e+003,5.3394873047e+003,5.3792309570e+003,5.4143588867e+003,
2.8828125000e+000,5.2807690430e+003,5.2794873047e+003,5.3234614258e+003,5.2646152344e+003,5.2633334961e+003,5.3410258789e+003,5.3019228516e+003,5.3323076172e+003,5.2937177734e+003,5.1948715820e+003,5.3167949219e+003,5.2580771484e+003,5.2982050781e+003,5.3324360352e+003,
2.8906250000e+000,5.0260258789e+003,5.0223076172e+003,5.0776923828e+003,5.0151284180e+003,4.9953847656e+003,5.1001284180e+003,5.0669228516e+003,5.0962822266e+003,5.0583334961e+003,4.9426923828e+003,5.0671796875e+003,5.0182050781e+003,5.0474360352e+003,5.0885898438e+003,
2.8984375000e+000,4.9408974609e+003,4.9326923828e+003,4.9950000000e+003,4.9353847656e+003,4.9142309570e+003,5.0192309570e+003,4.9892309570e+003,5.0133334961e+003,4.9755126953e+003,4.8526923828e+003,4.9773076172e+003,4.9330771484e+003,4.9575639648e+003,5.0035898438e+003,
2.9062500000e+000,4.8932050781e+003,4.8811538086e+003,4.9480771484e+003,4.8960258789e+003,4.8775639648e+003,4.9730771484e+003,4.9453847656e+003,4.9669228516e+003,4.9310258789e+003,4.8020512695e+003,4.9247436523e+003,4.8828203125e+003,4.9060258789e+003,4.9546152344e+003,
2.9140625000e+000,4.8346152344e+003,4.8188461914e+003,4.8897436523e+003,4.8470512695e+003,4.8289741211e+003,4.9146152344e+003,4.8885898438e+003,4.9128203125e+003,4.8801284180e+003,4.7444873047e+003,4.8626923828e+003,4.8228203125e+003,4.8461538086e+003,4.8957690430e+003,
2.9218750000e+000,4.2633334961e+003,4.2110258789e+003,4.3089741211e+003,4.2694873047e+003,4.2234614258e+003,4.3396152344e+003,4.3267949219e+003,4.3446152344e+003,4.3270512695e+003,4.1446152344e+003,4.2557690430e+003,4.2402563477e+003,4.2546152344e+003,4.3234614258e+003,
2.9296875000e+000,4.1806411133e+003,4.1148715820e+003,4.2216665039e+003,4.1771796875e+003,4.1325639648e+003,4.2529487305e+003,4.2450000000e+003,4.2565385742e+003,4.2420512695e+003,4.0496154785e+003,4.1616665039e+003,4.1512822266e+003,4.1633334961e+003,4.2370512695e+003,
2.9375000000e+000,3.9803845215e+003,3.8678205566e+003,4.0066667480e+003,3.9626923828e+003,3.9175642090e+003,4.0276923828e+003,4.0371794434e+003,4.0392307129e+003,4.0314101563e+003,3.8183332520e+003,3.9269230957e+003,3.9301281738e+003,3.9341025391e+003,4.0198718262e+003,
2.9453125000e+000,3.9398718262e+003,3.8130769043e+003,3.9546154785e+003,3.9164101563e+003,3.8633332520e+003,3.9733332520e+003,3.9873076172e+003,3.9864101563e+003,3.9808974609e+003,3.7639743652e+003,3.8725642090e+003,3.8767949219e+003,3.8828205566e+003,3.9696154785e+003,
2.9531250000e+000,3.9284614258e+003,3.7775642090e+003,3.9157692871e+003,3.8793588867e+003,3.7933332520e+003,3.9311538086e+003,3.9474357910e+003,3.9392307129e+003,3.9364101563e+003,3.7187180176e+003,3.8328205566e+003,3.8408974609e+003,3.8471794434e+003,3.9362819824e+003,
2.9609375000e+000,3.7930769043e+003,3.6201281738e+003,3.7676923828e+003,3.7242307129e+003,3.6506411133e+003,3.7860256348e+003,3.7988461914e+003,3.7888461914e+003,3.7869230957e+003,3.5670512695e+003,3.6743588867e+003,3.6908974609e+003,3.6905129395e+003,3.7857692871e+003,
2.9687500000e+000,3.7820512695e+003,3.5998718262e+003,3.7488461914e+003,3.7061538086e+003,3.6408974609e+003,3.7666667480e+003,3.7816667480e+003,3.7683332520e+003,3.7678205566e+003,3.5448718262e+003,3.6512819824e+003,3.6698718262e+003,3.6723076172e+003,3.7665385742e+003,
2.9765625000e+000,3.9834614258e+003,3.7866667480e+003,3.9233332520e+003,3.8828205566e+003,3.8167949219e+003,3.9274357910e+003,3.9510256348e+003,3.9411538086e+003,3.9414101563e+003,3.7253845215e+003,3.8389743652e+003,3.8510256348e+003,3.8596154785e+003,3.9501281738e+003,
2.9843750000e+000,4.0524357910e+003,3.8489743652e+003,3.9816667480e+003,3.9406411133e+003,3.8942307129e+003,3.9889743652e+003,4.0107692871e+003,3.9994870605e+003,3.9938461914e+003,3.7921794434e+003,3.9070512695e+003,3.9164101563e+003,3.9238461914e+003,4.0119230957e+003,
2.9921875000e+000,4.1397436523e+003,3.9376923828e+003,4.0643588867e+003,4.0243588867e+003,3.9765385742e+003,4.0733332520e+003,4.0917949219e+003,4.0778205566e+003,4.0708974609e+003,3.8752563477e+003,3.9893588867e+003,3.9971794434e+003,4.0079487305e+003,4.0910256348e+003,
3.0000000000e+000,4.2489741211e+003,4.0507692871e+003,4.1679487305e+003,4.1294873047e+003,4.0702563477e+003,4.1758974609e+003,4.1911538086e+003,4.1811538086e+003,4.1730771484e+003,3.9857692871e+003,4.0969228516e+003,4.0997436523e+003,4.1143588867e+003,4.1925639648e+003,
3.0078125000e+000,4.2776923828e+003,4.0821794434e+003,4.1934614258e+003,4.1516665039e+003,4.0748718262e+003,4.1958974609e+003,4.2107690430e+003,4.2171796875e+003,4.2080771484e+003,4.0311538086e+003,4.1346152344e+003,4.1276923828e+003,4.1401284180e+003,4.2201284180e+003,
3.0156250000e+000,4.2658974609e+003,4.0680769043e+003,4.1811538086e+003,4.1457690430e+003,4.1156411133e+003,4.1964101563e+003,4.2220512695e+003,4.2021796875e+003,4.1930771484e+003,4.0121794434e+003,4.1214101563e+003,4.1116665039e+003,4.1305126953e+003,4.2083334961e+003,
3.0234375000e+000,4.5273076172e+003,4.3406411133e+003,4.4330771484e+003,4.4085898438e+003,4.3879487305e+003,4.4542309570e+003,4.4762822266e+003,4.4511538086e+003,4.4375639648e+003,4.2706411133e+003,4.3824360352e+003,4.3641025391e+003,4.3944873047e+003,4.4611538086e+003,
3.0312500000e+000,4.8605126953e+003,4.6903847656e+003,4.7580771484e+003,4.7412822266e+003,4.7229487305e+003,4.7801284180e+003,4.7938461914e+003,4.7748715820e+003,4.7538461914e+003,4.6105126953e+003,4.7223076172e+003,4.6917949219e+003,4.7312822266e+003,4.7870512695e+003,
3.0390625000e+000,5.3019228516e+003,5.1657690430e+003,5.2037177734e+003,5.1788461914e+003,5.1764101563e+003,5.2167949219e+003,5.2103847656e+003,5.2214101563e+003,5.1882050781e+003,5.0894873047e+003,5.1956411133e+003,5.1432050781e+003,5.1861538086e+003,5.2292309570e+003,
3.0468750000e+000,5.3106411133e+003,5.1873076172e+003,5.2234614258e+003,5.1891025391e+003,5.2029487305e+003,5.2335898438e+003,5.2206411133e+003,5.2429487305e+003,5.2084614258e+003,5.1192309570e+003,5.2220512695e+003,5.1641025391e+003,5.2047436523e+003,5.2450000000e+003,
3.0546875000e+000,5.2238461914e+003,5.1102563477e+003,5.1485898438e+003,5.1084614258e+003,5.1324360352e+003,5.1588461914e+003,5.1430771484e+003,5.1692309570e+003,5.1355126953e+003,5.0473076172e+003,5.1476923828e+003,5.0894873047e+003,5.1274360352e+003,5.1662822266e+003,
3.0625000000e+000,5.4874360352e+003,5.4169228516e+003,5.4271796875e+003,5.4312822266e+003,5.4079487305e+003,5.4478203125e+003,5.4300000000e+003,5.4402563477e+003,5.3973076172e+003,5.3289741211e+003,5.4414101563e+003,5.3673076172e+003,5.4238461914e+003,5.4492309570e+003,
3.0703125000e+000,5.6730771484e+003,5.6192309570e+003,5.6170512695e+003,5.6265385742e+003,5.6205126953e+003,5.6374360352e+003,5.6134614258e+003,5.6300000000e+003,5.5848715820e+003,5.5297436523e+003,5.6432050781e+003,5.5571796875e+003,5.6200000000e+003,5.6379487305e+003,
3.0781250000e+000,6.0867949219e+003,6.0837177734e+003,6.0494873047e+003,6.0503847656e+003,6.0779487305e+003,6.0619228516e+003,6.0207690430e+003,6.0465385742e+003,5.9912822266e+003,5.9702563477e+003,6.0875639648e+003,5.9867949219e+003,6.0552563477e+003,6.0593588867e+003,
3.0859375000e+000,6.3906411133e+003,6.4365385742e+003,6.3858974609e+003,6.3648715820e+003,6.3980771484e+003,6.3966665039e+003,6.3408974609e+003,6.3875639648e+003,6.3198715820e+003,6.3380771484e+003,6.4506411133e+003,6.3293588867e+003,6.3969228516e+003,6.3869228516e+003,
3.0937500000e+000,6.3660258789e+003,6.4237177734e+003,6.3755126953e+003,6.3491025391e+003,6.3838461914e+003,6.3810258789e+003,6.3257690430e+003,6.3821796875e+003,6.3126923828e+003,6.3357690430e+003,6.4470512695e+003,6.3207690430e+003,6.3875639648e+003,6.3766665039e+003,
3.1015625000e+000,6.0408974609e+003,6.1169228516e+003,6.0878203125e+003,6.0475639648e+003,6.1020512695e+003,6.0802563477e+003,6.0307690430e+003,6.0911538086e+003,6.0183334961e+003,6.0235898438e+003,6.1407690430e+003,6.0271796875e+003,6.0919228516e+003,6.0830771484e+003,
3.1093750000e+000,5.9432050781e+003,6.0215385742e+003,6.0020512695e+003,5.9543588867e+003,6.0065385742e+003,5.9938461914e+003,5.9446152344e+003,6.0001284180e+003,5.9280771484e+003,5.9250000000e+003,6.0421796875e+003,5.9388461914e+003,5.9967949219e+003,5.9917949219e+003,
3.1171875000e+000,5.7741025391e+003,5.8520512695e+003,5.8476923828e+003,5.7905126953e+003,5.8200000000e+003,5.8412822266e+003,5.7958974609e+003,5.8435898438e+003,5.7793588867e+003,5.7626923828e+003,5.8774360352e+003,5.7815385742e+003,5.8298715820e+003,5.8358974609e+003,
3.1250000000e+000,5.6887177734e+003,5.7653847656e+003,5.7647436523e+003,5.7074360352e+003,5.7310258789e+003,5.7592309570e+003,5.7183334961e+003,5.7643588867e+003,5.7048715820e+003,5.6806411133e+003,5.7967949219e+003,5.6988461914e+003,5.7476923828e+003,5.7587177734e+003,
3.1328125000e+000,5.6229487305e+003,5.7026923828e+003,5.7020512695e+003,5.6420512695e+003,5.7062822266e+003,5.7008974609e+003,5.6694873047e+003,5.7061538086e+003,5.6485898438e+003,5.6064101563e+003,5.7302563477e+003,5.6400000000e+003,5.6943588867e+003,5.7093588867e+003,
3.1406250000e+000,5.7741025391e+003,5.8601284180e+003,5.8501284180e+003,5.7885898438e+003,5.8689741211e+003,5.8547436523e+003,5.8212822266e+003,5.8500000000e+003,5.7911538086e+003,5.7550000000e+003,5.8783334961e+003,5.7858974609e+003,5.8469228516e+003,5.8565385742e+003,
3.1484375000e+000,6.3358974609e+003,6.4489741211e+003,6.4010258789e+003,6.3430771484e+003,6.4362822266e+003,6.4147436523e+003,6.3696152344e+003,6.3947436523e+003,6.3301284180e+003,6.3264101563e+003,6.4539741211e+003,6.3329487305e+003,6.4158974609e+003,6.4088461914e+003,
3.1562500000e+000,6.5856411133e+003,6.7180771484e+003,6.6516665039e+003,6.5955126953e+003,6.6864101563e+003,6.6623076172e+003,6.6089741211e+003,6.6473076172e+003,6.5760258789e+003,6.5920512695e+003,6.7232050781e+003,6.5867949219e+003,6.6757690430e+003,6.6626923828e+003,
3.1640625000e+000,6.2473076172e+003,6.4098715820e+003,6.3585898438e+003,6.2928203125e+003,6.3573076172e+003,6.3460258789e+003,6.2800000000e+003,6.3694873047e+003,6.2852563477e+003,6.3170512695e+003,6.4329487305e+003,6.3062822266e+003,6.3711538086e+003,6.3696152344e+003,
3.1718750000e+000,5.8664101563e+003,6.0198715820e+003,5.9946152344e+003,5.9233334961e+003,5.9821796875e+003,5.9819228516e+003,5.9217949219e+003,6.0065385742e+003,5.9270512695e+003,5.9396152344e+003,6.0498715820e+003,5.9383334961e+003,5.9908974609e+003,6.0011538086e+003,
3.1796875000e+000,5.5257690430e+003,5.6644873047e+003,5.6643588867e+003,5.5885898438e+003,5.6443588867e+003,5.6561538086e+003,5.6057690430e+003,5.6746152344e+003,5.6025639648e+003,5.5874360352e+003,5.6992309570e+003,5.6007690430e+003,5.6450000000e+003,5.6664101563e+003,
3.1875000000e+000,4.9514101563e+003,5.0366665039e+003,5.0800000000e+003,5.0008974609e+003,5.0146152344e+003,5.0706411133e+003,5.0519228516e+003,5.0887177734e+003,5.0457690430e+003,4.9573076172e+003,5.0714101563e+003,5.0050000000e+003,5.0432050781e+003,5.0820512695e+003,
3.1953125000e+000,4.7857690430e+003,4.8574360352e+003,4.9132050781e+003,4.8343588867e+003,4.8575639648e+003,4.9033334961e+003,4.8900000000e+003,4.9252563477e+003,4.8885898438e+003,4.7896152344e+003,4.8974360352e+003,4.8376923828e+003,4.8723076172e+003,4.9167949219e+003,
3.2031250000e+000,4.4258974609e+003,4.4592309570e+003,4.5337177734e+003,4.4544873047e+003,4.4830771484e+003,4.5393588867e+003,4.5416665039e+003,4.5593588867e+003,4.5343588867e+003,4.3958974609e+003,4.5034614258e+003,4.4515385742e+003,4.4893588867e+003,4.5461538086e+003,
3.2109375000e+000,4.2643588867e+003,4.2407690430e+003,4.3471796875e+003,4.2671796875e+003,4.2671796875e+003,4.3446152344e+003,4.3537177734e+003,4.3657690430e+003,4.3465385742e+003,4.1873076172e+003,4.2965385742e+003,4.2626923828e+003,4.2939741211e+003,4.3576923828e+003,
3.2187500000e+000,4.1826923828e+003,4.1443588867e+003,4.2588461914e+003,4.1816665039e+003,4.1771796875e+003,4.2526923828e+003,4.2626923828e+003,4.2765385742e+003,4.2616665039e+003,4.0928205566e+003,4.2017949219e+003,4.1723076172e+003,4.2008974609e+003,4.2694873047e+003,
3.2265625000e+000,3.8942307129e+003,3.8223076172e+003,3.9516667480e+003,3.8794870605e+003,3.8339743652e+003,3.9416667480e+003,3.9633332520e+003,3.9682050781e+003,3.9629487305e+003,3.7712819824e+003,3.8724357910e+003,3.8612819824e+003,3.8806411133e+003,3.9673076172e+003,
3.2343750000e+000,3.8261538086e+003,3.7378205566e+003,3.8721794434e+003,3.7988461914e+003,3.7487180176e+003,3.8619230957e+003,3.8876923828e+003,3.8861538086e+003,3.8842307129e+003,3.6869230957e+003,3.7873076172e+003,3.7819230957e+003,3.7994870605e+003,3.8897436523e+003,
3.2421875000e+000,3.7670512695e+003,3.6471794434e+003,3.7841025391e+003,3.7102563477e+003,3.6775642090e+003,3.7751281738e+003,3.8041025391e+003,3.7971794434e+003,3.8000000000e+003,3.5902563477e+003,3.6933332520e+003,3.6921794434e+003,3.7083332520e+003,3.8037180176e+003,
3.2500000000e+000,3.7543588867e+003,3.6238461914e+003,3.7606411133e+003,3.6876923828e+003,3.6619230957e+003,3.7512819824e+003,3.7817949219e+003,3.7750000000e+003,3.7766667480e+003,3.5617949219e+003,3.6643588867e+003,3.6660256348e+003,3.6793588867e+003,3.7796154785e+003,
3.2578125000e+000,3.6608974609e+003,3.5035898438e+003,3.6462819824e+003,3.5801281738e+003,3.5158974609e+003,3.6253845215e+003,3.6684614258e+003,3.6634614258e+003,3.6591025391e+003,3.4398718262e+003,3.5317949219e+003,3.5447436523e+003,3.5479487305e+003,3.6637180176e+003,
3.2656250000e+000,3.5564101563e+003,3.3850000000e+003,3.5332050781e+003,3.4696154785e+003,3.3833332520e+003,3.5078205566e+003,3.5546154785e+003,3.5516667480e+003,3.5498718262e+003,3.3250000000e+003,3.4153845215e+003,3.4315385742e+003,3.4310256348e+003,3.5507692871e+003,
3.2734375000e+000,3.1889743652e+003,2.9748718262e+003,3.1460256348e+003,3.0848718262e+003,2.9743588867e+003,3.1170512695e+003,3.1678205566e+003,3.1593588867e+003,3.1689743652e+003,2.9152563477e+003,3.0070512695e+003,3.0407692871e+003,3.0261538086e+003,3.1638461914e+003,
3.2812500000e+000,3.0030769043e+003,2.7644870605e+003,2.9478205566e+003,2.8888461914e+003,2.7812819824e+003,2.9200000000e+003,2.9728205566e+003,2.9544870605e+003,2.9701281738e+003,2.7005129395e+003,2.7929487305e+003,2.8384614258e+003,2.8184614258e+003,2.9684614258e+003,
3.2890625000e+000,2.8012819824e+003,2.4989743652e+003,2.6966667480e+003,2.6458974609e+003,2.5491025391e+003,2.6647436523e+003,2.7324357910e+003,2.6934614258e+003,2.7196154785e+003,2.4264101563e+003,2.5212819824e+003,2.5853845215e+003,2.5666667480e+003,2.7361538086e+003,
3.2968750000e+000,2.7748718262e+003,2.4524357910e+003,2.6546154785e+003,2.6050000000e+003,2.4883332520e+003,2.6150000000e+003,2.6897436523e+003,2.6512819824e+003,2.6806411133e+003,2.3811538086e+003,2.4784614258e+003,2.5451281738e+003,2.5244870605e+003,2.6978205566e+003,
3.3046875000e+000,2.7228205566e+003,2.3810256348e+003,2.5884614258e+003,2.5424357910e+003,2.3994870605e+003,2.5416667480e+003,2.6215385742e+003,2.5842307129e+003,2.6178205566e+003,2.3117949219e+003,2.4103845215e+003,2.4794870605e+003,2.4546154785e+003,2.6326923828e+003,
3.3125000000e+000,2.6235898438e+003,2.2280769043e+003,2.4343588867e+003,2.4167949219e+003,2.2452563477e+003,2.3837180176e+003,2.4710256348e+003,2.4255129395e+003,2.4703845215e+003,2.1661538086e+003,2.2489743652e+003,2.3346154785e+003,2.3047436523e+003,2.4832050781e+003,
3.3203125000e+000,2.6610256348e+003,2.2517949219e+003,2.4611538086e+003,2.4424357910e+003,2.2639743652e+003,2.4107692871e+003,2.4996154785e+003,2.4548718262e+003,2.5016667480e+003,2.1987180176e+003,2.2807692871e+003,2.3626923828e+003,2.3365385742e+003,2.5097436523e+003,
3.3281250000e+000,2.6276923828e+003,2.1917949219e+003,2.4064101563e+003,2.3965385742e+003,2.2387180176e+003,2.3644870605e+003,2.4541025391e+003,2.4096154785e+003,2.4537180176e+003,2.1565385742e+003,2.2274357910e+003,2.3101281738e+003,2.2816667480e+003,2.4462819824e+003,
3.3359375000e+000,2.6897436523e+003,2.2424357910e+003,2.4519230957e+003,2.4361538086e+003,2.2957692871e+003,2.4147436523e+003,2.5084614258e+003,2.4514101563e+003,2.4878205566e+003,2.2020512695e+003,2.2785898438e+003,2.3597436523e+003,2.3334614258e+003,2.4930769043e+003,
3.3437500000e+000,2.7407692871e+003,2.2894870605e+003,2.4947436523e+003,2.4762819824e+003,2.3330769043e+003,2.4608974609e+003,2.5551281738e+003,2.4996154785e+003,2.5346154785e+003,2.2505129395e+003,2.3300000000e+003,2.4056411133e+003,2.3820512695e+003,2.5370512695e+003,
3.3515625000e+000,2.8675642090e+003,2.4120512695e+003,2.6020512695e+003,2.5894870605e+003,2.4616667480e+003,2.5774357910e+003,2.6700000000e+003,2.6330769043e+003,2.6633332520e+003,2.3897436523e+003,2.4503845215e+003,2.5189743652e+003,2.4965385742e+003,2.6379487305e+003,
3.3593750000e+000,2.8743588867e+003,2.4148718262e+003,2.6065385742e+003,2.5978205566e+003,2.4697436523e+003,2.5860256348e+003,2.6767949219e+003,2.6450000000e+003,2.6764101563e+003,2.4056411133e+003,2.4576923828e+003,2.5257692871e+003,2.5034614258e+003,2.6396154785e+003,
3.3671875000e+000,2.8115385742e+003,2.3397436523e+003,2.5423076172e+003,2.5376923828e+003,2.3842307129e+003,2.5332050781e+003,2.6207692871e+003,2.5861538086e+003,2.6262819824e+003,2.3526923828e+003,2.3988461914e+003,2.4658974609e+003,2.4455129395e+003,2.5737180176e+003,
3.3750000000e+000,2.7760256348e+003,2.3005129395e+003,2.5039743652e+003,2.5014101563e+003,2.3408974609e+003,2.4997436523e+003,2.5862819824e+003,2.5483332520e+003,2.5920512695e+003,2.3164101563e+003,2.3623076172e+003,2.4287180176e+003,2.4105129395e+003,2.5374357910e+003,
3.3828125000e+000,2.5910256348e+003,2.1026923828e+003,2.3107692871e+003,2.3160256348e+003,2.1779487305e+003,2.2948718262e+003,2.3838461914e+003,2.3596154785e+003,2.4015385742e+003,2.1271794434e+003,2.1657692871e+003,2.2391025391e+003,2.2144870605e+003,2.3483332520e+003,
3.3906250000e+000,2.4500000000e+003,1.9491025391e+003,2.1700000000e+003,2.1738461914e+003,2.0339743652e+003,2.1457692871e+003,2.2397436523e+003,2.2155129395e+003,2.2598718262e+003,1.9788461914e+003,2.0178205566e+003,2.0992307129e+003,2.0662819824e+003,2.2046154785e+003,
3.3984375000e+000,2.2260256348e+003,1.6987178955e+003,1.9353846436e+003,1.9379487305e+003,1.7796153564e+003,1.9115384521e+003,2.0166666260e+003,1.9738461914e+003,2.0301281738e+003,1.7271794434e+003,1.7723077393e+003,1.8670512695e+003,1.8300000000e+003,1.9688461914e+003,
3.4062500000e+000,2.2056411133e+003,1.6698718262e+003,1.9034615479e+003,1.9097435303e+003,1.7439743652e+003,1.8857692871e+003,1.9947435303e+003,1.9437178955e+003,2.0042307129e+003,1.6958974609e+003,1.7410256348e+003,1.8369230957e+003,1.8047435303e+003,1.9407692871e+003,
3.4140625000e+000,2.3146154785e+003,1.7591025391e+003,1.9897435303e+003,2.0069230957e+003,1.8474359131e+003,1.9721794434e+003,2.0879487305e+003,2.0379487305e+003,2.0928205566e+003,1.7944871826e+003,1.8225640869e+003,1.9203846436e+003,1.8896153564e+003,2.0276922607e+003,
3.4218750000e+000,2.3769230957e+003,1.8166666260e+003,2.0465384521e+003,2.0682050781e+003,1.9062821045e+003,2.0300000000e+003,2.1455129395e+003,2.0961538086e+003,2.1480769043e+003,1.8541025391e+003,1.8771794434e+003,1.9774359131e+003,1.9437178955e+003,2.0806411133e+003,
3.4296875000e+000,2.4587180176e+003,1.8980769043e+003,2.1203845215e+003,2.1488461914e+003,1.9752564697e+003,2.1100000000e+003,2.2225642090e+003,2.1737180176e+003,2.2238461914e+003,1.9350000000e+003,1.9546153564e+003,2.0547436523e+003,2.0207692871e+003,2.1526923828e+003,
