Time (s);AF3;F7;F3;FC5;T7;P7;O1;O2;P8;T8;FC6;F4;F8;AF4;Sampling Rate
0.0000000000e+000;4.8273076172e+003;5.0053847656e+003;4.9778203125e+003;4.9191025391e+003;5.0130771484e+003;4.9850000000e+003;4.9876923828e+003;4.9970512695e+003;4.9683334961e+003;4.9989741211e+003;4.9791025391e+003;4.9824360352e+003;4.9853847656e+003;4.9557690430e+003;128
7.8125000000e-003;4.9434614258e+003;5.1300000000e+003;5.0938461914e+003;5.0289741211e+003;5.1382050781e+003;5.0937177734e+003;5.0984614258e+003;5.1128203125e+003;5.0841025391e+003;5.1242309570e+003;5.1039741211e+003;5.1021796875e+003;5.1057690430e+003;5.0751284180e+003;
1.5625000000e-002;5.0192309570e+003;5.2124360352e+003;5.1721796875e+003;5.0975639648e+003;5.2183334961e+003;5.1655126953e+003;5.1693588867e+003;5.1923076172e+003;5.1633334961e+003;5.2117949219e+003;5.1919228516e+003;5.1835898438e+003;5.1883334961e+003;5.1567949219e+003;
2.3437500000e-002;4.7432050781e+003;4.9271796875e+003;4.9135898438e+003;4.8400000000e+003;4.9244873047e+003;4.8866665039e+003;4.8811538086e+003;4.9138461914e+003;4.8920512695e+003;4.9362822266e+003;4.9257690430e+003;4.9225639648e+003;4.9241025391e+003;4.9012822266e+003;
3.1250000000e-002;4.6897436523e+003;4.8721796875e+003;4.8574360352e+003;4.7864101563e+003;4.8667949219e+003;4.8247436523e+003;4.8219228516e+003;4.8530771484e+003;4.8353847656e+003;4.8787177734e+003;4.8714101563e+003;4.8688461914e+003;4.8667949219e+003;4.8487177734e+003;
3.9062500000e-002;4.6270512695e+003;4.8017949219e+003;4.7876923828e+003;4.7143588867e+003;4.7887177734e+003;4.7474360352e+003;4.7437177734e+003;4.7788461914e+003;4.7705126953e+003;4.8058974609e+003;4.8042309570e+003;4.8006411133e+003;4.7978203125e+003;4.7853847656e+003;
4.6875000000e-002;4.6043588867e+003;4.7756411133e+003;4.7630771484e+003;4.6888461914e+003;4.7606411133e+003;4.7246152344e+003;4.7176923828e+003;4.7567949219e+003;4.7525639648e+003;4.7802563477e+003;4.7766665039e+003;4.7748715820e+003;4.7739741211e+003;4.7620512695e+003;
5.4687500000e-002;4.5615385742e+003;4.7325639648e+003;4.7200000000e+003;4.6470512695e+003;4.7207690430e+003;4.6912822266e+003;4.6864101563e+003;4.7306411133e+003;4.7278203125e+003;4.7348715820e+003;4.7242309570e+003;4.7294873047e+003;4.7265385742e+003;4.7217949219e+003;
6.2500000000e-002;4.5335898438e+003;4.7030771484e+003;4.6873076172e+003;4.6288461914e+003;4.6987177734e+003;4.6794873047e+003;4.6750000000e+003;4.7080771484e+003;4.6983334961e+003;4.6997436523e+003;4.7033334961e+003;4.6900000000e+003;4.6976923828e+003;4.6873076172e+003;
7.0312500000e-002;4.5397436523e+003;4.7083334961e+003;4.6908974609e+003;4.6389741211e+003;4.7097436523e+003;4.6929487305e+003;4.6874360352e+003;4.7130771484e+003;4.7003847656e+003;4.7006411133e+003;4.7043588867e+003;4.6894873047e+003;4.7007690430e+003;4.6875639648e+003;
7.8125000000e-002;4.6138461914e+003;4.7776923828e+003;4.7628203125e+003;4.7114101563e+003;4.7910258789e+003;4.7765385742e+003;4.7730771484e+003;4.7951284180e+003;4.7729487305e+003;4.7708974609e+003;4.7575639648e+003;4.7591025391e+003;4.7610258789e+003;4.7537177734e+003;
8.5937500000e-002;4.6117949219e+003;4.7756411133e+003;4.7619228516e+003;4.7055126953e+003;4.7891025391e+003;4.7796152344e+003;4.7750000000e+003;4.7983334961e+003;4.7756411133e+003;4.7728203125e+003;4.7562822266e+003;4.7612822266e+003;4.7594873047e+003;4.7532050781e+003;
9.3750000000e-002;4.6025639648e+003;4.7664101563e+003;4.7523076172e+003;4.6915385742e+003;4.7805126953e+003;4.7747436523e+003;4.7696152344e+003;4.7911538086e+003;4.7693588867e+003;4.7655126953e+003;4.7503847656e+003;4.7533334961e+003;4.7520512695e+003;4.7438461914e+003;
1.0156250000e-001;4.6096152344e+003;4.7714101563e+003;4.7570512695e+003;4.6937177734e+003;4.7883334961e+003;4.7819228516e+003;4.7780771484e+003;4.7964101563e+003;4.7751284180e+003;4.7702563477e+003;4.7600000000e+003;4.7557690430e+003;4.7596152344e+003;4.7473076172e+003;
1.0937500000e-001;4.7367949219e+003;4.8908974609e+003;4.8848715820e+003;4.8334614258e+003;4.9035898438e+003;4.8880771484e+003;4.8882050781e+003;4.9107690430e+003;4.8825639648e+003;4.8833334961e+003;4.8773076172e+003;4.8712822266e+003;4.8794873047e+003;4.8692309570e+003;
1.1718750000e-001;4.7384614258e+003;4.8983334961e+003;4.8870512695e+003;4.8373076172e+003;4.9046152344e+003;4.8870512695e+003;4.8864101563e+003;4.9056411133e+003;4.8794873047e+003;4.8882050781e+003;4.8778203125e+003;4.8776923828e+003;4.8825639648e+003;4.8744873047e+003;
1.2500000000e-001;4.7917949219e+003;4.9605126953e+003;4.9383334961e+003;4.8737177734e+003;4.9570512695e+003;4.9301284180e+003;4.9284614258e+003;4.9429487305e+003;4.9239741211e+003;4.9516665039e+003;4.9400000000e+003;4.9337177734e+003;4.9391025391e+003;4.9278203125e+003;
1.3281250000e-001;4.8380771484e+003;4.9919228516e+003;4.9879487305e+003;4.9026923828e+003;4.9841025391e+003;4.9596152344e+003;4.9533334961e+003;4.9692309570e+003;4.9494873047e+003;4.9805126953e+003;4.9801284180e+003;4.9823076172e+003;4.9764101563e+003;4.9756411133e+003;
1.4062500000e-001;4.8487177734e+003;5.0035898438e+003;4.9983334961e+003;4.9070512695e+003;4.9987177734e+003;4.9621796875e+003;4.9555126953e+003;4.9794873047e+003;4.9587177734e+003;4.9941025391e+003;4.9934614258e+003;4.9915385742e+003;4.9925639648e+003;4.9875639648e+003;
1.4843750000e-001;4.6775639648e+003;4.8392309570e+003;4.8317949219e+003;4.7455126953e+003;4.8379487305e+003;4.7976923828e+003;4.7944873047e+003;4.8361538086e+003;4.8156411133e+003;4.8356411133e+003;4.8321796875e+003;4.8184614258e+003;4.8364101563e+003;4.8169228516e+003;
1.5625000000e-001;4.9741025391e+003;5.1332050781e+003;5.1221796875e+003;5.0380771484e+003;5.1301284180e+003;5.0908974609e+003;5.0970512695e+003;5.1264101563e+003;5.1092309570e+003;5.1185898438e+003;5.1191025391e+003;5.1082050781e+003;5.1161538086e+003;5.1016665039e+003;
1.6406250000e-001;5.1591025391e+003;5.3188461914e+003;5.3047436523e+003;5.2137177734e+003;5.3184614258e+003;5.2669228516e+003;5.2728203125e+003;5.3133334961e+003;5.2935898438e+003;5.3135898438e+003;5.3080771484e+003;5.2953847656e+003;5.3033334961e+003;5.2860258789e+003;
1.7187500000e-001;5.1866665039e+003;5.3708974609e+003;5.3447436523e+003;5.2435898438e+003;5.3732050781e+003;5.3167949219e+003;5.3180771484e+003;5.3806411133e+003;5.3579487305e+003;5.3889741211e+003;5.3688461914e+003;5.3437177734e+003;5.3601284180e+003;5.3337177734e+003;
1.7968750000e-001;5.0874360352e+003;5.2811538086e+003;5.2517949219e+003;5.1530771484e+003;5.2805126953e+003;5.2384614258e+003;5.2400000000e+003;5.2952563477e+003;5.2732050781e+003;5.2978203125e+003;5.2806411133e+003;5.2510258789e+003;5.2694873047e+003;5.2425639648e+003;
1.8750000000e-001;5.0247436523e+003;5.2176923828e+003;5.1958974609e+003;5.0987177734e+003;5.2175639648e+003;5.1946152344e+003;5.1983334961e+003;5.2358974609e+003;5.2151284180e+003;5.2301284180e+003;5.2184614258e+003;5.1891025391e+003;5.2071796875e+003;5.1792309570e+003;
1.9531250000e-001;5.0734614258e+003;5.2612822266e+003;5.2444873047e+003;5.1470512695e+003;5.2648715820e+003;5.2383334961e+003;5.2419228516e+003;5.2776923828e+003;5.2567949219e+003;5.2732050781e+003;5.2585898438e+003;5.2325639648e+003;5.2498715820e+003;5.2208974609e+003;
2.0312500000e-001;5.1793588867e+003;5.3794873047e+003;5.3529487305e+003;5.2535898438e+003;5.3825639648e+003;5.3400000000e+003;5.3402563477e+003;5.3815385742e+003;5.3593588867e+003;5.3841025391e+003;5.3582050781e+003;5.3412822266e+003;5.3553847656e+003;5.3311538086e+003;
2.1093750000e-001;5.1775639648e+003;5.3823076172e+003;5.3542309570e+003;5.2520512695e+003;5.3817949219e+003;5.3415385742e+003;5.3432050781e+003;5.3805126953e+003;5.3603847656e+003;5.3833334961e+003;5.3610258789e+003;5.3450000000e+003;5.3578203125e+003;5.3370512695e+003;
2.1875000000e-001;5.1711538086e+003;5.3741025391e+003;5.3502563477e+003;5.2455126953e+003;5.3719228516e+003;5.3339741211e+003;5.3373076172e+003;5.3706411133e+003;5.3535898438e+003;5.3743588867e+003;5.3579487305e+003;5.3400000000e+003;5.3535898438e+003;5.3342309570e+003;
2.2656250000e-001;5.1544873047e+003;5.3520512695e+003;5.3350000000e+003;5.2296152344e+003;5.3503847656e+003;5.3120512695e+003;5.3156411133e+003;5.3470512695e+003;5.3325639648e+003;5.3520512695e+003;5.3415385742e+003;5.3207690430e+003;5.3361538086e+003;5.3161538086e+003;
2.3437500000e-001;5.1171796875e+003;5.3274360352e+003;5.3034614258e+003;5.1951284180e+003;5.3182050781e+003;5.2708974609e+003;5.2653847656e+003;5.2942309570e+003;5.2638461914e+003;5.2926923828e+003;5.3030771484e+003;5.2883334961e+003;5.2925639648e+003;5.2852563477e+003;
2.4218750000e-001;5.1453847656e+003;5.3614101563e+003;5.3328203125e+003;5.2221796875e+003;5.3469228516e+003;5.3006411133e+003;5.2935898438e+003;5.3243588867e+003;5.2930771484e+003;5.3283334961e+003;5.3370512695e+003;5.3221796875e+003;5.3255126953e+003;5.3193588867e+003;
2.5000000000e-001;4.9088461914e+003;5.1152563477e+003;5.1030771484e+003;4.9970512695e+003;5.1105126953e+003;5.0611538086e+003;5.0538461914e+003;5.0948715820e+003;5.0806411133e+003;5.1123076172e+003;5.1132050781e+003;5.0978203125e+003;5.1060258789e+003;5.0920512695e+003;
2.5781250000e-001;4.5592309570e+003;4.7425639648e+003;4.7464101563e+003;4.6500000000e+003;4.7357690430e+003;4.7067949219e+003;4.7038461914e+003;4.7417949219e+003;4.7292309570e+003;4.7283334961e+003;4.7453847656e+003;4.7347436523e+003;4.7426923828e+003;4.7383334961e+003;
2.6562500000e-001;4.5838461914e+003;4.7623076172e+003;4.7634614258e+003;4.6729487305e+003;4.7484614258e+003;4.7238461914e+003;4.7221796875e+003;4.7610258789e+003;4.7476923828e+003;4.7437177734e+003;4.7616665039e+003;4.7503847656e+003;4.7569228516e+003;4.7566665039e+003;
2.7343750000e-001;4.7324360352e+003;4.9070512695e+003;4.8994873047e+003;4.8125639648e+003;4.8878203125e+003;4.8592309570e+003;4.8615385742e+003;4.9089741211e+003;4.8875639648e+003;4.8830771484e+003;4.8957690430e+003;4.8805126953e+003;4.8851284180e+003;4.8873076172e+003;
2.8125000000e-001;4.5712822266e+003;4.7264101563e+003;4.7405126953e+003;4.6408974609e+003;4.7238461914e+003;4.7192309570e+003;4.7244873047e+003;4.7593588867e+003;4.7326923828e+003;4.7102563477e+003;4.7180771484e+003;4.7162822266e+003;4.7158974609e+003;4.7197436523e+003;
2.8906250000e-001;4.4752563477e+003;4.6198715820e+003;4.6425639648e+003;4.5450000000e+003;4.6230771484e+003;4.6293588867e+003;4.6332050781e+003;4.6619228516e+003;4.6387177734e+003;4.6087177734e+003;4.6187177734e+003;4.6198715820e+003;4.6144873047e+003;4.6228203125e+003;
2.9687500000e-001;4.1120512695e+003;4.2335898438e+003;4.2667949219e+003;4.1874360352e+003;4.2328203125e+003;4.2815385742e+003;4.2757690430e+003;4.2932050781e+003;4.2746152344e+003;4.2280771484e+003;4.2552563477e+003;4.2507690430e+003;4.2388461914e+003;4.2569228516e+003;
3.0468750000e-001;3.9712819824e+003;4.0832050781e+003;4.1191025391e+003;4.0501281738e+003;4.0788461914e+003;4.1425639648e+003;4.1342309570e+003;4.1461538086e+003;4.1260258789e+003;4.0760256348e+003;4.1070512695e+003;4.1038461914e+003;4.0920512695e+003;4.1123076172e+003;
3.1250000000e-001;3.8156411133e+003;3.9039743652e+003;3.9385898438e+003;3.8893588867e+003;3.9093588867e+003;3.9724357910e+003;3.9612819824e+003;3.9555129395e+003;3.9385898438e+003;3.8807692871e+003;3.9176923828e+003;3.9205129395e+003;3.9157692871e+003;3.9370512695e+003;
3.2031250000e-001;3.8482050781e+003;3.9278205566e+003;3.9573076172e+003;3.9110256348e+003;3.9417949219e+003;3.9905129395e+003;3.9787180176e+003;3.9667949219e+003;3.9537180176e+003;3.8941025391e+003;3.9338461914e+003;3.9379487305e+003;3.9367949219e+003;3.9583332520e+003;
3.2812500000e-001;4.0053845215e+003;4.0694870605e+003;4.0983334961e+003;4.0408974609e+003;4.0770512695e+003;4.1138461914e+003;4.0998715820e+003;4.0970512695e+003;4.0803845215e+003;4.0370512695e+003;4.0721794434e+003;4.0826923828e+003;4.0739743652e+003;4.1012822266e+003;
3.3593750000e-001;3.9776923828e+003;4.0329487305e+003;4.0675642090e+003;4.0106411133e+003;4.0351281738e+003;4.0800000000e+003;4.0650000000e+003;4.0644870605e+003;4.0460256348e+003;4.0082050781e+003;4.0412819824e+003;4.0523076172e+003;4.0417949219e+003;4.0689743652e+003;
3.4375000000e-001;3.9235898438e+003;3.9675642090e+003;4.0087180176e+003;3.9543588867e+003;3.9701281738e+003;4.0212819824e+003;4.0041025391e+003;4.0030769043e+003;3.9855129395e+003;3.9487180176e+003;3.9841025391e+003;3.9923076172e+003;3.9817949219e+003;4.0083332520e+003;
3.5156250000e-001;3.8615385742e+003;3.8937180176e+003;3.9410256348e+003;3.8889743652e+003;3.9012819824e+003;3.9546154785e+003;3.9348718262e+003;3.9325642090e+003;3.9176923828e+003;3.8769230957e+003;3.9189743652e+003;3.9233332520e+003;3.9124357910e+003;3.9392307129e+003;
3.5937500000e-001;3.6252563477e+003;3.6323076172e+003;3.6785898438e+003;3.6406411133e+003;3.6270512695e+003;3.6869230957e+003;3.6658974609e+003;3.6787180176e+003;3.6687180176e+003;3.6062819824e+003;3.6532050781e+003;3.6682050781e+003;3.6500000000e+003;3.6851281738e+003;
3.6718750000e-001;3.5753845215e+003;3.5737180176e+003;3.6184614258e+003;3.5858974609e+003;3.5614101563e+003;3.6262819824e+003;3.6076923828e+003;3.6210256348e+003;3.6110256348e+003;3.5488461914e+003;3.5916667480e+003;3.6087180176e+003;3.5929487305e+003;3.6266667480e+003;
3.7500000000e-001;3.5292307129e+003;3.4894870605e+003;3.5469230957e+003;3.5143588867e+003;3.4861538086e+003;3.5465385742e+003;3.5376923828e+003;3.5388461914e+003;3.5316667480e+003;3.4607692871e+003;3.5169230957e+003;3.5284614258e+003;3.5187180176e+003;3.5491025391e+003;
3.8281250000e-001;3.7801281738e+003;3.7416667480e+003;3.7800000000e+003;3.7579487305e+003;3.7391025391e+003;3.7765385742e+003;3.7739743652e+003;3.7734614258e+003;3.7658974609e+003;3.6946154785e+003;3.7415385742e+003;3.7646154785e+003;3.7483332520e+003;3.7853845215e+003;
3.9062500000e-001;3.8896154785e+003;3.8569230957e+003;3.8844870605e+003;3.8674357910e+003;3.8503845215e+003;3.8860256348e+003;3.8834614258e+003;3.8817949219e+003;3.8715385742e+003;3.8064101563e+003;3.8473076172e+003;3.8715385742e+003;3.8558974609e+003;3.8914101563e+003;
3.9843750000e-001;3.9957692871e+003;3.9597436523e+003;3.9928205566e+003;3.9675642090e+003;3.9521794434e+003;4.0035898438e+003;4.0000000000e+003;4.0024357910e+003;3.9874357910e+003;3.9330769043e+003;3.9716667480e+003;3.9761538086e+003;3.9617949219e+003;3.9912819824e+003;
4.0625000000e-001;3.7857692871e+003;3.7350000000e+003;3.7756411133e+003;3.7535898438e+003;3.7423076172e+003;3.8037180176e+003;3.7928205566e+003;3.7907692871e+003;3.7807692871e+003;3.7166667480e+003;3.7560256348e+003;3.7693588867e+003;3.7466667480e+003;3.7852563477e+003;
4.1406250000e-001;3.7562819824e+003;3.7073076172e+003;3.7373076172e+003;3.7269230957e+003;3.7133332520e+003;3.7715385742e+003;3.7600000000e+003;3.7557692871e+003;3.7485898438e+003;3.6844870605e+003;3.7206411133e+003;3.7391025391e+003;3.7182050781e+003;3.7547436523e+003;
4.2187500000e-001;3.7323076172e+003;3.6832050781e+003;3.7074357910e+003;3.7066667480e+003;3.6866667480e+003;3.7428205566e+003;3.7319230957e+003;3.7275642090e+003;3.7228205566e+003;3.6603845215e+003;3.6926923828e+003;3.7158974609e+003;3.6952563477e+003;3.7291025391e+003;
4.2968750000e-001;3.6235898438e+003;3.5584614258e+003;3.5994870605e+003;3.5994870605e+003;3.5587180176e+003;3.6251281738e+003;3.6157692871e+003;3.6083332520e+003;3.6048718262e+003;3.5420512695e+003;3.5776923828e+003;3.6062819824e+003;3.5785898438e+003;3.6157692871e+003;
4.3750000000e-001;3.5351281738e+003;3.4465385742e+003;3.4975642090e+003;3.4975642090e+003;3.4458974609e+003;3.5201281738e+003;3.5028205566e+003;3.4785898438e+003;3.4760256348e+003;3.4073076172e+003;3.4691025391e+003;3.4846154785e+003;3.4612819824e+003;3.5039743652e+003;
4.4531250000e-001;3.5646154785e+003;3.4771794434e+003;3.5202563477e+003;3.5239743652e+003;3.4769230957e+003;3.5402563477e+003;3.5211538086e+003;3.4967949219e+003;3.4962819824e+003;3.4310256348e+003;3.4934614258e+003;3.5070512695e+003;3.4882050781e+003;3.5270512695e+003;
4.5312500000e-001;3.6021794434e+003;3.5158974609e+003;3.5530769043e+003;3.5584614258e+003;3.5162819824e+003;3.5670512695e+003;3.5483332520e+003;3.5265385742e+003;3.5284614258e+003;3.4698718262e+003;3.5283332520e+003;3.5430769043e+003;3.5262819824e+003;3.5612819824e+003;
4.6093750000e-001;3.6457692871e+003;3.5551281738e+003;3.5896154785e+003;3.5935898438e+003;3.5543588867e+003;3.5930769043e+003;3.5757692871e+003;3.5642307129e+003;3.5683332520e+003;3.5234614258e+003;3.5725642090e+003;3.5889743652e+003;3.5707692871e+003;3.6017949219e+003;
4.6875000000e-001;3.6332050781e+003;3.5383332520e+003;3.5732050781e+003;3.5765385742e+003;3.5339743652e+003;3.5766667480e+003;3.5576923828e+003;3.5524357910e+003;3.5558974609e+003;3.5117949219e+003;3.5600000000e+003;3.5750000000e+003;3.5561538086e+003;3.5861538086e+003;
4.7656250000e-001;3.5974357910e+003;3.4974357910e+003;3.5342307129e+003;3.5365385742e+003;3.4878205566e+003;3.5380769043e+003;3.5167949219e+003;3.5171794434e+003;3.5202563477e+003;3.4712819824e+003;3.5197436523e+003;3.5344870605e+003;3.5162819824e+003;3.5456411133e+003;
4.8437500000e-001;3.3152563477e+003;3.1789743652e+003;3.2420512695e+003;3.2443588867e+003;3.1784614258e+003;3.2480769043e+003;3.2291025391e+003;3.2337180176e+003;3.2547436523e+003;3.1716667480e+003;3.2055129395e+003;3.2319230957e+003;3.2125642090e+003;3.2520512695e+003;
4.9218750000e-001;3.2529487305e+003;3.1130769043e+003;3.1721794434e+003;3.1870512695e+003;3.1111538086e+003;3.1907692871e+003;3.1725642090e+003;3.1714101563e+003;3.1916667480e+003;3.1047436523e+003;3.1426923828e+003;3.1653845215e+003;3.1439743652e+003;3.1867949219e+003;
5.0000000000e-001;3.1711538086e+003;3.0135898438e+003;3.0752563477e+003;3.1079487305e+003;3.0171794434e+003;3.1101281738e+003;3.0933332520e+003;3.0800000000e+003;3.0955129395e+003;2.9983332520e+003;3.0411538086e+003;3.0625642090e+003;3.0446154785e+003;3.0875642090e+003;
5.0781250000e-001;3.1246154785e+003;2.9448718262e+003;3.0080769043e+003;3.0356411133e+003;2.9587180176e+003;3.0561538086e+003;3.0400000000e+003;3.0121794434e+003;3.0307692871e+003;2.9266667480e+003;2.9732050781e+003;3.0075642090e+003;2.9735898438e+003;3.0292307129e+003;
5.1562500000e-001;3.1387180176e+003;2.9544870605e+003;3.0144870605e+003;3.0406411133e+003;2.9643588867e+003;3.0670512695e+003;3.0510256348e+003;3.0197436523e+003;3.0382050781e+003;2.9314101563e+003;2.9787180176e+003;3.0134614258e+003;2.9783332520e+003;3.0343588867e+003;
5.2343750000e-001;3.2443588867e+003;3.0385898438e+003;3.1102563477e+003;3.1298718262e+003;3.0547436523e+003;3.1593588867e+003;3.1383332520e+003;3.1085898438e+003;3.1270512695e+003;3.0247436523e+003;3.0617949219e+003;3.0998718262e+003;3.0698718262e+003;3.1100000000e+003;
5.3125000000e-001;3.2698718262e+003;3.0600000000e+003;3.1321794434e+003;3.1555129395e+003;3.0825642090e+003;3.1780769043e+003;3.1556411133e+003;3.1258974609e+003;3.1450000000e+003;3.0492307129e+003;3.0852563477e+003;3.1235898438e+003;3.0924357910e+003;3.1314101563e+003;
5.3906250000e-001;3.3167949219e+003;3.1129487305e+003;3.1703845215e+003;3.2083332520e+003;3.1338461914e+003;3.2115385742e+003;3.1892307129e+003;3.1615385742e+003;3.1767949219e+003;3.0944870605e+003;3.1353845215e+003;3.1662819824e+003;3.1357692871e+003;3.1784614258e+003;
5.4687500000e-001;3.3514101563e+003;3.1511538086e+003;3.2026923828e+003;3.2433332520e+003;3.1647436523e+003;3.2398718262e+003;3.2193588867e+003;3.1933332520e+003;3.2048718262e+003;3.1260256348e+003;3.1696154785e+003;3.1978205566e+003;3.1693588867e+003;3.2123076172e+003;
5.5468750000e-001;3.5523076172e+003;3.3502563477e+003;3.3969230957e+003;3.4205129395e+003;3.3494870605e+003;3.4135898438e+003;3.3975642090e+003;3.3762819824e+003;3.3851281738e+003;3.3160256348e+003;3.3573076172e+003;3.3897436523e+003;3.3696154785e+003;3.3973076172e+003;
5.6250000000e-001;3.6174357910e+003;3.4178205566e+003;3.4588461914e+003;3.4776923828e+003;3.4157692871e+003;3.4685898438e+003;3.4547436523e+003;3.4361538086e+003;3.4465385742e+003;3.3856411133e+003;3.4237180176e+003;3.4557692871e+003;3.4369230957e+003;3.4591025391e+003;
5.7031250000e-001;3.6496154785e+003;3.4546154785e+003;3.4905129395e+003;3.5065385742e+003;3.4508974609e+003;3.4950000000e+003;3.4834614258e+003;3.4680769043e+003;3.4793588867e+003;3.4265385742e+003;3.4617949219e+003;3.4925642090e+003;3.4720512695e+003;3.4929487305e+003;
5.7812500000e-001;3.6465385742e+003;3.4562819824e+003;3.4905129395e+003;3.5046154785e+003;3.4502563477e+003;3.4920512695e+003;3.4820512695e+003;3.4700000000e+003;3.4815385742e+003;3.4325642090e+003;3.4666667480e+003;3.4965385742e+003;3.4724357910e+003;3.4955129395e+003;
5.8593750000e-001;3.5470512695e+003;3.3569230957e+003;3.4012819824e+003;3.4233332520e+003;3.3535898438e+003;3.4051281738e+003;3.3979487305e+003;3.4028205566e+003;3.4132050781e+003;3.3505129395e+003;3.3841025391e+003;3.4138461914e+003;3.3943588867e+003;3.4053845215e+003;
5.9375000000e-001;3.5280769043e+003;3.3334614258e+003;3.3816667480e+003;3.4029487305e+003;3.3330769043e+003;3.3807692871e+003;3.3782050781e+003;3.3851281738e+003;3.3951281738e+003;3.3300000000e+003;3.3597436523e+003;3.3921794434e+003;3.3715385742e+003;3.3826923828e+003;
6.0156250000e-001;3.5023076172e+003;3.3003845215e+003;3.3548718262e+003;3.3605129395e+003;3.3038461914e+003;3.3519230957e+003;3.3521794434e+003;3.3556411133e+003;3.3682050781e+003;3.3008974609e+003;3.3211538086e+003;3.3566667480e+003;3.3301281738e+003;3.3511538086e+003;
6.0937500000e-001;3.4447436523e+003;3.2475642090e+003;3.2975642090e+003;3.3212819824e+003;3.2564101563e+003;3.3308974609e+003;3.3196154785e+003;3.3126923828e+003;3.3212819824e+003;3.2517949219e+003;3.2758974609e+003;3.3042307129e+003;3.2824357910e+003;3.2958974609e+003;
6.1718750000e-001;3.4596154785e+003;3.2632050781e+003;3.3102563477e+003;3.3392307129e+003;3.2742307129e+003;3.3512819824e+003;3.3382050781e+003;3.3252563477e+003;3.3341025391e+003;3.2629487305e+003;3.2867949219e+003;3.3152563477e+003;3.2905129395e+003;3.3070512695e+003;
6.2500000000e-001;3.5620512695e+003;3.3687180176e+003;3.4093588867e+003;3.4305129395e+003;3.3902563477e+003;3.4573076172e+003;3.4429487305e+003;3.4152563477e+003;3.4266667480e+003;3.3528205566e+003;3.3770512695e+003;3.4132050781e+003;3.3750000000e+003;3.4030769043e+003;
6.3281250000e-001;3.5630769043e+003;3.3703845215e+003;3.4107692871e+003;3.4278205566e+003;3.4014101563e+003;3.4579487305e+003;3.4483332520e+003;3.4207692871e+003;3.4255129395e+003;3.3646154785e+003;3.3802563477e+003;3.4216667480e+003;3.3920512695e+003;3.4080769043e+003;
6.4062500000e-001;3.5620512695e+003;3.3732050781e+003;3.4110256348e+003;3.4273076172e+003;3.3962819824e+003;3.4580769043e+003;3.4480769043e+003;3.4216667480e+003;3.4262819824e+003;3.3708974609e+003;3.3828205566e+003;3.4242307129e+003;3.3924357910e+003;3.4091025391e+003;
6.4843750000e-001;3.5574357910e+003;3.3732050781e+003;3.4056411133e+003;3.4246154785e+003;3.3839743652e+003;3.4467949219e+003;3.4382050781e+003;3.4124357910e+003;3.4178205566e+003;3.3697436523e+003;3.3974357910e+003;3.4270512695e+003;3.3880769043e+003;3.4067949219e+003;
6.5625000000e-001;3.5678205566e+003;3.3791025391e+003;3.4129487305e+003;3.4296154785e+003;3.3958974609e+003;3.4482050781e+003;3.4426923828e+003;3.4196154785e+003;3.4230769043e+003;3.3770512695e+003;3.4082050781e+003;3.4335898438e+003;3.4002563477e+003;3.4153845215e+003;
6.6406250000e-001;3.6423076172e+003;3.4482050781e+003;3.4847436523e+003;3.4902563477e+003;3.4673076172e+003;3.5053845215e+003;3.5058974609e+003;3.4858974609e+003;3.4870512695e+003;3.4446154785e+003;3.4742307129e+003;3.5015385742e+003;3.4721794434e+003;3.4882050781e+003;
6.7187500000e-001;3.7256411133e+003;3.5348718262e+003;3.5687180176e+003;3.5703845215e+003;3.5464101563e+003;3.5819230957e+003;3.5851281738e+003;3.5638461914e+003;3.5669230957e+003;3.5267949219e+003;3.5557692871e+003;3.5852563477e+003;3.5541025391e+003;3.5716667480e+003;
6.7968750000e-001;3.8426923828e+003;3.6588461914e+003;3.6866667480e+003;3.6871794434e+003;3.6615385742e+003;3.6924357910e+003;3.6980769043e+003;3.6774357910e+003;3.6838461914e+003;3.6483332520e+003;3.6756411133e+003;3.7046154785e+003;3.6742307129e+003;3.6884614258e+003;
6.8750000000e-001;3.9711538086e+003;3.7957692871e+003;3.8167949219e+003;3.8169230957e+003;3.7925642090e+003;3.8147436523e+003;3.8224357910e+003;3.8075642090e+003;3.8166667480e+003;3.7884614258e+003;3.8108974609e+003;3.8366667480e+003;3.8114101563e+003;3.8173076172e+003;
6.9531250000e-001;4.1187177734e+003;3.9726923828e+003;3.9873076172e+003;3.9706411133e+003;3.9711538086e+003;3.9651281738e+003;3.9708974609e+003;3.9862819824e+003;3.9896154785e+003;3.9887180176e+003;3.9879487305e+003;4.0069230957e+003;3.9820512695e+003;3.9861538086e+003;
7.0312500000e-001;4.0929487305e+003;3.9516667480e+003;3.9657692871e+003;3.9496154785e+003;3.9503845215e+003;3.9460256348e+003;3.9494870605e+003;3.9652563477e+003;3.9692307129e+003;3.9669230957e+003;3.9669230957e+003;3.9847436523e+003;3.9562819824e+003;3.9647436523e+003;
7.1093750000e-001;3.9978205566e+003;3.8650000000e+003;3.8828205566e+003;3.8730769043e+003;3.8652563477e+003;3.8870512695e+003;3.8858974609e+003;3.8852563477e+003;3.9003845215e+003;3.8847436523e+003;3.8794870605e+003;3.8982050781e+003;3.8743588867e+003;3.8735898438e+003;
7.1875000000e-001;3.9323076172e+003;3.8070512695e+003;3.8257692871e+003;3.8270512695e+003;3.8233332520e+003;3.8539743652e+003;3.8462819824e+003;3.8158974609e+003;3.8373076172e+003;3.8115385742e+003;3.8167949219e+003;3.8419230957e+003;3.8110256348e+003;3.8211538086e+003;
7.2656250000e-001;3.9008974609e+003;3.7742307129e+003;3.7958974609e+003;3.8015385742e+003;3.7930769043e+003;3.8291025391e+003;3.8196154785e+003;3.7885898438e+003;3.8055129395e+003;3.7791025391e+003;3.7856411133e+003;3.8155129395e+003;3.7846154785e+003;3.7941025391e+003;
7.3437500000e-001;3.8628205566e+003;3.7374357910e+003;3.7585898438e+003;3.7593588867e+003;3.7557692871e+003;3.7997436523e+003;3.7880769043e+003;3.7600000000e+003;3.7674357910e+003;3.7505129395e+003;3.7546154785e+003;3.7778205566e+003;3.7566667480e+003;3.7597436523e+003;
7.4218750000e-001;3.8592307129e+003;3.7369230957e+003;3.7538461914e+003;3.7488461914e+003;3.7541025391e+003;3.7947436523e+003;3.7846154785e+003;3.7587180176e+003;3.7644870605e+003;3.7529487305e+003;3.7555129395e+003;3.7720512695e+003;3.7530769043e+003;3.7558974609e+003;
7.5000000000e-001;3.8767949219e+003;3.7576923828e+003;3.7707692871e+003;3.7592307129e+003;3.7662819824e+003;3.7935898438e+003;3.7952563477e+003;3.7683332520e+003;3.7756411133e+003;3.7594870605e+003;3.7684614258e+003;3.7885898438e+003;3.7620512695e+003;3.7702563477e+003;
7.5781250000e-001;4.0164101563e+003;3.8960256348e+003;3.9179487305e+003;3.9005129395e+003;3.8891025391e+003;3.9201281738e+003;3.9208974609e+003;3.9123076172e+003;3.8984614258e+003;3.9024357910e+003;3.9073076172e+003;3.9285898438e+003;3.9120512695e+003;3.9093588867e+003;
7.6562500000e-001;4.0434614258e+003;3.9237180176e+003;3.9494870605e+003;3.9265385742e+003;3.9171794434e+003;3.9441025391e+003;3.9447436523e+003;3.9442307129e+003;3.9243588867e+003;3.9378205566e+003;3.9370512695e+003;3.9591025391e+003;3.9407692871e+003;3.9391025391e+003;
7.7343750000e-001;4.0389743652e+003;3.9207692871e+003;3.9485898438e+003;3.9196154785e+003;3.9173076172e+003;3.9365385742e+003;3.9384614258e+003;3.9446154785e+003;3.9241025391e+003;3.9398718262e+003;3.9364101563e+003;3.9584614258e+003;3.9365385742e+003;3.9376923828e+003;
7.8125000000e-001;3.9423076172e+003;3.8311538086e+003;3.8535898438e+003;3.8188461914e+003;3.8307692871e+003;3.8401281738e+003;3.8433332520e+003;3.8562819824e+003;3.8457692871e+003;3.8492307129e+003;3.8507692871e+003;3.8670512695e+003;3.8435898438e+003;3.8483332520e+003;
7.8906250000e-001;3.8857692871e+003;3.7765385742e+003;3.7951281738e+003;3.7628205566e+003;3.7747436523e+003;3.7858974609e+003;3.7879487305e+003;3.8002563477e+003;3.7944870605e+003;3.7916667480e+003;3.7970512695e+003;3.8106411133e+003;3.7907692871e+003;3.7953845215e+003;
7.9687500000e-001;3.8671794434e+003;3.7539743652e+003;3.7726923828e+003;3.7520512695e+003;3.7483332520e+003;3.7628205566e+003;3.7653845215e+003;3.7733332520e+003;3.7712819824e+003;3.7685898438e+003;3.7726923828e+003;3.7878205566e+003;3.7765385742e+003;3.7771794434e+003;
8.0468750000e-001;3.8966667480e+003;3.7817949219e+003;3.8028205566e+003;3.7876923828e+003;3.7734614258e+003;3.7865385742e+003;3.7910256348e+003;3.7992307129e+003;3.7996154785e+003;3.8006411133e+003;3.7989743652e+003;3.8160256348e+003;3.8055129395e+003;3.8037180176e+003;
8.1250000000e-001;3.8192307129e+003;3.7135898438e+003;3.7355129395e+003;3.7224357910e+003;3.7008974609e+003;3.7126923828e+003;3.7133332520e+003;3.7279487305e+003;3.7428205566e+003;3.7400000000e+003;3.7265385742e+003;3.7487180176e+003;3.7282050781e+003;3.7289743652e+003;
8.2031250000e-001;3.7423076172e+003;3.6355129395e+003;3.6579487305e+003;3.6444870605e+003;3.6275642090e+003;3.6419230957e+003;3.6389743652e+003;3.6506411133e+003;3.6689743652e+003;3.6592307129e+003;3.6473076172e+003;3.6721794434e+003;3.6501281738e+003;3.6538461914e+003;
8.2812500000e-001;3.6838461914e+003;3.5715385742e+003;3.5948718262e+003;3.5844870605e+003;3.5693588867e+003;3.5898718262e+003;3.5837180176e+003;3.5887180176e+003;3.6093588867e+003;3.5926923828e+003;3.5839743652e+003;3.6100000000e+003;3.5876923828e+003;3.5946154785e+003;
8.3593750000e-001;3.6516667480e+003;3.5365385742e+003;3.5443588867e+003;3.5600000000e+003;3.5373076172e+003;3.5856411133e+003;3.5762819824e+003;3.5493588867e+003;3.5703845215e+003;3.5514101563e+003;3.5496154785e+003;3.5635898438e+003;3.5482050781e+003;3.5524357910e+003;
8.4375000000e-001;3.6337180176e+003;3.5202563477e+003;3.5253845215e+003;3.5411538086e+003;3.5270512695e+003;3.5673076172e+003;3.5582050781e+003;3.5320512695e+003;3.5503845215e+003;3.5308974609e+003;3.5255129395e+003;3.5433332520e+003;3.5316667480e+003;3.5311538086e+003;
8.5156250000e-001;3.6747436523e+003;3.5387180176e+003;3.5646154785e+003;3.5603845215e+003;3.5579487305e+003;3.5979487305e+003;3.5937180176e+003;3.5583332520e+003;3.5639743652e+003;3.5410256348e+003;3.5432050781e+003;3.5679487305e+003;3.5484614258e+003;3.5579487305e+003;
8.5937500000e-001;3.8855129395e+003;3.7555129395e+003;3.7770512695e+003;3.7751281738e+003;3.7679487305e+003;3.8026923828e+003;3.7998718262e+003;3.7761538086e+003;3.7689743652e+003;3.7647436523e+003;3.7606411133e+003;3.7807692871e+003;3.7621794434e+003;3.7682050781e+003;
8.6718750000e-001;3.9170512695e+003;3.7964101563e+003;3.8100000000e+003;3.8126923828e+003;3.8061538086e+003;3.8330769043e+003;3.8319230957e+003;3.8120512695e+003;3.8065385742e+003;3.8035898438e+003;3.7985898438e+003;3.8162819824e+003;3.8012819824e+003;3.8024357910e+003;
8.7500000000e-001;3.9829487305e+003;3.8762819824e+003;3.8808974609e+003;3.8730769043e+003;3.8760256348e+003;3.8864101563e+003;3.8884614258e+003;3.8793588867e+003;3.8775642090e+003;3.8802563477e+003;3.8808974609e+003;3.8862819824e+003;3.8807692871e+003;3.8774357910e+003;
8.8281250000e-001;3.9541025391e+003;3.8469230957e+003;3.8602563477e+003;3.8402563477e+003;3.8371794434e+003;3.8588461914e+003;3.8550000000e+003;3.8603845215e+003;3.8557692871e+003;3.8675642090e+003;3.8571794434e+003;3.8785898438e+003;3.8614101563e+003;3.8598718262e+003;
8.9062500000e-001;3.9516667480e+003;3.8485898438e+003;3.8562819824e+003;3.8375642090e+003;3.8358974609e+003;3.8546154785e+003;3.8503845215e+003;3.8551281738e+003;3.8562819824e+003;3.8639743652e+003;3.8523076172e+003;3.8769230957e+003;3.8592307129e+003;3.8596154785e+003;
8.9843750000e-001;3.9705129395e+003;3.8728205566e+003;3.8726923828e+003;3.8547436523e+003;3.8603845215e+003;3.8687180176e+003;3.8648718262e+003;3.8703845215e+003;3.8791025391e+003;3.8819230957e+003;3.8708974609e+003;3.8928205566e+003;3.8784614258e+003;3.8800000000e+003;
9.0625000000e-001;4.0683332520e+003;3.9762819824e+003;3.9697436523e+003;3.9505129395e+003;3.9707692871e+003;3.9541025391e+003;3.9514101563e+003;3.9621794434e+003;3.9816667480e+003;3.9802563477e+003;3.9743588867e+003;3.9825642090e+003;3.9758974609e+003;3.9761538086e+003;
9.1406250000e-001;4.4921796875e+003;4.4205126953e+003;4.4003847656e+003;4.3792309570e+003;4.3982050781e+003;4.3626923828e+003;4.3666665039e+003;4.3765385742e+003;4.3980771484e+003;4.4161538086e+003;4.4089741211e+003;4.3985898438e+003;4.4048715820e+003;4.3929487305e+003;
9.2187500000e-001;4.6662822266e+003;4.6110258789e+003;4.5796152344e+003;4.5544873047e+003;4.5797436523e+003;4.5374360352e+003;4.5429487305e+003;4.5552563477e+003;4.5758974609e+003;4.6052563477e+003;4.5897436523e+003;4.5779487305e+003;4.5888461914e+003;4.5710258789e+003;
9.2968750000e-001;4.8025639648e+003;4.7638461914e+003;4.7234614258e+003;4.6910258789e+003;4.7300000000e+003;4.6806411133e+003;4.6856411133e+003;4.7005126953e+003;4.7197436523e+003;4.7589741211e+003;4.7341025391e+003;4.7246152344e+003;4.7357690430e+003;4.7143588867e+003;
9.3750000000e-001;4.9398715820e+003;4.9265385742e+003;4.8815385742e+003;4.8292309570e+003;4.9080771484e+003;4.8478203125e+003;4.8500000000e+003;4.8625639648e+003;4.8782050781e+003;4.9288461914e+003;4.8932050781e+003;4.8882050781e+003;4.8915385742e+003;4.8703847656e+003;
9.4531250000e-001;4.9570512695e+003;4.9521796875e+003;4.9111538086e+003;4.8511538086e+003;4.9430771484e+003;4.8837177734e+003;4.8853847656e+003;4.8942309570e+003;4.9083334961e+003;4.9612822266e+003;4.9246152344e+003;4.9178203125e+003;4.9180771484e+003;4.8978203125e+003;
9.5312500000e-001;4.9425639648e+003;4.9447436523e+003;4.9103847656e+003;4.8475639648e+003;4.9405126953e+003;4.8897436523e+003;4.8903847656e+003;4.8953847656e+003;4.9076923828e+003;4.9616665039e+003;4.9251284180e+003;4.9150000000e+003;4.9142309570e+003;4.8942309570e+003;
9.6093750000e-001;4.9841025391e+003;5.0316665039e+003;4.9871796875e+003;4.9244873047e+003;5.0334614258e+003;4.9914101563e+003;4.9967949219e+003;4.9973076172e+003;4.9944873047e+003;5.0515385742e+003;5.0055126953e+003;4.9921796875e+003;5.0060258789e+003;4.9691025391e+003;
9.6875000000e-001;5.0261538086e+003;5.0830771484e+003;5.0352563477e+003;4.9616665039e+003;5.0876923828e+003;5.0314101563e+003;5.0394873047e+003;5.0491025391e+003;5.0452563477e+003;5.1070512695e+003;5.0579487305e+003;5.0450000000e+003;5.0580771484e+003;5.0212822266e+003;
9.7656250000e-001;4.8247436523e+003;4.8844873047e+003;4.8611538086e+003;4.7730771484e+003;4.8802563477e+003;4.8382050781e+003;4.8412822266e+003;4.8676923828e+003;4.8601284180e+003;4.9216665039e+003;4.8812822266e+003;4.8735898438e+003;4.8744873047e+003;4.8474360352e+003;
9.8437500000e-001;4.6562822266e+003;4.7250000000e+003;4.7035898438e+003;4.6269228516e+003;4.7055126953e+003;4.6793588867e+003;4.6830771484e+003;4.7038461914e+003;4.6906411133e+003;4.7512822266e+003;4.7206411133e+003;4.7207690430e+003;4.7175639648e+003;4.6919228516e+003;
9.9218750000e-001;4.6416665039e+003;4.7156411133e+003;4.6912822266e+003;4.6150000000e+003;4.6960258789e+003;4.6619228516e+003;4.6669228516e+003;4.6884614258e+003;4.6761538086e+003;4.7373076172e+003;4.7087177734e+003;4.7073076172e+003;4.7069228516e+003;4.6812822266e+003;
1.0000000000e+000;4.5288461914e+003;4.5964101563e+003;4.5834614258e+003;4.5039741211e+003;4.5770512695e+003;4.5417949219e+003;4.5447436523e+003;4.5707690430e+003;4.5683334961e+003;4.6150000000e+003;4.5939741211e+003;4.5900000000e+003;4.5861538086e+003;4.5748715820e+003;
1.0078125000e+000;4.4907690430e+003;4.5534614258e+003;4.5464101563e+003;4.4641025391e+003;4.5321796875e+003;4.5043588867e+003;4.5064101563e+003;4.5344873047e+003;4.5334614258e+003;4.5733334961e+003;4.5511538086e+003;4.5533334961e+003;4.5443588867e+003;4.5391025391e+003;
1.0156250000e+000;4.4700000000e+003;4.5355126953e+003;4.5266665039e+003;4.4446152344e+003;4.5114101563e+003;4.4871796875e+003;4.4875639648e+003;4.5207690430e+003;4.5224360352e+003;4.5553847656e+003;4.5256411133e+003;4.5380771484e+003;4.5294873047e+003;4.5212822266e+003;
1.0234375000e+000;4.4664101563e+003;4.5369228516e+003;4.5232050781e+003;4.4461538086e+003;4.5142309570e+003;4.4851284180e+003;4.4851284180e+003;4.5184614258e+003;4.5223076172e+003;4.5556411133e+003;4.5251284180e+003;4.5352563477e+003;4.5298715820e+003;4.5166665039e+003;
1.0312500000e+000;4.4091025391e+003;4.4787177734e+003;4.4600000000e+003;4.3956411133e+003;4.4667949219e+003;4.4343588867e+003;4.4383334961e+003;4.4476923828e+003;4.4596152344e+003;4.4924360352e+003;4.4753847656e+003;4.4642309570e+003;4.4588461914e+003;4.4526923828e+003;
1.0390625000e+000;4.4252563477e+003;4.4938461914e+003;4.4733334961e+003;4.4114101563e+003;4.4848715820e+003;4.4573076172e+003;4.4616665039e+003;4.4626923828e+003;4.4747436523e+003;4.5057690430e+003;4.4874360352e+003;4.4748715820e+003;4.4716665039e+003;4.4678203125e+003;
1.0468750000e+000;4.5103847656e+003;4.5848715820e+003;4.5625639648e+003;4.5055126953e+003;4.5800000000e+003;4.5629487305e+003;4.5641025391e+003;4.5600000000e+003;4.5641025391e+003;4.5958974609e+003;4.5653847656e+003;4.5629487305e+003;4.5648715820e+003;4.5508974609e+003;
1.0546875000e+000;4.5265385742e+003;4.6048715820e+003;4.5841025391e+003;4.5271796875e+003;4.6000000000e+003;4.5880771484e+003;4.5880771484e+003;4.5837177734e+003;4.5826923828e+003;4.6152563477e+003;4.5824360352e+003;4.5846152344e+003;4.5865385742e+003;4.5664101563e+003;
1.0625000000e+000;4.4312822266e+003;4.5108974609e+003;4.4876923828e+003;4.4274360352e+003;4.5076923828e+003;4.5021796875e+003;4.5074360352e+003;4.4898715820e+003;4.4876923828e+003;4.5115385742e+003;4.4882050781e+003;4.4838461914e+003;4.4892309570e+003;4.4743588867e+003;
1.0703125000e+000;4.4167949219e+003;4.4964101563e+003;4.4689741211e+003;4.4120512695e+003;4.4960258789e+003;4.4878203125e+003;4.4948715820e+003;4.4737177734e+003;4.4714101563e+003;4.4937177734e+003;4.4705126953e+003;4.4678203125e+003;4.4729487305e+003;4.4624360352e+003;
1.0781250000e+000;4.4225639648e+003;4.5034614258e+003;4.4733334961e+003;4.4207690430e+003;4.5046152344e+003;4.4938461914e+003;4.5006411133e+003;4.4802563477e+003;4.4748715820e+003;4.4994873047e+003;4.4751284180e+003;4.4775639648e+003;4.4794873047e+003;4.4710258789e+003;
1.0859375000e+000;4.3600000000e+003;4.4307690430e+003;4.4170512695e+003;4.3494873047e+003;4.4361538086e+003;4.4235898438e+003;4.4251284180e+003;4.4229487305e+003;4.4079487305e+003;4.4424360352e+003;4.4310258789e+003;4.4255126953e+003;4.4235898438e+003;4.4100000000e+003;
1.0937500000e+000;4.3296152344e+003;4.3925639648e+003;4.3853847656e+003;4.3193588867e+003;4.4020512695e+003;4.3867949219e+003;4.3908974609e+003;4.3880771484e+003;4.3761538086e+003;4.4052563477e+003;4.3965385742e+003;4.3938461914e+003;4.3914101563e+003;4.3796152344e+003;
1.1015625000e+000;4.2393588867e+003;4.3046152344e+003;4.2956411133e+003;4.2452563477e+003;4.2910258789e+003;4.2866665039e+003;4.2876923828e+003;4.3007690430e+003;4.2934614258e+003;4.3120512695e+003;4.2987177734e+003;4.3101284180e+003;4.2960258789e+003;4.2947436523e+003;
1.1093750000e+000;4.2214101563e+003;4.2898715820e+003;4.2771796875e+003;4.2300000000e+003;4.2682050781e+003;4.2666665039e+003;4.2673076172e+003;4.2838461914e+003;4.2783334961e+003;4.2938461914e+003;4.2793588867e+003;4.2926923828e+003;4.2766665039e+003;4.2769228516e+003;
1.1171875000e+000;4.2817949219e+003;4.3448715820e+003;4.3314101563e+003;4.2892309570e+003;4.3261538086e+003;4.3125639648e+003;4.3174360352e+003;4.3346152344e+003;4.3338461914e+003;4.3470512695e+003;4.3358974609e+003;4.3426923828e+003;4.3332050781e+003;4.3270512695e+003;
1.1250000000e+000;4.3198715820e+003;4.3774360352e+003;4.3753847656e+003;4.3110258789e+003;4.3642309570e+003;4.3485898438e+003;4.3474360352e+003;4.3691025391e+003;4.3685898438e+003;4.3852563477e+003;4.3762822266e+003;4.3742309570e+003;4.3665385742e+003;4.3638461914e+003;
1.1328125000e+000;4.2830771484e+003;4.3406411133e+003;4.3384614258e+003;4.2766665039e+003;4.3292309570e+003;4.3141025391e+003;4.3137177734e+003;4.3326923828e+003;4.3312822266e+003;4.3467949219e+003;4.3378203125e+003;4.3376923828e+003;4.3275639648e+003;4.3274360352e+003;
1.1406250000e+000;4.2161538086e+003;4.2702563477e+003;4.2673076172e+003;4.2280771484e+003;4.2629487305e+003;4.2569228516e+003;4.2602563477e+003;4.2688461914e+003;4.2666665039e+003;4.2780771484e+003;4.2669228516e+003;4.2717949219e+003;4.2607690430e+003;4.2550000000e+003;
1.1484375000e+000;4.1796152344e+003;4.2315385742e+003;4.2292309570e+003;4.1998715820e+003;4.2243588867e+003;4.2294873047e+003;4.2329487305e+003;4.2350000000e+003;4.2320512695e+003;4.2402563477e+003;4.2280771484e+003;4.2360258789e+003;4.2253847656e+003;4.2162822266e+003;
1.1562500000e+000;4.1233334961e+003;4.1723076172e+003;4.1683334961e+003;4.1335898438e+003;4.1723076172e+003;4.1855126953e+003;4.1873076172e+003;4.1797436523e+003;4.1755126953e+003;4.1765385742e+003;4.1694873047e+003;4.1742309570e+003;4.1667949219e+003;4.1588461914e+003;
1.1640625000e+000;4.1161538086e+003;4.1632050781e+003;4.1606411133e+003;4.1212822266e+003;4.1680771484e+003;4.1766665039e+003;4.1776923828e+003;4.1720512695e+003;4.1682050781e+003;4.1673076172e+003;4.1628203125e+003;4.1651284180e+003;4.1562822266e+003;4.1500000000e+003;
1.1718750000e+000;4.0948718262e+003;4.1383334961e+003;4.1393588867e+003;4.1003847656e+003;4.1456411133e+003;4.1537177734e+003;4.1539741211e+003;4.1488461914e+003;4.1460258789e+003;4.1420512695e+003;4.1391025391e+003;4.1417949219e+003;4.1300000000e+003;4.1248715820e+003;
1.1796875000e+000;4.0625642090e+003;4.1020512695e+003;4.1060258789e+003;4.0734614258e+003;4.1079487305e+003;4.1201284180e+003;4.1201284180e+003;4.1121796875e+003;4.1102563477e+003;4.1030771484e+003;4.1007690430e+003;4.1062822266e+003;4.0926923828e+003;4.0865385742e+003;
1.1875000000e+000;4.0897436523e+003;4.1202563477e+003;4.1183334961e+003;4.1178203125e+003;4.1206411133e+003;4.1319228516e+003;4.1382050781e+003;4.1164101563e+003;4.1067949219e+003;4.1042309570e+003;4.1103847656e+003;4.1230771484e+003;4.1080771484e+003;4.0984614258e+003;
1.1953125000e+000;4.2271796875e+003;4.2534614258e+003;4.2550000000e+003;4.2328203125e+003;4.2537177734e+003;4.2552563477e+003;4.2557690430e+003;4.2453847656e+003;4.2353847656e+003;4.2456411133e+003;4.2496152344e+003;4.2617949219e+003;4.2410258789e+003;4.2347436523e+003;
1.2031250000e+000;4.2352563477e+003;4.2635898438e+003;4.2653847656e+003;4.2355126953e+003;4.2589741211e+003;4.2632050781e+003;4.2597436523e+003;4.2562822266e+003;4.2491025391e+003;4.2610258789e+003;4.2634614258e+003;4.2728203125e+003;4.2573076172e+003;4.2453847656e+003;
1.2109375000e+000;4.0742307129e+003;4.1033334961e+003;4.1084614258e+003;4.0855129395e+003;4.1006411133e+003;4.1011538086e+003;4.1008974609e+003;4.1056411133e+003;4.1111538086e+003;4.1047436523e+003;4.1080771484e+003;4.1162822266e+003;4.1041025391e+003;4.0921794434e+003;
1.2187500000e+000;4.0326923828e+003;4.0591025391e+003;4.0632050781e+003;4.0475642090e+003;4.0587180176e+003;4.0567949219e+003;4.0596154785e+003;4.0617949219e+003;4.0708974609e+003;4.0565385742e+003;4.0602563477e+003;4.0688461914e+003;4.0552563477e+003;4.0467949219e+003;
1.2265625000e+000;4.1829487305e+003;4.2061538086e+003;4.2008974609e+003;4.1953847656e+003;4.1992309570e+003;4.1920512695e+003;4.1939741211e+003;4.1997436523e+003;4.2091025391e+003;4.1980771484e+003;4.1997436523e+003;4.2083334961e+003;4.1984614258e+003;4.1861538086e+003;
1.2343750000e+000;4.2652563477e+003;4.2935898438e+003;4.2838461914e+003;4.2734614258e+003;4.2814101563e+003;4.2714101563e+003;4.2714101563e+003;4.2829487305e+003;4.2902563477e+003;4.2869228516e+003;4.2869228516e+003;4.2929487305e+003;4.2861538086e+003;4.2714101563e+003;
1.2421875000e+000;4.3923076172e+003;4.4338461914e+003;4.4126923828e+003;4.3888461914e+003;4.4158974609e+003;4.3976923828e+003;4.3985898438e+003;4.4105126953e+003;4.4147436523e+003;4.4223076172e+003;4.4233334961e+003;4.4191025391e+003;4.4189741211e+003;4.4039741211e+003;
1.2500000000e+000;4.4873076172e+003;4.5337177734e+003;4.5069228516e+003;4.4783334961e+003;4.5166665039e+003;4.4897436523e+003;4.4957690430e+003;4.4996152344e+003;4.5034614258e+003;4.5137177734e+003;4.5176923828e+003;4.5096152344e+003;4.5114101563e+003;4.4969228516e+003;
1.2578125000e+000;5.0030771484e+003;5.0703847656e+003;5.0288461914e+003;4.9847436523e+003;5.0534614258e+003;4.9965385742e+003;5.0137177734e+003;5.0124360352e+003;5.0165385742e+003;5.0437177734e+003;5.0382050781e+003;5.0266665039e+003;5.0305126953e+003;5.0108974609e+003;
1.2656250000e+000;5.1135898438e+003;5.1948715820e+003;5.1489741211e+003;5.0988461914e+003;5.1748715820e+003;5.1184614258e+003;5.1315385742e+003;5.1378203125e+003;5.1410258789e+003;5.1774360352e+003;5.1600000000e+003;5.1485898438e+003;5.1535898438e+003;5.1308974609e+003;
1.2734375000e+000;5.1285898438e+003;5.2367949219e+003;5.1848715820e+003;5.1301284180e+003;5.2171796875e+003;5.1687177734e+003;5.1711538086e+003;5.1820512695e+003;5.1805126953e+003;5.2314101563e+003;5.1979487305e+003;5.1880771484e+003;5.1946152344e+003;5.1693588867e+003;
1.2812500000e+000;5.0998715820e+003;5.2148715820e+003;5.1634614258e+003;5.1083334961e+003;5.2010258789e+003;5.1505126953e+003;5.1512822266e+003;5.1600000000e+003;5.1557690430e+003;5.2098715820e+003;5.1773076172e+003;5.1660258789e+003;5.1734614258e+003;5.1476923828e+003;
1.2890625000e+000;5.0698715820e+003;5.1869228516e+003;5.1400000000e+003;5.0823076172e+003;5.1801284180e+003;5.1238461914e+003;5.1255126953e+003;5.1337177734e+003;5.1279487305e+003;5.1832050781e+003;5.1553847656e+003;5.1405126953e+003;5.1482050781e+003;5.1223076172e+003;
1.2968750000e+000;5.0650000000e+003;5.1989741211e+003;5.1547436523e+003;5.0821796875e+003;5.1796152344e+003;5.1306411133e+003;5.1350000000e+003;5.1289741211e+003;5.1112822266e+003;5.1682050781e+003;5.1710258789e+003;5.1551284180e+003;5.1623076172e+003;5.1387177734e+003;
1.3046875000e+000;5.2032050781e+003;5.3464101563e+003;5.2921796875e+003;5.2258974609e+003;5.3253847656e+003;5.2652563477e+003;5.2687177734e+003;5.2719228516e+003;5.2498715820e+003;5.3182050781e+003;5.3144873047e+003;5.2979487305e+003;5.3093588867e+003;5.2802563477e+003;
1.3125000000e+000;4.8683334961e+003;5.0143588867e+003;4.9800000000e+003;4.9142309570e+003;4.9955126953e+003;4.9480771484e+003;4.9392309570e+003;4.9829487305e+003;4.9642309570e+003;5.0320512695e+003;5.0039741211e+003;4.9971796875e+003;5.0003847656e+003;4.9823076172e+003;
1.3203125000e+000;4.5994873047e+003;4.7362822266e+003;4.7143588867e+003;4.6492309570e+003;4.7192309570e+003;4.6888461914e+003;4.6784614258e+003;4.7179487305e+003;4.7035898438e+003;4.7542309570e+003;4.7301284180e+003;4.7273076172e+003;4.7294873047e+003;4.7183334961e+003;
1.3281250000e+000;4.3570512695e+003;4.4771796875e+003;4.4652563477e+003;4.4082050781e+003;4.4621796875e+003;4.4494873047e+003;4.4441025391e+003;4.4643588867e+003;4.4583334961e+003;4.4780771484e+003;4.4723076172e+003;4.4694873047e+003;4.4723076172e+003;4.4674360352e+003;
1.3359375000e+000;4.2756411133e+003;4.3774360352e+003;4.3710258789e+003;4.3217949219e+003;4.3634614258e+003;4.3462822266e+003;4.3458974609e+003;4.3682050781e+003;4.3764101563e+003;4.3838461914e+003;4.3834614258e+003;4.3816665039e+003;4.3780771484e+003;4.3802563477e+003;
1.3437500000e+000;4.1655126953e+003;4.2603847656e+003;4.2565385742e+003;4.2124360352e+003;4.2479487305e+003;4.2329487305e+003;4.2321796875e+003;4.2526923828e+003;4.2611538086e+003;4.2648715820e+003;4.2646152344e+003;4.2660258789e+003;4.2626923828e+003;4.2684614258e+003;
1.3515625000e+000;4.0811538086e+003;4.1543588867e+003;4.1552563477e+003;4.1332050781e+003;4.1394873047e+003;4.1428203125e+003;4.1450000000e+003;4.1420512695e+003;4.1502563477e+003;4.1408974609e+003;4.1587177734e+003;4.1569228516e+003;4.1544873047e+003;4.1685898438e+003;
1.3593750000e+000;4.1284614258e+003;4.1984614258e+003;4.1989741211e+003;4.1798715820e+003;4.1843588867e+003;4.1900000000e+003;4.1919228516e+003;4.1848715820e+003;4.1944873047e+003;4.1838461914e+003;4.2034614258e+003;4.2010258789e+003;4.2005126953e+003;4.2124360352e+003;
1.3671875000e+000;4.1753847656e+003;4.2387177734e+003;4.2410258789e+003;4.2192309570e+003;4.2301284180e+003;4.2385898438e+003;4.2371796875e+003;4.2274360352e+003;4.2343588867e+003;4.2253847656e+003;4.2350000000e+003;4.2441025391e+003;4.2476923828e+003;4.2528203125e+003;
1.3750000000e+000;4.1870512695e+003;4.2457690430e+003;4.2494873047e+003;4.2258974609e+003;4.2392309570e+003;4.2494873047e+003;4.2469228516e+003;4.2351284180e+003;4.2389741211e+003;4.2324360352e+003;4.2367949219e+003;4.2505126953e+003;4.2548715820e+003;4.2593588867e+003;
1.3828125000e+000;4.2185898438e+003;4.2735898438e+003;4.2766665039e+003;4.2526923828e+003;4.2673076172e+003;4.2784614258e+003;4.2755126953e+003;4.2615385742e+003;4.2634614258e+003;4.2603847656e+003;4.2638461914e+003;4.2750000000e+003;4.2792309570e+003;4.2853847656e+003;
1.3906250000e+000;4.2766665039e+003;4.3298715820e+003;4.3298715820e+003;4.3061538086e+003;4.3230771484e+003;4.3329487305e+003;4.3302563477e+003;4.3146152344e+003;4.3162822266e+003;4.3178203125e+003;4.3242309570e+003;4.3273076172e+003;4.3302563477e+003;4.3392309570e+003;
1.3984375000e+000;4.6187177734e+003;4.6914101563e+003;4.6744873047e+003;4.6367949219e+003;4.6815385742e+003;4.6630771484e+003;4.6635898438e+003;4.6526923828e+003;4.6482050781e+003;4.6714101563e+003;4.6819228516e+003;4.6757690430e+003;4.6808974609e+003;4.6834614258e+003;
1.4062500000e+000;4.6946152344e+003;4.7755126953e+003;4.7538461914e+003;4.7173076172e+003;4.7607690430e+003;4.7393588867e+003;4.7416665039e+003;4.7333334961e+003;4.7260258789e+003;4.7534614258e+003;4.7621796875e+003;4.7552563477e+003;4.7629487305e+003;4.7605126953e+003;
1.4140625000e+000;4.8865385742e+003;4.9793588867e+003;4.9497436523e+003;4.9219228516e+003;4.9643588867e+003;4.9332050781e+003;4.9425639648e+003;4.9397436523e+003;4.9223076172e+003;4.9642309570e+003;4.9648715820e+003;4.9553847656e+003;4.9556411133e+003;4.9508974609e+003;
1.4218750000e+000;4.9512822266e+003;5.0630771484e+003;5.0334614258e+003;4.9806411133e+003;5.0493588867e+003;5.0016665039e+003;5.0066665039e+003;5.0244873047e+003;5.0042309570e+003;5.0564101563e+003;5.0475639648e+003;5.0380771484e+003;5.0417949219e+003;5.0292309570e+003;
1.4296875000e+000;4.9178203125e+003;5.0346152344e+003;5.0061538086e+003;4.9505126953e+003;5.0169228516e+003;4.9706411133e+003;4.9756411133e+003;4.9966665039e+003;4.9797436523e+003;5.0294873047e+003;5.0252563477e+003;5.0101284180e+003;5.0165385742e+003;5.0012822266e+003;
1.4375000000e+000;4.8319228516e+003;4.9537177734e+003;4.9278203125e+003;4.8725639648e+003;4.9311538086e+003;4.8865385742e+003;4.8952563477e+003;4.9193588867e+003;4.9196152344e+003;4.9546152344e+003;4.9535898438e+003;4.9289741211e+003;4.9406411133e+003;4.9200000000e+003;
1.4453125000e+000;4.7102563477e+003;4.8316665039e+003;4.8165385742e+003;4.7593588867e+003;4.8125639648e+003;4.7724360352e+003;4.7755126953e+003;4.8053847656e+003;4.8161538086e+003;4.8361538086e+003;4.8310258789e+003;4.8171796875e+003;4.8196152344e+003;4.8092309570e+003;
1.4531250000e+000;4.6606411133e+003;4.7802563477e+003;4.7660258789e+003;4.7112822266e+003;4.7623076172e+003;4.7241025391e+003;4.7270512695e+003;4.7544873047e+003;4.7656411133e+003;4.7841025391e+003;4.7810258789e+003;4.7669228516e+003;4.7670512695e+003;4.7619228516e+003;
1.4609375000e+000;4.6198715820e+003;4.7373076172e+003;4.7215385742e+003;4.6693588867e+003;4.7192309570e+003;4.6842309570e+003;4.6887177734e+003;4.7124360352e+003;4.7220512695e+003;4.7416665039e+003;4.7375639648e+003;4.7226923828e+003;4.7232050781e+003;4.7198715820e+003;
1.4687500000e+000;4.5547436523e+003;4.6665385742e+003;4.6491025391e+003;4.6035898438e+003;4.6466665039e+003;4.6280771484e+003;4.6338461914e+003;4.6497436523e+003;4.6539741211e+003;4.6734614258e+003;4.6643588867e+003;4.6515385742e+003;4.6551284180e+003;4.6467949219e+003;
1.4765625000e+000;4.5303847656e+003;4.6393588867e+003;4.6226923828e+003;4.5828203125e+003;4.6215385742e+003;4.6101284180e+003;4.6150000000e+003;4.6276923828e+003;4.6296152344e+003;4.6447436523e+003;4.6374360352e+003;4.6248715820e+003;4.6302563477e+003;4.6193588867e+003;
1.4843750000e+000;4.5187177734e+003;4.6253847656e+003;4.6087177734e+003;4.5756411133e+003;4.6132050781e+003;4.6025639648e+003;4.6070512695e+003;4.6175639648e+003;4.6174360352e+003;4.6270512695e+003;4.6237177734e+003;4.6093588867e+003;4.6175639648e+003;4.6050000000e+003;
1.4921875000e+000;4.4430771484e+003;4.5385898438e+003;4.5257690430e+003;4.4897436523e+003;4.5308974609e+003;4.5305126953e+003;4.5403847656e+003;4.5380771484e+003;4.5216665039e+003;4.5289741211e+003;4.5351284180e+003;4.5269228516e+003;4.5280771484e+003;4.5224360352e+003;
1.5000000000e+000;4.4261538086e+003;4.5133334961e+003;4.5048715820e+003;4.4724360352e+003;4.5053847656e+003;4.5121796875e+003;4.5184614258e+003;4.5142309570e+003;4.4964101563e+003;4.5032050781e+003;4.5153847656e+003;4.5058974609e+003;4.5089741211e+003;4.5038461914e+003;
1.5078125000e+000;4.4025639648e+003;4.4678203125e+003;4.4742309570e+003;4.4450000000e+003;4.4689741211e+003;4.4694873047e+003;4.4743588867e+003;4.4682050781e+003;4.4465385742e+003;4.4519228516e+003;4.4682050781e+003;4.4697436523e+003;4.4710258789e+003;4.4753847656e+003;
1.5156250000e+000;4.3937177734e+003;4.4539741211e+003;4.4648715820e+003;4.4324360352e+003;4.4556411133e+003;4.4532050781e+003;4.4607690430e+003;4.4507690430e+003;4.4292309570e+003;4.4358974609e+003;4.4542309570e+003;4.4584614258e+003;4.4555126953e+003;4.4630771484e+003;
1.5234375000e+000;4.3907690430e+003;4.4482050781e+003;4.4596152344e+003;4.4294873047e+003;4.4450000000e+003;4.4416665039e+003;4.4494873047e+003;4.4389741211e+003;4.4201284180e+003;4.4311538086e+003;4.4562822266e+003;4.4541025391e+003;4.4488461914e+003;4.4547436523e+003;
1.5312500000e+000;4.3565385742e+003;4.4164101563e+003;4.4171796875e+003;4.3785898438e+003;4.3943588867e+003;4.4006411133e+003;4.4046152344e+003;4.4057690430e+003;4.3960258789e+003;4.4002563477e+003;4.4167949219e+003;4.4108974609e+003;4.4143588867e+003;4.4141025391e+003;
1.5390625000e+000;4.3516665039e+003;4.4067949219e+003;4.4097436523e+003;4.3687177734e+003;4.3916665039e+003;4.3902563477e+003;4.3947436523e+003;4.3979487305e+003;4.3950000000e+003;4.3935898438e+003;4.4078203125e+003;4.4028203125e+003;4.4039741211e+003;4.4060258789e+003;
1.5468750000e+000;4.3506411133e+003;4.3985898438e+003;4.4066665039e+003;4.3741025391e+003;4.4001284180e+003;4.3823076172e+003;4.3862822266e+003;4.3974360352e+003;4.4062822266e+003;4.3971796875e+003;4.4024360352e+003;4.4052563477e+003;4.3965385742e+003;4.4046152344e+003;
1.5546875000e+000;4.3462822266e+003;4.3950000000e+003;4.4012822266e+003;4.3743588867e+003;4.3971796875e+003;4.3787177734e+003;4.3833334961e+003;4.3985898438e+003;4.4088461914e+003;4.3985898438e+003;4.3983334961e+003;4.4038461914e+003;4.3934614258e+003;4.4008974609e+003;
1.5625000000e+000;4.2456411133e+003;4.2917949219e+003;4.2969228516e+003;4.2650000000e+003;4.2828203125e+003;4.2883334961e+003;4.2973076172e+003;4.3171796875e+003;4.3253847656e+003;4.3083334961e+003;4.3108974609e+003;4.2989741211e+003;4.2974360352e+003;4.2969228516e+003;
1.5703125000e+000;4.1991025391e+003;4.2371796875e+003;4.2500000000e+003;4.2146152344e+003;4.2306411133e+003;4.2408974609e+003;4.2501284180e+003;4.2694873047e+003;4.2791025391e+003;4.2569228516e+003;4.2646152344e+003;4.2483334961e+003;4.2458974609e+003;4.2485898438e+003;
1.5781250000e+000;4.1661538086e+003;4.1920512695e+003;4.2116665039e+003;4.1819228516e+003;4.1911538086e+003;4.2029487305e+003;4.2101284180e+003;4.2298715820e+003;4.2385898438e+003;4.2116665039e+003;4.2188461914e+003;4.2070512695e+003;4.2032050781e+003;4.2132050781e+003;
1.5859375000e+000;4.1629487305e+003;4.1876923828e+003;4.2041025391e+003;4.1806411133e+003;4.1869228516e+003;4.2010258789e+003;4.2069228516e+003;4.2266665039e+003;4.2306411133e+003;4.2056411133e+003;4.2076923828e+003;4.2007690430e+003;4.2000000000e+003;4.2092309570e+003;
1.5937500000e+000;4.0919230957e+003;4.1108974609e+003;4.1233334961e+003;4.1097436523e+003;4.1129487305e+003;4.1385898438e+003;4.1485898438e+003;4.1439741211e+003;4.1360258789e+003;4.1125639648e+003;4.1151284180e+003;4.1134614258e+003;4.1225639648e+003;4.1293588867e+003;
1.6015625000e+000;4.1032050781e+003;4.1196152344e+003;4.1311538086e+003;4.1166665039e+003;4.1239741211e+003;4.1478203125e+003;4.1594873047e+003;4.1442309570e+003;4.1378203125e+003;4.1133334961e+003;4.1220512695e+003;4.1158974609e+003;4.1270512695e+003;4.1348715820e+003;
1.6093750000e+000;4.1378203125e+003;4.1520512695e+003;4.1632050781e+003;4.1457690430e+003;4.1576923828e+003;4.1797436523e+003;4.1902563477e+003;4.1700000000e+003;4.1650000000e+003;4.1426923828e+003;4.1566665039e+003;4.1452563477e+003;4.1571796875e+003;4.1650000000e+003;
1.6171875000e+000;4.1685898438e+003;4.1798715820e+003;4.1930771484e+003;4.1716665039e+003;4.1857690430e+003;4.2091025391e+003;4.2151284180e+003;4.1952563477e+003;4.1893588867e+003;4.1726923828e+003;4.1896152344e+003;4.1761538086e+003;4.1867949219e+003;4.1937177734e+003;
1.6250000000e+000;4.3593588867e+003;4.3667949219e+003;4.3747436523e+003;4.3538461914e+003;4.3653847656e+003;4.3747436523e+003;4.3792309570e+003;4.3550000000e+003;4.3367949219e+003;4.3469228516e+003;4.3644873047e+003;4.3614101563e+003;4.3633334961e+003;4.3737177734e+003;
1.6328125000e+000;4.5142309570e+003;4.5396152344e+003;4.5348715820e+003;4.5085898438e+003;4.5338461914e+003;4.5187177734e+003;4.5229487305e+003;4.5185898438e+003;4.5094873047e+003;4.5293588867e+003;4.5364101563e+003;4.5321796875e+003;4.5339741211e+003;4.5401284180e+003;
1.6406250000e+000;4.3887177734e+003;4.4125639648e+003;4.4153847656e+003;4.3915385742e+003;4.4052563477e+003;4.3991025391e+003;4.4002563477e+003;4.3998715820e+003;4.3943588867e+003;4.4098715820e+003;4.4132050781e+003;4.4107690430e+003;4.4144873047e+003;4.4180771484e+003;
1.6484375000e+000;4.2065385742e+003;4.2243588867e+003;4.2330771484e+003;4.2189741211e+003;4.2098715820e+003;4.2197436523e+003;4.2191025391e+003;4.2250000000e+003;4.2226923828e+003;4.2266665039e+003;4.2346152344e+003;4.2332050781e+003;4.2341025391e+003;4.2379487305e+003;
1.6562500000e+000;4.1998715820e+003;4.2130771484e+003;4.2200000000e+003;4.2096152344e+003;4.1957690430e+003;4.2066665039e+003;4.2071796875e+003;4.2185898438e+003;4.2178203125e+003;4.2176923828e+003;4.2302563477e+003;4.2266665039e+003;4.2261538086e+003;4.2312822266e+003;
1.6640625000e+000;4.2101284180e+003;4.2089741211e+003;4.2224360352e+003;4.2105126953e+003;4.1951284180e+003;4.1944873047e+003;4.2014101563e+003;4.2251284180e+003;4.2384614258e+003;4.2284614258e+003;4.2351284180e+003;4.2325639648e+003;4.2319228516e+003;4.2389741211e+003;
1.6718750000e+000;4.0914101563e+003;4.0997436523e+003;4.1107690430e+003;4.1057690430e+003;4.0828205566e+003;4.0810256348e+003;4.0901281738e+003;4.1055126953e+003;4.1079487305e+003;4.0846154785e+003;4.0900000000e+003;4.0994873047e+003;4.0898718262e+003;4.1047436523e+003;
1.6796875000e+000;4.1028203125e+003;4.1139741211e+003;4.1170512695e+003;4.1226923828e+003;4.0965385742e+003;4.0964101563e+003;4.1057690430e+003;4.1212822266e+003;4.1169228516e+003;4.0941025391e+003;4.0992309570e+003;4.1048715820e+003;4.0997436523e+003;4.1129487305e+003;
1.6875000000e+000;4.0902563477e+003;4.0882050781e+003;4.0960258789e+003;4.1205126953e+003;4.0848718262e+003;4.1021796875e+003;4.1129487305e+003;4.1173076172e+003;4.1092309570e+003;4.0923076172e+003;4.0942307129e+003;4.0876923828e+003;4.0974360352e+003;4.1016665039e+003;
1.6953125000e+000;4.0529487305e+003;4.0453845215e+003;4.0594870605e+003;4.0829487305e+003;4.0475642090e+003;4.0711538086e+003;4.0789743652e+003;4.0750000000e+003;4.0671794434e+003;4.0487180176e+003;4.0547436523e+003;4.0478205566e+003;4.0567949219e+003;4.0620512695e+003;
1.7031250000e+000;4.0626923828e+003;4.0553845215e+003;4.0642307129e+003;4.0932050781e+003;4.0579487305e+003;4.0888461914e+003;4.0879487305e+003;4.0691025391e+003;4.0562819824e+003;4.0348718262e+003;4.0482050781e+003;4.0462819824e+003;4.0491025391e+003;4.0600000000e+003;
1.7109375000e+000;4.1479487305e+003;4.1444873047e+003;4.1437177734e+003;4.1788461914e+003;4.1426923828e+003;4.1730771484e+003;4.1697436523e+003;4.1465385742e+003;4.1305126953e+003;4.1121796875e+003;4.1241025391e+003;4.1257690430e+003;4.1280771484e+003;4.1391025391e+003;
1.7187500000e+000;4.4487177734e+003;4.4569228516e+003;4.4388461914e+003;4.4597436523e+003;4.4515385742e+003;4.4569228516e+003;4.4537177734e+003;4.4408974609e+003;4.4262822266e+003;4.4325639648e+003;4.4357690430e+003;4.4294873047e+003;4.4435898438e+003;4.4437177734e+003;
1.7265625000e+000;4.4428203125e+003;4.4533334961e+003;4.4382050781e+003;4.4480771484e+003;4.4521796875e+003;4.4507690430e+003;4.4467949219e+003;4.4389741211e+003;4.4252563477e+003;4.4353847656e+003;4.4426923828e+003;4.4307690430e+003;4.4437177734e+003;4.4451284180e+003;
1.7343750000e+000;4.4020512695e+003;4.4128203125e+003;4.4034614258e+003;4.4071796875e+003;4.4156411133e+003;4.4124360352e+003;4.4079487305e+003;4.3992309570e+003;4.3853847656e+003;4.3952563477e+003;4.4093588867e+003;4.3951284180e+003;4.4035898438e+003;4.4096152344e+003;
1.7421875000e+000;4.3810258789e+003;4.3911538086e+003;4.3861538086e+003;4.3896152344e+003;4.3947436523e+003;4.3928203125e+003;4.3884614258e+003;4.3742309570e+003;4.3603847656e+003;4.3688461914e+003;4.3870512695e+003;4.3751284180e+003;4.3792309570e+003;4.3898715820e+003;
1.7500000000e+000;4.4638461914e+003;4.4820512695e+003;4.4688461914e+003;4.4683334961e+003;4.4637177734e+003;4.4582050781e+003;4.4519228516e+003;4.4532050781e+003;4.4533334961e+003;4.4675639648e+003;4.4688461914e+003;4.4712822266e+003;4.4834614258e+003;4.4829487305e+003;
1.7578125000e+000;4.1189741211e+003;4.1187177734e+003;4.1373076172e+003;4.1255126953e+003;4.0947436523e+003;4.1001284180e+003;4.0952563477e+003;4.1070512695e+003;4.1188461914e+003;4.1139741211e+003;4.1352563477e+003;4.1401284180e+003;4.1356411133e+003;4.1466665039e+003;
1.7656250000e+000;4.0494870605e+003;4.0443588867e+003;4.0655129395e+003;4.0615385742e+003;4.0233332520e+003;4.0321794434e+003;4.0274357910e+003;4.0403845215e+003;4.0512819824e+003;4.0392307129e+003;4.0596154785e+003;4.0667949219e+003;4.0593588867e+003;4.0726923828e+003;
1.7734375000e+000;3.9037180176e+003;3.8902563477e+003;3.9075642090e+003;3.9247436523e+003;3.8748718262e+003;3.8941025391e+003;3.8929487305e+003;3.9051281738e+003;3.9070512695e+003;3.8791025391e+003;3.9030769043e+003;3.9093588867e+003;3.9011538086e+003;3.9138461914e+003;
1.7812500000e+000;3.9230769043e+003;3.9023076172e+003;3.9158974609e+003;3.9311538086e+003;3.8894870605e+003;3.9055129395e+003;3.9214101563e+003;3.9315385742e+003;3.9230769043e+003;3.8858974609e+003;3.9016667480e+003;3.9056411133e+003;3.9094870605e+003;3.9123076172e+003;
1.7890625000e+000;3.9379487305e+003;3.9139743652e+003;3.9274357910e+003;3.9343588867e+003;3.9035898438e+003;3.9205129395e+003;3.9360256348e+003;3.9450000000e+003;3.9371794434e+003;3.8975642090e+003;3.9084614258e+003;3.9171794434e+003;3.9201281738e+003;3.9246154785e+003;
1.7968750000e+000;3.9700000000e+003;3.9371794434e+003;3.9476923828e+003;3.9497436523e+003;3.9330769043e+003;3.9587180176e+003;3.9711538086e+003;3.9751281738e+003;3.9652563477e+003;3.9211538086e+003;3.9316667480e+003;3.9437180176e+003;3.9417949219e+003;3.9491025391e+003;
1.8046875000e+000;4.0038461914e+003;3.9683332520e+003;3.9771794434e+003;3.9825642090e+003;3.9684614258e+003;3.9956411133e+003;4.0073076172e+003;4.0088461914e+003;3.9964101563e+003;3.9529487305e+003;3.9664101563e+003;3.9767949219e+003;3.9721794434e+003;3.9800000000e+003;
1.8125000000e+000;4.1174360352e+003;4.0864101563e+003;4.0864101563e+003;4.0965385742e+003;4.0952563477e+003;4.1101284180e+003;4.1187177734e+003;4.1174360352e+003;4.1021796875e+003;4.0707692871e+003;4.0841025391e+003;4.0894870605e+003;4.0898718262e+003;4.0943588867e+003;
1.8203125000e+000;4.1224360352e+003;4.0906411133e+003;4.0897436523e+003;4.0960258789e+003;4.0966665039e+003;4.1142309570e+003;4.1197436523e+003;4.1157690430e+003;4.1014101563e+003;4.0735898438e+003;4.0862819824e+003;4.0921794434e+003;4.0961538086e+003;4.0996152344e+003;
1.8281250000e+000;4.1028203125e+003;4.0639743652e+003;4.0682050781e+003;4.0633332520e+003;4.0591025391e+003;4.0903845215e+003;4.0898718262e+003;4.0755129395e+003;4.0616667480e+003;4.0371794434e+003;4.0610256348e+003;4.0689743652e+003;4.0700000000e+003;4.0784614258e+003;
1.8359375000e+000;4.1115385742e+003;4.0720512695e+003;4.0776923828e+003;4.0682050781e+003;4.0638461914e+003;4.0948718262e+003;4.0926923828e+003;4.0748718262e+003;4.0605129395e+003;4.0393588867e+003;4.0689743652e+003;4.0782050781e+003;4.0751281738e+003;4.0866667480e+003;
1.8437500000e+000;4.1605126953e+003;4.1280771484e+003;4.1315385742e+003;4.1176923828e+003;4.1212822266e+003;4.1319228516e+003;4.1265385742e+003;4.1103847656e+003;4.0964101563e+003;4.0967949219e+003;4.1157690430e+003;4.1351284180e+003;4.1320512695e+003;4.1384614258e+003;
1.8515625000e+000;4.1467949219e+003;4.1114101563e+003;4.1166665039e+003;4.1058974609e+003;4.1041025391e+003;4.1164101563e+003;4.1106411133e+003;4.0923076172e+003;4.0789743652e+003;4.0833332520e+003;4.1023076172e+003;4.1225639648e+003;4.1212822266e+003;4.1252563477e+003;
1.8593750000e+000;4.1332050781e+003;4.0925642090e+003;4.1000000000e+003;4.0933332520e+003;4.0833332520e+003;4.1001284180e+003;4.0951281738e+003;4.0743588867e+003;4.0616667480e+003;4.0666667480e+003;4.0908974609e+003;4.1074360352e+003;4.1078203125e+003;4.1102563477e+003;
1.8671875000e+000;4.1328203125e+003;4.0876923828e+003;4.0969228516e+003;4.0926923828e+003;4.0767949219e+003;4.0957692871e+003;4.0923076172e+003;4.0723076172e+003;4.0611538086e+003;4.0642307129e+003;4.0942307129e+003;4.1037177734e+003;4.1058974609e+003;4.1075639648e+003;
1.8750000000e+000;4.0971796875e+003;4.0524357910e+003;4.0706411133e+003;4.0538461914e+003;4.0478205566e+003;4.0500000000e+003;4.0537180176e+003;4.0611538086e+003;4.0573076172e+003;4.0453845215e+003;4.0616667480e+003;4.0675642090e+003;4.0702563477e+003;4.0746154785e+003;
1.8828125000e+000;3.9997436523e+003;3.9496154785e+003;3.9682050781e+003;3.9639743652e+003;3.9430769043e+003;3.9551281738e+003;3.9701281738e+003;3.9780769043e+003;3.9723076172e+003;3.9430769043e+003;3.9632050781e+003;3.9702563477e+003;3.9661538086e+003;3.9719230957e+003;
1.8906250000e+000;4.0171794434e+003;3.9671794434e+003;3.9857692871e+003;3.9794870605e+003;3.9594870605e+003;3.9708974609e+003;3.9879487305e+003;3.9976923828e+003;3.9916667480e+003;3.9580769043e+003;3.9761538086e+003;3.9876923828e+003;3.9815385742e+003;3.9891025391e+003;
1.8984375000e+000;4.1115385742e+003;4.0662819824e+003;4.0794870605e+003;4.0735898438e+003;4.0584614258e+003;4.0632050781e+003;4.0814101563e+003;4.0978203125e+003;4.0885898438e+003;4.0575642090e+003;4.0693588867e+003;4.0811538086e+003;4.0793588867e+003;4.0805129395e+003;
1.9062500000e+000;4.4185898438e+003;4.3889741211e+003;4.3846152344e+003;4.3694873047e+003;4.3897436523e+003;4.3828203125e+003;4.3998715820e+003;4.4023076172e+003;4.3967949219e+003;4.3844873047e+003;4.3848715820e+003;4.3834614258e+003;4.3908974609e+003;4.3771796875e+003;
1.9140625000e+000;4.5216665039e+003;4.4970512695e+003;4.4864101563e+003;4.4661538086e+003;4.4991025391e+003;4.4856411133e+003;4.4993588867e+003;4.5026923828e+003;4.4965385742e+003;4.4924360352e+003;4.4879487305e+003;4.4855126953e+003;4.4987177734e+003;4.4820512695e+003;
1.9218750000e+000;4.7460258789e+003;4.7389741211e+003;4.7152563477e+003;4.6884614258e+003;4.7308974609e+003;4.7120512695e+003;4.7179487305e+003;4.7264101563e+003;4.7117949219e+003;4.7303847656e+003;4.7192309570e+003;4.7194873047e+003;4.7351284180e+003;4.7146152344e+003;
1.9296875000e+000;4.8701284180e+003;4.8738461914e+003;4.8467949219e+003;4.8146152344e+003;4.8605126953e+003;4.8378203125e+003;4.8420512695e+003;4.8506411133e+003;4.8324360352e+003;4.8623076172e+003;4.8505126953e+003;4.8514101563e+003;4.8633334961e+003;4.8417949219e+003;
1.9375000000e+000;5.0352563477e+003;5.0700000000e+003;5.0460258789e+003;4.9867949219e+003;5.0658974609e+003;5.0174360352e+003;5.0187177734e+003;5.0356411133e+003;5.0153847656e+003;5.0635898438e+003;5.0567949219e+003;5.0478203125e+003;5.0515385742e+003;5.0287177734e+003;
1.9453125000e+000;4.9161538086e+003;4.9573076172e+003;4.9366665039e+003;4.8758974609e+003;4.9565385742e+003;4.9111538086e+003;4.9096152344e+003;4.9294873047e+003;4.9073076172e+003;4.9544873047e+003;4.9497436523e+003;4.9415385742e+003;4.9434614258e+003;4.9229487305e+003;
1.9531250000e+000;4.5775639648e+003;4.6223076172e+003;4.6076923828e+003;4.5582050781e+003;4.6175639648e+003;4.5978203125e+003;4.5914101563e+003;4.5991025391e+003;4.5753847656e+003;4.6115385742e+003;4.6137177734e+003;4.6129487305e+003;4.6114101563e+003;4.5991025391e+003;
1.9609375000e+000;4.4994873047e+003;4.5432050781e+003;4.5306411133e+003;4.4851284180e+003;4.5344873047e+003;4.5233334961e+003;4.5169228516e+003;4.5139741211e+003;4.4916665039e+003;4.5230771484e+003;4.5294873047e+003;4.5307690430e+003;4.5283334961e+003;4.5184614258e+003;
1.9687500000e+000;4.6576923828e+003;4.6974360352e+003;4.6892309570e+003;4.6321796875e+003;4.6829487305e+003;4.6565385742e+003;4.6632050781e+003;4.6603847656e+003;4.6461538086e+003;4.6760258789e+003;4.6848715820e+003;4.6814101563e+003;4.6765385742e+003;4.6673076172e+003;
1.9765625000e+000;4.6996152344e+003;4.7389741211e+003;4.7296152344e+003;4.6700000000e+003;4.7244873047e+003;4.6928203125e+003;4.7021796875e+003;4.7100000000e+003;4.6985898438e+003;4.7264101563e+003;4.7317949219e+003;4.7250000000e+003;4.7226923828e+003;4.7121796875e+003;
1.9843750000e+000;4.7135898438e+003;4.7539741211e+003;4.7424360352e+003;4.6838461914e+003;4.7406411133e+003;4.7075639648e+003;4.7166665039e+003;4.7355126953e+003;4.7258974609e+003;4.7498715820e+003;4.7506411133e+003;4.7410258789e+003;4.7442309570e+003;4.7305126953e+003;
1.9921875000e+000;4.7196152344e+003;4.7629487305e+003;4.7501284180e+003;4.6941025391e+003;4.7521796875e+003;4.7187177734e+003;4.7266665039e+003;4.7538461914e+003;4.7438461914e+003;4.7642309570e+003;4.7608974609e+003;4.7500000000e+003;4.7589741211e+003;4.7414101563e+003;
2.0000000000e+000;4.6300000000e+003;4.6907690430e+003;4.6806411133e+003;4.6238461914e+003;4.6796152344e+003;4.6510258789e+003;4.6624360352e+003;4.6984614258e+003;4.6830771484e+003;4.7024360352e+003;4.6937177734e+003;4.6815385742e+003;4.6875639648e+003;4.6720512695e+003;
2.0078125000e+000;4.4932050781e+003;4.5523076172e+003;4.5439741211e+003;4.4891025391e+003;4.5384614258e+003;4.5233334961e+003;4.5317949219e+003;4.5679487305e+003;4.5538461914e+003;4.5678203125e+003;4.5574360352e+003;4.5469228516e+003;4.5501284180e+003;4.5367949219e+003;
2.0156250000e+000;4.0829487305e+003;4.1224360352e+003;4.1326923828e+003;4.0885898438e+003;4.1207690430e+003;4.1302563477e+003;4.1323076172e+003;4.1552563477e+003;4.1471796875e+003;4.1285898438e+003;4.1285898438e+003;4.1328203125e+003;4.1314101563e+003;4.1229487305e+003;
2.0234375000e+000;3.9534614258e+003;3.9751281738e+003;3.9841025391e+003;3.9579487305e+003;3.9751281738e+003;3.9908974609e+003;3.9934614258e+003;3.9983332520e+003;3.9947436523e+003;3.9651281738e+003;3.9835898438e+003;3.9921794434e+003;3.9794870605e+003;3.9825642090e+003;
2.0312500000e+000;3.9251281738e+003;3.9369230957e+003;3.9484614258e+003;3.9251281738e+003;3.9362819824e+003;3.9597436523e+003;3.9596154785e+003;3.9573076172e+003;3.9514101563e+003;3.9246154785e+003;3.9467949219e+003;3.9555129395e+003;3.9420512695e+003;3.9460256348e+003;
2.0390625000e+000;3.9335898438e+003;3.9256411133e+003;3.9447436523e+003;3.9223076172e+003;3.9287180176e+003;3.9576923828e+003;3.9556411133e+003;3.9348718262e+003;3.9174357910e+003;3.9006411133e+003;3.9307692871e+003;3.9430769043e+003;3.9393588867e+003;3.9366667480e+003;
2.0468750000e+000;4.0473076172e+003;4.0335898438e+003;4.0511538086e+003;4.0284614258e+003;4.0347436523e+003;4.0515385742e+003;4.0592307129e+003;4.0311538086e+003;4.0162819824e+003;4.0000000000e+003;4.0320512695e+003;4.0492307129e+003;4.0410256348e+003;4.0479487305e+003;
2.0546875000e+000;4.1032050781e+003;4.0901281738e+003;4.1064101563e+003;4.0812819824e+003;4.0911538086e+003;4.1041025391e+003;4.1119228516e+003;4.0873076172e+003;4.0750000000e+003;4.0632050781e+003;4.0891025391e+003;4.1021796875e+003;4.0976923828e+003;4.1020512695e+003;
2.0625000000e+000;4.1350000000e+003;4.1234614258e+003;4.1383334961e+003;4.1110258789e+003;4.1242309570e+003;4.1360258789e+003;4.1417949219e+003;4.1233334961e+003;4.1138461914e+003;4.1062822266e+003;4.1266665039e+003;4.1341025391e+003;4.1346152344e+003;4.1334614258e+003;
2.0703125000e+000;4.0876923828e+003;4.0728205566e+003;4.0884614258e+003;4.0625642090e+003;4.0700000000e+003;4.0876923828e+003;4.0900000000e+003;4.0843588867e+003;4.0783332520e+003;4.0676923828e+003;4.0893588867e+003;4.0928205566e+003;4.0942307129e+003;4.0874357910e+003;
2.0781250000e+000;4.0879487305e+003;4.0566667480e+003;4.0776923828e+003;4.0591025391e+003;4.0556411133e+003;4.0611538086e+003;4.0748718262e+003;4.0878205566e+003;4.0764101563e+003;4.0552563477e+003;4.0812819824e+003;4.0857692871e+003;4.0767949219e+003;4.0789743652e+003;
2.0859375000e+000;4.1321796875e+003;4.1012822266e+003;4.1210258789e+003;4.1016665039e+003;4.1015385742e+003;4.1021796875e+003;4.1179487305e+003;4.1366665039e+003;4.1234614258e+003;4.1056411133e+003;4.1253847656e+003;4.1297436523e+003;4.1196152344e+003;4.1237177734e+003;
2.0937500000e+000;4.1505126953e+003;4.1223076172e+003;4.1397436523e+003;4.1188461914e+003;4.1219228516e+003;4.1226923828e+003;4.1375639648e+003;4.1600000000e+003;4.1462822266e+003;4.1321796875e+003;4.1443588867e+003;4.1503847656e+003;4.1406411133e+003;4.1448715820e+003;
2.1015625000e+000;4.0838461914e+003;4.0576923828e+003;4.0733332520e+003;4.0537180176e+003;4.0534614258e+003;4.0635898438e+003;4.0756411133e+003;4.0956411133e+003;4.0846154785e+003;4.0687180176e+003;4.0744870605e+003;4.0844870605e+003;4.0820512695e+003;4.0800000000e+003;
2.1093750000e+000;4.0415385742e+003;4.0134614258e+003;4.0312819824e+003;4.0138461914e+003;4.0087180176e+003;4.0229487305e+003;4.0353845215e+003;4.0511538086e+003;4.0410256348e+003;4.0215385742e+003;4.0298718262e+003;4.0396154785e+003;4.0402563477e+003;4.0357692871e+003;
2.1171875000e+000;4.0203845215e+003;3.9896154785e+003;4.0116667480e+003;3.9951281738e+003;3.9857692871e+003;4.0026923828e+003;4.0162819824e+003;4.0280769043e+003;4.0170512695e+003;3.9957692871e+003;4.0080769043e+003;4.0169230957e+003;4.0160256348e+003;4.0135898438e+003;
2.1250000000e+000;3.8976923828e+003;3.8564101563e+003;3.8870512695e+003;3.8752563477e+003;3.8658974609e+003;3.8965385742e+003;3.9023076172e+003;3.9057692871e+003;3.8933332520e+003;3.8669230957e+003;3.8832050781e+003;3.8884614258e+003;3.8826923828e+003;3.8920512695e+003;
2.1328125000e+000;3.8607692871e+003;3.8141025391e+003;3.8451281738e+003;3.8373076172e+003;3.8223076172e+003;3.8629487305e+003;3.8680769043e+003;3.8598718262e+003;3.8493588867e+003;3.8196154785e+003;3.8380769043e+003;3.8448718262e+003;3.8407692871e+003;3.8497436523e+003;
2.1406250000e+000;3.9064101563e+003;3.8520512695e+003;3.8826923828e+003;3.8717949219e+003;3.8608974609e+003;3.8928205566e+003;3.8980769043e+003;3.8783332520e+003;3.8648718262e+003;3.8447436523e+003;3.8683332520e+003;3.8817949219e+003;3.8719230957e+003;3.8869230957e+003;
2.1484375000e+000;4.0032050781e+003;3.9551281738e+003;3.9733332520e+003;3.9578205566e+003;3.9643588867e+003;3.9750000000e+003;3.9823076172e+003;3.9639743652e+003;3.9432050781e+003;3.9383332520e+003;3.9656411133e+003;3.9720512695e+003;3.9753845215e+003;3.9819230957e+003;
2.1562500000e+000;4.0743588867e+003;4.0260256348e+003;4.0410256348e+003;4.0239743652e+003;4.0315385742e+003;4.0424357910e+003;4.0529487305e+003;4.0319230957e+003;4.0114101563e+003;4.0102563477e+003;4.0402563477e+003;4.0397436523e+003;4.0467949219e+003;4.0505129395e+003;
2.1640625000e+000;4.2469228516e+003;4.1920512695e+003;4.2200000000e+003;4.1892309570e+003;4.1943588867e+003;4.1992309570e+003;4.2132050781e+003;4.2065385742e+003;4.1910258789e+003;4.1957690430e+003;4.2138461914e+003;4.2155126953e+003;4.2164101563e+003;4.2176923828e+003;
2.1718750000e+000;4.2989741211e+003;4.2643588867e+003;4.2802563477e+003;4.2488461914e+003;4.2633334961e+003;4.2564101563e+003;4.2707690430e+003;4.2783334961e+003;4.2688461914e+003;4.2696152344e+003;4.2806411133e+003;4.2797436523e+003;4.2873076172e+003;4.2857690430e+003;
2.1796875000e+000;4.2958974609e+003;4.2700000000e+003;4.2783334961e+003;4.2497436523e+003;4.2652563477e+003;4.2598715820e+003;4.2757690430e+003;4.2883334961e+003;4.2788461914e+003;4.2798715820e+003;4.2919228516e+003;4.2848715820e+003;4.2907690430e+003;4.2889741211e+003;
2.1875000000e+000;4.2648715820e+003;4.2429487305e+003;4.2498715820e+003;4.2216665039e+003;4.2355126953e+003;4.2353847656e+003;4.2516665039e+003;4.2683334961e+003;4.2579487305e+003;4.2578203125e+003;4.2714101563e+003;4.2610258789e+003;4.2628203125e+003;4.2616665039e+003;
2.1953125000e+000;4.1835898438e+003;4.1557690430e+003;4.1747436523e+003;4.1397436523e+003;4.1519228516e+003;4.1602563477e+003;4.1733334961e+003;4.1884614258e+003;4.1784614258e+003;4.1689741211e+003;4.1847436523e+003;4.1771796875e+003;4.1794873047e+003;4.1782050781e+003;
2.2031250000e+000;4.1911538086e+003;4.1594873047e+003;4.1829487305e+003;4.1471796875e+003;4.1692309570e+003;4.1601284180e+003;4.1767949219e+003;4.1876923828e+003;4.1814101563e+003;4.1642309570e+003;4.1737177734e+003;4.1737177734e+003;4.1870512695e+003;4.1805126953e+003;
2.2109375000e+000;4.1864101563e+003;4.1594873047e+003;4.1753847656e+003;4.1444873047e+003;4.1655126953e+003;4.1553847656e+003;4.1746152344e+003;4.1857690430e+003;4.1798715820e+003;4.1643588867e+003;4.1694873047e+003;4.1715385742e+003;4.1797436523e+003;4.1756411133e+003;
2.2187500000e+000;4.0942307129e+003;4.0742307129e+003;4.0750000000e+003;4.0511538086e+003;4.0673076172e+003;4.0856411133e+003;4.0970512695e+003;4.0984614258e+003;4.0943588867e+003;4.0776923828e+003;4.0766667480e+003;4.0758974609e+003;4.0764101563e+003;4.0798718262e+003;
2.2265625000e+000;4.0543588867e+003;4.0287180176e+003;4.0365385742e+003;4.0089743652e+003;4.0284614258e+003;4.0526923828e+003;4.0597436523e+003;4.0596154785e+003;4.0564101563e+003;4.0346154785e+003;4.0364101563e+003;4.0341025391e+003;4.0358974609e+003;4.0394870605e+003;
2.2343750000e+000;4.0189743652e+003;3.9865385742e+003;4.0032050781e+003;3.9716667480e+003;3.9962819824e+003;4.0202563477e+003;4.0243588867e+003;4.0256411133e+003;4.0235898438e+003;3.9965385742e+003;4.0021794434e+003;3.9994870605e+003;4.0007692871e+003;4.0042307129e+003;
2.2421875000e+000;3.9911538086e+003;3.9538461914e+003;3.9760256348e+003;3.9433332520e+003;3.9712819824e+003;3.9924357910e+003;3.9950000000e+003;3.9984614258e+003;3.9976923828e+003;3.9682050781e+003;3.9767949219e+003;3.9737180176e+003;3.9730769043e+003;3.9765385742e+003;
2.2500000000e+000;3.9619230957e+003;3.9119230957e+003;3.9350000000e+003;3.9242307129e+003;3.9129487305e+003;3.9506411133e+003;3.9579487305e+003;3.9356411133e+003;3.9357692871e+003;3.9146154785e+003;3.9328205566e+003;3.9303845215e+003;3.9348718262e+003;3.9406411133e+003;
2.2578125000e+000;4.0162819824e+003;3.9625642090e+003;3.9847436523e+003;3.9747436523e+003;3.9612819824e+003;3.9933332520e+003;4.0033332520e+003;3.9755129395e+003;3.9752563477e+003;3.9587180176e+003;3.9776923828e+003;3.9774357910e+003;3.9860256348e+003;3.9907692871e+003;
2.2656250000e+000;4.2191025391e+003;4.1757690430e+003;4.1914101563e+003;4.1593588867e+003;4.1737177734e+003;4.1720512695e+003;4.1833334961e+003;4.1729487305e+003;4.1670512695e+003;4.1710258789e+003;4.1825639648e+003;4.1875639648e+003;4.1882050781e+003;4.1928203125e+003;
2.2734375000e+000;4.1383334961e+003;4.1065385742e+003;4.1258974609e+003;4.0916667480e+003;4.0950000000e+003;4.1021796875e+003;4.1124360352e+003;4.1161538086e+003;4.1142309570e+003;4.1124360352e+003;4.1228203125e+003;4.1193588867e+003;4.1164101563e+003;4.1230771484e+003;
2.2812500000e+000;4.0761538086e+003;4.0457692871e+003;4.0603845215e+003;4.0351281738e+003;4.0308974609e+003;4.0412819824e+003;4.0532050781e+003;4.0566667480e+003;4.0608974609e+003;4.0511538086e+003;4.0603845215e+003;4.0552563477e+003;4.0571794434e+003;4.0611538086e+003;
2.2890625000e+000;4.0824357910e+003;4.0491025391e+003;4.0537180176e+003;4.0382050781e+003;4.0370512695e+003;4.0388461914e+003;4.0516667480e+003;4.0543588867e+003;4.0647436523e+003;4.0391025391e+003;4.0511538086e+003;4.0496154785e+003;4.0535898438e+003;4.0574357910e+003;
2.2968750000e+000;4.2202563477e+003;4.1987177734e+003;4.2014101563e+003;4.1721796875e+003;4.1858974609e+003;4.1741025391e+003;4.1862822266e+003;4.2039741211e+003;4.2111538086e+003;4.1982050781e+003;4.2026923828e+003;4.1955126953e+003;4.1975639648e+003;4.2047436523e+003;
2.3046875000e+000;4.1983334961e+003;4.1776923828e+003;4.1815385742e+003;4.1525639648e+003;4.1641025391e+003;4.1523076172e+003;4.1673076172e+003;4.1846152344e+003;4.1908974609e+003;4.1808974609e+003;4.1832050781e+003;4.1758974609e+003;4.1805126953e+003;4.1851284180e+003;
2.3125000000e+000;4.1734614258e+003;4.1497436523e+003;4.1555126953e+003;4.1275639648e+003;4.1360258789e+003;4.1262822266e+003;4.1444873047e+003;4.1582050781e+003;4.1633334961e+003;4.1539741211e+003;4.1570512695e+003;4.1483334961e+003;4.1579487305e+003;4.1579487305e+003;
2.3203125000e+000;4.1750000000e+003;4.1429487305e+003;4.1523076172e+003;4.1212822266e+003;4.1311538086e+003;4.1298715820e+003;4.1482050781e+003;4.1583334961e+003;4.1614101563e+003;4.1507690430e+003;4.1550000000e+003;4.1434614258e+003;4.1588461914e+003;4.1544873047e+003;
2.3281250000e+000;4.1571796875e+003;4.1351284180e+003;4.1364101563e+003;4.1102563477e+003;4.1275639648e+003;4.1332050781e+003;4.1435898438e+003;4.1507690430e+003;4.1558974609e+003;4.1461538086e+003;4.1424360352e+003;4.1417949219e+003;4.1439741211e+003;4.1516665039e+003;
2.3359375000e+000;4.1644873047e+003;4.1483334961e+003;4.1435898438e+003;4.1233334961e+003;4.1393588867e+003;4.1432050781e+003;4.1528203125e+003;4.1574360352e+003;4.1617949219e+003;4.1535898438e+003;4.1521796875e+003;4.1487177734e+003;4.1530771484e+003;4.1584614258e+003;
2.3437500000e+000;4.1793588867e+003;4.1666665039e+003;4.1589741211e+003;4.1417949219e+003;4.1565385742e+003;4.1596152344e+003;4.1683334961e+003;4.1717949219e+003;4.1739741211e+003;4.1674360352e+003;4.1702563477e+003;4.1607690430e+003;4.1696152344e+003;4.1705126953e+003;
2.3515625000e+000;4.1255126953e+003;4.1079487305e+003;4.1103847656e+003;4.0912819824e+003;4.1015385742e+003;4.1133334961e+003;4.1170512695e+003;4.1191025391e+003;4.1171796875e+003;4.1115385742e+003;4.1205126953e+003;4.1074360352e+003;4.1160258789e+003;4.1173076172e+003;
2.3593750000e+000;4.0435898438e+003;4.0200000000e+003;4.0301281738e+003;4.0108974609e+003;4.0173076172e+003;4.0361538086e+003;4.0369230957e+003;4.0352563477e+003;4.0329487305e+003;4.0255129395e+003;4.0357692871e+003;4.0275642090e+003;4.0320512695e+003;4.0380769043e+003;
2.3671875000e+000;3.9610256348e+003;3.9316667480e+003;3.9458974609e+003;3.9289743652e+003;3.9312819824e+003;3.9551281738e+003;3.9543588867e+003;3.9473076172e+003;3.9446154785e+003;3.9348718262e+003;3.9465385742e+003;3.9439743652e+003;3.9457692871e+003;3.9551281738e+003;
2.3750000000e+000;3.9088461914e+003;3.8755129395e+003;3.8888461914e+003;3.8757692871e+003;3.8751281738e+003;3.9005129395e+003;3.9002563477e+003;3.8876923828e+003;3.8833332520e+003;3.8719230957e+003;3.8855129395e+003;3.8869230957e+003;3.8888461914e+003;3.8982050781e+003;
2.3828125000e+000;3.9251281738e+003;3.8832050781e+003;3.8924357910e+003;3.8906411133e+003;3.8816667480e+003;3.9026923828e+003;3.9084614258e+003;3.8923076172e+003;3.8812819824e+003;3.8711538086e+003;3.8874357910e+003;3.8883332520e+003;3.8917949219e+003;3.8967949219e+003;
2.3906250000e+000;3.8702563477e+003;3.8174357910e+003;3.8305129395e+003;3.8298718262e+003;3.8115385742e+003;3.8332050781e+003;3.8380769043e+003;3.8350000000e+003;3.8374357910e+003;3.8112819824e+003;3.8300000000e+003;3.8346154785e+003;3.8303845215e+003;3.8370512695e+003;
2.3984375000e+000;3.8874357910e+003;3.8373076172e+003;3.8439743652e+003;3.8437180176e+003;3.8261538086e+003;3.8417949219e+003;3.8501281738e+003;3.8494870605e+003;3.8551281738e+003;3.8261538086e+003;3.8420512695e+003;3.8466667480e+003;3.8473076172e+003;3.8521794434e+003;
2.4062500000e+000;3.9211538086e+003;3.8696154785e+003;3.8757692871e+003;3.8802563477e+003;3.8624357910e+003;3.8624357910e+003;3.8771794434e+003;3.8896154785e+003;3.8976923828e+003;3.8673076172e+003;3.8775642090e+003;3.8792307129e+003;3.8858974609e+003;3.8871794434e+003;
2.4140625000e+000;3.8350000000e+003;3.7723076172e+003;3.7824357910e+003;3.8016667480e+003;3.7671794434e+003;3.7726923828e+003;3.7838461914e+003;3.8008974609e+003;3.8105129395e+003;3.7823076172e+003;3.7938461914e+003;3.7892307129e+003;3.7953845215e+003;3.7912819824e+003;
2.4218750000e+000;3.7988461914e+003;3.7400000000e+003;3.7433332520e+003;3.7667949219e+003;3.7283332520e+003;3.7400000000e+003;3.7470512695e+003;3.7611538086e+003;3.7701281738e+003;3.7410256348e+003;3.7510256348e+003;3.7489743652e+003;3.7516667480e+003;3.7508974609e+003;
2.4296875000e+000;3.7393588867e+003;3.6789743652e+003;3.6800000000e+003;3.7076923828e+003;3.6678205566e+003;3.6906411133e+003;3.6948718262e+003;3.6980769043e+003;3.7019230957e+003;3.6665385742e+003;3.6794870605e+003;3.6853845215e+003;3.6819230957e+003;3.6847436523e+003;
2.4375000000e+000;3.7541025391e+003;3.6891025391e+003;3.6923076172e+003;3.7202563477e+003;3.6842307129e+003;3.7097436523e+003;3.7166667480e+003;3.7107692871e+003;3.7129487305e+003;3.6752563477e+003;3.6917949219e+003;3.6976923828e+003;3.6969230957e+003;3.6957692871e+003;
2.4453125000e+000;3.8955129395e+003;3.8308974609e+003;3.8324357910e+003;3.8583332520e+003;3.8358974609e+003;3.8634614258e+003;3.8717949219e+003;3.8452563477e+003;3.8519230957e+003;3.8210256348e+003;3.8355129395e+003;3.8355129395e+003;3.8410256348e+003;3.8308974609e+003;
2.4531250000e+000;3.8960256348e+003;3.8358974609e+003;3.8335898438e+003;3.8587180176e+003;3.8384614258e+003;3.8655129395e+003;3.8706411133e+003;3.8442307129e+003;3.8502563477e+003;3.8216667480e+003;3.8347436523e+003;3.8360256348e+003;3.8387180176e+003;3.8312819824e+003;
2.4609375000e+000;3.8424357910e+003;3.7856411133e+003;3.7765385742e+003;3.8005129395e+003;3.7821794434e+003;3.8092307129e+003;3.8102563477e+003;3.7858974609e+003;3.7856411133e+003;3.7597436523e+003;3.7721794434e+003;3.7776923828e+003;3.7819230957e+003;3.7744870605e+003;
2.4687500000e+000;3.8308974609e+003;3.7702563477e+003;3.7633332520e+003;3.7864101563e+003;3.7666667480e+003;3.7947436523e+003;3.7956411133e+003;3.7693588867e+003;3.7669230957e+003;3.7425642090e+003;3.7552563477e+003;3.7625642090e+003;3.7702563477e+003;3.7598718262e+003;
2.4765625000e+000;3.9452563477e+003;3.8734614258e+003;3.8784614258e+003;3.8996154785e+003;3.8805129395e+003;3.8933332520e+003;3.8970512695e+003;3.8656411133e+003;3.8651281738e+003;3.8471794434e+003;3.8688461914e+003;3.8730769043e+003;3.8788461914e+003;3.8696154785e+003;
2.4843750000e+000;3.9702563477e+003;3.9008974609e+003;3.9043588867e+003;3.9273076172e+003;3.9103845215e+003;3.9150000000e+003;3.9198718262e+003;3.8921794434e+003;3.8917949219e+003;3.8761538086e+003;3.9008974609e+003;3.9025642090e+003;3.9057692871e+003;3.8985898438e+003;
2.4921875000e+000;3.9460256348e+003;3.8789743652e+003;3.8811538086e+003;3.9078205566e+003;3.8875642090e+003;3.8897436523e+003;3.8953845215e+003;3.8728205566e+003;3.8710256348e+003;3.8569230957e+003;3.8826923828e+003;3.8852563477e+003;3.8853845215e+003;3.8802563477e+003;
2.5000000000e+000;4.1020512695e+003;4.0291025391e+003;4.0283332520e+003;4.0553845215e+003;4.0214101563e+003;4.0210256348e+003;4.0317949219e+003;4.0176923828e+003;4.0175642090e+003;4.0050000000e+003;4.0347436523e+003;4.0333332520e+003;4.0423076172e+003;4.0323076172e+003;
2.5078125000e+000;4.2712822266e+003;4.2079487305e+003;4.1996152344e+003;4.2174360352e+003;4.2002563477e+003;4.1835898438e+003;4.2025639648e+003;4.1953847656e+003;4.1975639648e+003;4.1887177734e+003;4.2139741211e+003;4.2075639648e+003;4.2187177734e+003;4.2037177734e+003;
2.5156250000e+000;4.4791025391e+003;4.4460258789e+003;4.4237177734e+003;4.4196152344e+003;4.4261538086e+003;4.3907690430e+003;4.4150000000e+003;4.4358974609e+003;4.4478203125e+003;4.4485898438e+003;4.4475639648e+003;4.4425639648e+003;4.4444873047e+003;4.4275639648e+003;
2.5234375000e+000;4.4043588867e+003;4.3738461914e+003;4.3556411133e+003;4.3482050781e+003;4.3514101563e+003;4.3255126953e+003;4.3416665039e+003;4.3687177734e+003;4.3823076172e+003;4.3834614258e+003;4.3764101563e+003;4.3735898438e+003;4.3723076172e+003;4.3567949219e+003;
2.5312500000e+000;4.1721796875e+003;4.1379487305e+003;4.1334614258e+003;4.1251284180e+003;4.1212822266e+003;4.1171796875e+003;4.1226923828e+003;4.1430771484e+003;4.1523076172e+003;4.1487177734e+003;4.1426923828e+003;4.1455126953e+003;4.1403847656e+003;4.1276923828e+003;
2.5390625000e+000;4.3400000000e+003;4.3039741211e+003;4.2946152344e+003;4.2910258789e+003;4.3141025391e+003;4.2947436523e+003;4.3135898438e+003;4.2941025391e+003;4.3024360352e+003;4.2958974609e+003;4.2989741211e+003;4.2967949219e+003;4.3055126953e+003;4.2853847656e+003;
2.5468750000e+000;4.5133334961e+003;4.4852563477e+003;4.4705126953e+003;4.4579487305e+003;4.4939741211e+003;4.4673076172e+003;4.4857690430e+003;4.4676923828e+003;4.4774360352e+003;4.4774360352e+003;4.4788461914e+003;4.4719228516e+003;4.4833334961e+003;4.4614101563e+003;
2.5546875000e+000;4.6975639648e+003;4.6953847656e+003;4.6706411133e+003;4.6400000000e+003;4.6941025391e+003;4.6628203125e+003;4.6738461914e+003;4.6762822266e+003;4.6841025391e+003;4.7005126953e+003;4.6907690430e+003;4.6783334961e+003;4.6889741211e+003;4.6658974609e+003;
2.5625000000e+000;4.6475639648e+003;4.6558974609e+003;4.6287177734e+003;4.5988461914e+003;4.6514101563e+003;4.6239741211e+003;4.6320512695e+003;4.6415385742e+003;4.6457690430e+003;4.6669228516e+003;4.6532050781e+003;4.6415385742e+003;4.6493588867e+003;4.6271796875e+003;
2.5703125000e+000;4.4762822266e+003;4.4873076172e+003;4.4648715820e+003;4.4508974609e+003;4.4885898438e+003;4.4694873047e+003;4.4794873047e+003;4.4698715820e+003;4.4632050781e+003;4.4825639648e+003;4.4834614258e+003;4.4757690430e+003;4.4855126953e+003;4.4628203125e+003;
2.5781250000e+000;4.5302563477e+003;4.5415385742e+003;4.5207690430e+003;4.5014101563e+003;4.5432050781e+003;4.5203847656e+003;4.5297436523e+003;4.5200000000e+003;4.5103847656e+003;4.5314101563e+003;4.5371796875e+003;4.5288461914e+003;4.5406411133e+003;4.5173076172e+003;
2.5859375000e+000;4.5808974609e+003;4.6007690430e+003;4.5830771484e+003;4.5503847656e+003;4.5964101563e+003;4.5712822266e+003;4.5762822266e+003;4.5803847656e+003;4.5650000000e+003;4.5911538086e+003;4.5992309570e+003;4.5953847656e+003;4.5980771484e+003;4.5808974609e+003;
2.5937500000e+000;4.5135898438e+003;4.5357690430e+003;4.5221796875e+003;4.4898715820e+003;4.5305126953e+003;4.5084614258e+003;4.5126923828e+003;4.5194873047e+003;4.5025639648e+003;4.5287177734e+003;4.5375639648e+003;4.5380771484e+003;4.5333334961e+003;4.5200000000e+003;
2.6015625000e+000;4.3360258789e+003;4.3457690430e+003;4.3483334961e+003;4.3275639648e+003;4.3447436523e+003;4.3250000000e+003;4.3391025391e+003;4.3305126953e+003;4.3169228516e+003;4.3358974609e+003;4.3547436523e+003;4.3521796875e+003;4.3555126953e+003;4.3353847656e+003;
2.6093750000e+000;4.4160258789e+003;4.4256411133e+003;4.4273076172e+003;4.4053847656e+003;4.4206411133e+003;4.3969228516e+003;4.4156411133e+003;4.4048715820e+003;4.3923076172e+003;4.4110258789e+003;4.4325639648e+003;4.4253847656e+003;4.4353847656e+003;4.4124360352e+003;
2.6171875000e+000;4.5651284180e+003;4.5805126953e+003;4.5761538086e+003;4.5521796875e+003;4.5702563477e+003;4.5393588867e+003;4.5617949219e+003;4.5537177734e+003;4.5417949219e+003;4.5623076172e+003;4.5826923828e+003;4.5723076172e+003;4.5850000000e+003;4.5617949219e+003;
2.6250000000e+000;4.7411538086e+003;4.7674360352e+003;4.7528203125e+003;4.7270512695e+003;4.7538461914e+003;4.7112822266e+003;4.7360258789e+003;4.7358974609e+003;4.7244873047e+003;4.7484614258e+003;4.7630771484e+003;4.7514101563e+003;4.7626923828e+003;4.7402563477e+003;
2.6328125000e+000;4.9452563477e+003;5.0180771484e+003;4.9789741211e+003;4.9453847656e+003;5.0057690430e+003;4.9243588867e+003;4.9485898438e+003;4.9779487305e+003;4.9728203125e+003;5.0088461914e+003;4.9984614258e+003;4.9892309570e+003;4.9947436523e+003;4.9661538086e+003;
2.6406250000e+000;4.8776923828e+003;4.9593588867e+003;4.9346152344e+003;4.8925639648e+003;4.9473076172e+003;4.8898715820e+003;4.9044873047e+003;4.9220512695e+003;4.9260258789e+003;4.9676923828e+003;4.9591025391e+003;4.9308974609e+003;4.9425639648e+003;4.9173076172e+003;
2.6484375000e+000;4.8612822266e+003;4.9466665039e+003;4.9237177734e+003;4.8780771484e+003;4.9396152344e+003;4.8860258789e+003;4.8973076172e+003;4.9161538086e+003;4.9217949219e+003;4.9629487305e+003;4.9483334961e+003;4.9237177734e+003;4.9339741211e+003;4.9083334961e+003;
2.6562500000e+000;4.8142309570e+003;4.9119228516e+003;4.8810258789e+003;4.8374360352e+003;4.9033334961e+003;4.8623076172e+003;4.8693588867e+003;4.8880771484e+003;4.8920512695e+003;4.9317949219e+003;4.9085898438e+003;4.8882050781e+003;4.9012822266e+003;4.8741025391e+003;
2.6640625000e+000;4.6985898438e+003;4.7905126953e+003;4.7657690430e+003;4.7276923828e+003;4.7897436523e+003;4.7493588867e+003;4.7629487305e+003;4.7708974609e+003;4.7676923828e+003;4.7906411133e+003;4.7906411133e+003;4.7723076172e+003;4.7714101563e+003;4.7532050781e+003;
2.6718750000e+000;4.7316665039e+003;4.8202563477e+003;4.7996152344e+003;4.7589741211e+003;4.8239741211e+003;4.7775639648e+003;4.7937177734e+003;4.7970512695e+003;4.7903847656e+003;4.8129487305e+003;4.8160258789e+003;4.8011538086e+003;4.8015385742e+003;4.7832050781e+003;
2.6796875000e+000;4.8315385742e+003;4.9252563477e+003;4.9066665039e+003;4.8637177734e+003;4.9244873047e+003;4.8798715820e+003;4.8938461914e+003;4.9050000000e+003;4.8821796875e+003;4.9232050781e+003;4.9143588867e+003;4.9034614258e+003;4.9107690430e+003;4.8893588867e+003;
2.6875000000e+000;4.8103847656e+003;4.9079487305e+003;4.8924360352e+003;4.8483334961e+003;4.9021796875e+003;4.8664101563e+003;4.8769228516e+003;4.8957690430e+003;4.8648715820e+003;4.9144873047e+003;4.9006411133e+003;4.8915385742e+003;4.8962822266e+003;4.8761538086e+003;
2.6953125000e+000;4.5084614258e+003;4.6028203125e+003;4.5992309570e+003;4.5526923828e+003;4.6042309570e+003;4.5801284180e+003;4.5919228516e+003;4.6025639648e+003;4.5729487305e+003;4.6026923828e+003;4.6144873047e+003;4.6041025391e+003;4.5958974609e+003;4.5824360352e+003;
2.7031250000e+000;4.4585898438e+003;4.5496152344e+003;4.5464101563e+003;4.5046152344e+003;4.5562822266e+003;4.5276923828e+003;4.5442309570e+003;4.5458974609e+003;4.5206411133e+003;4.5405126953e+003;4.5602563477e+003;4.5493588867e+003;4.5425639648e+003;4.5300000000e+003;
2.7109375000e+000;4.5212822266e+003;4.6112822266e+003;4.6030771484e+003;4.5739741211e+003;4.6085898438e+003;4.5766665039e+003;4.5996152344e+003;4.5991025391e+003;4.5739741211e+003;4.5943588867e+003;4.6110258789e+003;4.6030771484e+003;4.6007690430e+003;4.5889741211e+003;
2.7187500000e+000;4.5803847656e+003;4.6741025391e+003;4.6612822266e+003;4.6344873047e+003;4.6600000000e+003;4.6292309570e+003;4.6517949219e+003;4.6605126953e+003;4.6330771484e+003;4.6600000000e+003;4.6701284180e+003;4.6620512695e+003;4.6610258789e+003;4.6484614258e+003;
2.7265625000e+000;4.5721796875e+003;4.6662822266e+003;4.6546152344e+003;4.6143588867e+003;4.6476923828e+003;4.6147436523e+003;4.6352563477e+003;4.6675639648e+003;4.6480771484e+003;4.6720512695e+003;4.6707690430e+003;4.6603847656e+003;4.6600000000e+003;4.6474360352e+003;
2.7343750000e+000;4.5287177734e+003;4.6150000000e+003;4.6119228516e+003;4.5689741211e+003;4.6055126953e+003;4.5703847656e+003;4.5919228516e+003;4.6232050781e+003;4.6092309570e+003;4.6265385742e+003;4.6262822266e+003;4.6191025391e+003;4.6157690430e+003;4.6069228516e+003;
2.7421875000e+000;4.4919228516e+003;4.5697436523e+003;4.5744873047e+003;4.5334614258e+003;4.5675639648e+003;4.5324360352e+003;4.5541025391e+003;4.5825639648e+003;4.5724360352e+003;4.5856411133e+003;4.5870512695e+003;4.5832050781e+003;4.5758974609e+003;4.5712822266e+003;
2.7500000000e+000;4.4615385742e+003;4.5337177734e+003;4.5421796875e+003;4.5065385742e+003;4.5342309570e+003;4.5028203125e+003;4.5226923828e+003;4.5479487305e+003;4.5398715820e+003;4.5520512695e+003;4.5550000000e+003;4.5525639648e+003;4.5419228516e+003;4.5398715820e+003;
2.7578125000e+000;4.3484614258e+003;4.4298715820e+003;4.4271796875e+003;4.4010258789e+003;4.4194873047e+003;4.4101284180e+003;4.4216665039e+003;4.4369228516e+003;4.4308974609e+003;4.4378203125e+003;4.4397436523e+003;4.4278203125e+003;4.4320512695e+003;4.4262822266e+003;
2.7656250000e+000;4.3723076172e+003;4.4433334961e+003;4.4402563477e+003;4.4312822266e+003;4.4430771484e+003;4.4391025391e+003;4.4494873047e+003;4.4479487305e+003;4.4416665039e+003;4.4428203125e+003;4.4446152344e+003;4.4356411133e+003;4.4369228516e+003;4.4383334961e+003;
2.7734375000e+000;4.3875639648e+003;4.4592309570e+003;4.4553847656e+003;4.4428203125e+003;4.4624360352e+003;4.4587177734e+003;4.4670512695e+003;4.4637177734e+003;4.4542309570e+003;4.4555126953e+003;4.4593588867e+003;4.4482050781e+003;4.4500000000e+003;4.4519228516e+003;
2.7812500000e+000;4.4250000000e+003;4.5088461914e+003;4.4971796875e+003;4.4733334961e+003;4.5132050781e+003;4.5071796875e+003;4.5142309570e+003;4.5120512695e+003;4.4956411133e+003;4.5012822266e+003;4.5046152344e+003;4.4871796875e+003;4.4964101563e+003;4.4961538086e+003;
2.7890625000e+000;4.4608974609e+003;4.5358974609e+003;4.5338461914e+003;4.5096152344e+003;4.5485898438e+003;4.5320512695e+003;4.5470512695e+003;4.5358974609e+003;4.5183334961e+003;4.5389741211e+003;4.5451284180e+003;4.5310258789e+003;4.5323076172e+003;4.5366665039e+003;
2.7968750000e+000;4.4733334961e+003;4.5452563477e+003;4.5467949219e+003;4.5192309570e+003;4.5570512695e+003;4.5394873047e+003;4.5539741211e+003;4.5462822266e+003;4.5291025391e+003;4.5491025391e+003;4.5553847656e+003;4.5441025391e+003;4.5425639648e+003;4.5498715820e+003;
2.8046875000e+000;4.4775639648e+003;4.5567949219e+003;4.5533334961e+003;4.5219228516e+003;4.5524360352e+003;4.5389741211e+003;4.5538461914e+003;4.5542309570e+003;4.5344873047e+003;4.5511538086e+003;4.5567949219e+003;4.5503847656e+003;4.5433334961e+003;4.5565385742e+003;
2.8125000000e+000;4.4685898438e+003;4.5523076172e+003;4.5447436523e+003;4.5141025391e+003;4.5405126953e+003;4.5260258789e+003;4.5441025391e+003;4.5471796875e+003;4.5266665039e+003;4.5425639648e+003;4.5483334961e+003;4.5408974609e+003;4.5347436523e+003;4.5466665039e+003;
2.8203125000e+000;4.3567949219e+003;4.4305126953e+003;4.4405126953e+003;4.4056411133e+003;4.4265385742e+003;4.4000000000e+003;4.4275639648e+003;4.4483334961e+003;4.4353847656e+003;4.4415385742e+003;4.4515385742e+003;4.4366665039e+003;4.4375639648e+003;4.4406411133e+003;
2.8281250000e+000;4.2892309570e+003;4.3566665039e+003;4.3751284180e+003;4.3387177734e+003;4.3558974609e+003;4.3323076172e+003;4.3596152344e+003;4.3847436523e+003;4.3766665039e+003;4.3753847656e+003;4.3867949219e+003;4.3737177734e+003;4.3717949219e+003;4.3787177734e+003;
2.8359375000e+000;4.2042309570e+003;4.2652563477e+003;4.2846152344e+003;4.2505126953e+003;4.2587177734e+003;4.2502563477e+003;4.2733334961e+003;4.2969228516e+003;4.2962822266e+003;4.2839741211e+003;4.2955126953e+003;4.2866665039e+003;4.2794873047e+003;4.2942309570e+003;
2.8437500000e+000;4.2132050781e+003;4.2742309570e+003;4.2897436523e+003;4.2566665039e+003;4.2641025391e+003;4.2602563477e+003;4.2800000000e+003;4.3020512695e+003;4.3011538086e+003;4.2874360352e+003;4.3000000000e+003;4.2902563477e+003;4.2839741211e+003;4.2983334961e+003;
2.8515625000e+000;4.3134614258e+003;4.3762822266e+003;4.3878203125e+003;4.3626923828e+003;4.3737177734e+003;4.3579487305e+003;4.3725639648e+003;4.3964101563e+003;4.3862822266e+003;4.3821796875e+003;4.3925639648e+003;4.3792309570e+003;4.3810258789e+003;4.3892309570e+003;
2.8593750000e+000;4.3024360352e+003;4.3661538086e+003;4.3757690430e+003;4.3593588867e+003;4.3655126953e+003;4.3503847656e+003;4.3650000000e+003;4.3853847656e+003;4.3760258789e+003;4.3757690430e+003;4.3800000000e+003;4.3678203125e+003;4.3710258789e+003;4.3782050781e+003;
2.8671875000e+000;4.2693588867e+003;4.3348715820e+003;4.3407690430e+003;4.3329487305e+003;4.3330771484e+003;4.3256411133e+003;4.3394873047e+003;4.3516665039e+003;4.3448715820e+003;4.3455126953e+003;4.3451284180e+003;4.3346152344e+003;4.3387177734e+003;4.3451284180e+003;
2.8750000000e+000;4.2496152344e+003;4.3170512695e+003;4.3187177734e+003;4.3146152344e+003;4.3132050781e+003;4.3162822266e+003;4.3278203125e+003;4.3292309570e+003;4.3243588867e+003;4.3228203125e+003;4.3223076172e+003;4.3135898438e+003;4.3185898438e+003;4.3234614258e+003;
2.8828125000e+000;4.5101284180e+003;4.5903847656e+003;4.5762822266e+003;4.5505126953e+003;4.5874360352e+003;4.5757690430e+003;4.5828203125e+003;4.5858974609e+003;4.5732050781e+003;4.5797436523e+003;4.5810258789e+003;4.5644873047e+003;4.5806411133e+003;4.5744873047e+003;
2.8906250000e+000;4.5039741211e+003;4.5852563477e+003;4.5733334961e+003;4.5476923828e+003;4.5837177734e+003;4.5676923828e+003;4.5782050781e+003;4.5834614258e+003;4.5673076172e+003;4.5820512695e+003;4.5782050781e+003;4.5615385742e+003;4.5762822266e+003;4.5702563477e+003;
2.8984375000e+000;4.3655126953e+003;4.4424360352e+003;4.4397436523e+003;4.4225639648e+003;4.4443588867e+003;4.4405126953e+003;4.4506411133e+003;4.4369228516e+003;4.4173076172e+003;4.4341025391e+003;4.4408974609e+003;4.4242309570e+003;4.4408974609e+003;4.4328203125e+003;
2.9062500000e+000;4.3734614258e+003;4.4564101563e+003;4.4430771484e+003;4.4338461914e+003;4.4528203125e+003;4.4465385742e+003;4.4521796875e+003;4.4476923828e+003;4.4265385742e+003;4.4412822266e+003;4.4517949219e+003;4.4397436523e+003;4.4516665039e+003;4.4488461914e+003;
2.9140625000e+000;4.3641025391e+003;4.4457690430e+003;4.4365385742e+003;4.4251284180e+003;4.4412822266e+003;4.4317949219e+003;4.4424360352e+003;4.4403847656e+003;4.4176923828e+003;4.4337177734e+003;4.4448715820e+003;4.4365385742e+003;4.4412822266e+003;4.4446152344e+003;
2.9218750000e+000;4.3344873047e+003;4.4087177734e+003;4.4061538086e+003;4.3851284180e+003;4.3987177734e+003;4.3896152344e+003;4.4047436523e+003;4.4124360352e+003;4.3956411133e+003;4.4088461914e+003;4.4250000000e+003;4.4097436523e+003;4.4125639648e+003;4.4187177734e+003;
2.9296875000e+000;4.2191025391e+003;4.2732050781e+003;4.2870512695e+003;4.2698715820e+003;4.2641025391e+003;4.2634614258e+003;4.2778203125e+003;4.3015385742e+003;4.2950000000e+003;4.2902563477e+003;4.2932050781e+003;4.2867949219e+003;4.2883334961e+003;4.2970512695e+003;
2.9375000000e+000;4.1826923828e+003;4.2325639648e+003;4.2539741211e+003;4.2400000000e+003;4.2287177734e+003;4.2238461914e+003;4.2423076172e+003;4.2698715820e+003;4.2637177734e+003;4.2521796875e+003;4.2538461914e+003;4.2493588867e+003;4.2489741211e+003;4.2588461914e+003;
2.9453125000e+000;4.2175639648e+003;4.2747436523e+003;4.2837177734e+003;4.2780771484e+003;4.2732050781e+003;4.2596152344e+003;4.2861538086e+003;4.3120512695e+003;4.3064101563e+003;4.2896152344e+003;4.2941025391e+003;4.2811538086e+003;4.2856411133e+003;4.2874360352e+003;
2.9531250000e+000;4.2870512695e+003;4.3480771484e+003;4.3480771484e+003;4.3416665039e+003;4.3446152344e+003;4.3297436523e+003;4.3557690430e+003;4.3788461914e+003;4.3753847656e+003;4.3623076172e+003;4.3646152344e+003;4.3473076172e+003;4.3562822266e+003;4.3561538086e+003;
2.9609375000e+000;4.4262822266e+003;4.4887177734e+003;4.4889741211e+003;4.4756411133e+003;4.4869228516e+003;4.4716665039e+003;4.4925639648e+003;4.5143588867e+003;4.5139741211e+003;4.5089741211e+003;4.5030771484e+003;4.4839741211e+003;4.4965385742e+003;4.4976923828e+003;
2.9687500000e+000;4.4476923828e+003;4.5091025391e+003;4.5158974609e+003;4.5010258789e+003;4.5094873047e+003;4.4983334961e+003;4.5150000000e+003;4.5380771484e+003;4.5361538086e+003;4.5325639648e+003;4.5246152344e+003;4.5080771484e+003;4.5182050781e+003;4.5208974609e+003;
2.9765625000e+000;4.4283334961e+003;4.4897436523e+003;4.5006411133e+003;4.4865385742e+003;4.4917949219e+003;4.4866665039e+003;4.4998715820e+003;4.5229487305e+003;4.5174360352e+003;4.5137177734e+003;4.5066665039e+003;4.4916665039e+003;4.4996152344e+003;4.5021796875e+003;
2.9843750000e+000;4.3347436523e+003;4.3992309570e+003;4.4062822266e+003;4.3933334961e+003;4.4028203125e+003;4.4110258789e+003;4.4210258789e+003;4.4357690430e+003;4.4232050781e+003;4.4196152344e+003;4.4167949219e+003;4.3985898438e+003;4.4110258789e+003;4.4064101563e+003;
2.9921875000e+000;4.2906411133e+003;4.3550000000e+003;4.3603847656e+003;4.3447436523e+003;4.3598715820e+003;4.3730771484e+003;4.3825639648e+003;4.3901284180e+003;4.3766665039e+003;4.3734614258e+003;4.3714101563e+003;4.3528203125e+003;4.3679487305e+003;4.3611538086e+003;
3.0000000000e+000;4.2535898438e+003;4.3151284180e+003;4.3220512695e+003;4.3033334961e+003;4.3219228516e+003;4.3380771484e+003;4.3460258789e+003;4.3469228516e+003;4.3338461914e+003;4.3301284180e+003;4.3291025391e+003;4.3129487305e+003;4.3270512695e+003;4.3229487305e+003;
3.0078125000e+000;4.2742309570e+003;4.3253847656e+003;4.3311538086e+003;4.3271796875e+003;4.3311538086e+003;4.3493588867e+003;4.3508974609e+003;4.3374360352e+003;4.3191025391e+003;4.3265385742e+003;4.3344873047e+003;4.3230771484e+003;4.3298715820e+003;4.3375639648e+003;
3.0156250000e+000;4.2817949219e+003;4.3356411133e+003;4.3384614258e+003;4.3351284180e+003;4.3396152344e+003;4.3567949219e+003;4.3608974609e+003;4.3457690430e+003;4.3275639648e+003;4.3387177734e+003;4.3452563477e+003;4.3329487305e+003;4.3433334961e+003;4.3458974609e+003;
3.0234375000e+000;4.1775639648e+003;4.2288461914e+003;4.2346152344e+003;4.2280771484e+003;4.2365385742e+003;4.2383334961e+003;4.2461538086e+003;4.2347436523e+003;4.2214101563e+003;4.2223076172e+003;4.2305126953e+003;4.2205126953e+003;4.2321796875e+003;4.2397436523e+003;
3.0312500000e+000;4.2216665039e+003;4.2706411133e+003;4.2776923828e+003;4.2725639648e+003;4.2716665039e+003;4.2710258789e+003;4.2815385742e+003;4.2810258789e+003;4.2651284180e+003;4.2601284180e+003;4.2711538086e+003;4.2648715820e+003;4.2734614258e+003;4.2825639648e+003;
3.0390625000e+000;4.2969228516e+003;4.3497436523e+003;4.3494873047e+003;4.3465385742e+003;4.3456411133e+003;4.3384614258e+003;4.3529487305e+003;4.3602563477e+003;4.3441025391e+003;4.3421796875e+003;4.3505126953e+003;4.3414101563e+003;4.3521796875e+003;4.3566665039e+003;
3.0468750000e+000;4.2938461914e+003;4.3452563477e+003;4.3488461914e+003;4.3470512695e+003;4.3384614258e+003;4.3189741211e+003;4.3410258789e+003;4.3706411133e+003;4.3576923828e+003;4.3567949219e+003;4.3541025391e+003;4.3442309570e+003;4.3461538086e+003;4.3526923828e+003;
3.0546875000e+000;4.2155126953e+003;4.2624360352e+003;4.2728203125e+003;4.2697436523e+003;4.2573076172e+003;4.2437177734e+003;4.2641025391e+003;4.2946152344e+003;4.2826923828e+003;4.2779487305e+003;4.2735898438e+003;4.2661538086e+003;4.2674360352e+003;4.2744873047e+003;
3.0625000000e+000;4.1060258789e+003;4.1498715820e+003;4.1601284180e+003;4.1603847656e+003;4.1474360352e+003;4.1457690430e+003;4.1629487305e+003;4.1897436523e+003;4.1779487305e+003;4.1644873047e+003;4.1602563477e+003;4.1557690430e+003;4.1639741211e+003;4.1652563477e+003;
3.0703125000e+000;4.1035898438e+003;4.1488461914e+003;4.1550000000e+003;4.1585898438e+003;4.1473076172e+003;4.1482050781e+003;4.1660258789e+003;4.1889741211e+003;4.1760258789e+003;4.1601284180e+003;4.1576923828e+003;4.1537177734e+003;4.1633334961e+003;4.1632050781e+003;
3.0781250000e+000;4.2084614258e+003;4.2483334961e+003;4.2588461914e+003;4.2551284180e+003;4.2523076172e+003;4.2625639648e+003;4.2800000000e+003;4.2926923828e+003;4.2773076172e+003;4.2673076172e+003;4.2606411133e+003;4.2534614258e+003;4.2576923828e+003;4.2574360352e+003;
3.0859375000e+000;4.2270512695e+003;4.2633334961e+003;4.2758974609e+003;4.2691025391e+003;4.2715385742e+003;4.2846152344e+003;4.2984614258e+003;4.3097436523e+003;4.2961538086e+003;4.2866665039e+003;4.2770512695e+003;4.2670512695e+003;4.2725639648e+003;4.2701284180e+003;
3.0937500000e+000;4.2687177734e+003;4.3067949219e+003;4.3130771484e+003;4.3114101563e+003;4.3233334961e+003;4.3293588867e+003;4.3387177734e+003;4.3420512695e+003;4.3346152344e+003;4.3201284180e+003;4.3155126953e+003;4.3017949219e+003;4.3139741211e+003;4.3103847656e+003;
3.1015625000e+000;4.3253847656e+003;4.3703847656e+003;4.3693588867e+003;4.3729487305e+003;4.3875639648e+003;4.3851284180e+003;4.3950000000e+003;4.3946152344e+003;4.3875639648e+003;4.3748715820e+003;4.3742309570e+003;4.3592309570e+003;4.3741025391e+003;4.3708974609e+003;
3.1093750000e+000;4.4771796875e+003;4.5467949219e+003;4.5293588867e+003;4.5329487305e+003;4.5511538086e+003;4.5385898438e+003;4.5482050781e+003;4.5505126953e+003;4.5321796875e+003;4.5473076172e+003;4.5421796875e+003;4.5241025391e+003;4.5344873047e+003;4.5276923828e+003;
3.1171875000e+000;4.4779487305e+003;4.5480771484e+003;4.5321796875e+003;4.5298715820e+003;4.5500000000e+003;4.5394873047e+003;4.5489741211e+003;4.5500000000e+003;4.5303847656e+003;4.5485898438e+003;4.5429487305e+003;4.5258974609e+003;4.5329487305e+003;4.5269228516e+003;
3.1250000000e+000;4.4701284180e+003;4.5369228516e+003;4.5252563477e+003;4.5173076172e+003;4.5400000000e+003;4.5300000000e+003;4.5406411133e+003;4.5387177734e+003;4.5197436523e+003;4.5353847656e+003;4.5323076172e+003;4.5160258789e+003;4.5221796875e+003;4.5179487305e+003;
3.1328125000e+000;4.5096152344e+003;4.5783334961e+003;4.5758974609e+003;4.5635898438e+003;4.5855126953e+003;4.5707690430e+003;4.5900000000e+003;4.5791025391e+003;4.5537177734e+003;4.5762822266e+003;4.5734614258e+003;4.5607690430e+003;4.5723076172e+003;4.5661538086e+003;
3.1406250000e+000;4.5637177734e+003;4.6361538086e+003;4.6305126953e+003;4.6147436523e+003;4.6398715820e+003;4.6193588867e+003;4.6401284180e+003;4.6351284180e+003;4.6130771484e+003;4.6374360352e+003;4.6334614258e+003;4.6187177734e+003;4.6292309570e+003;4.6233334961e+003;
3.1484375000e+000;4.5394873047e+003;4.6067949219e+003;4.6129487305e+003;4.5878203125e+003;4.6053847656e+003;4.5785898438e+003;4.5985898438e+003;4.6291025391e+003;4.6152563477e+003;4.6276923828e+003;4.6238461914e+003;4.6066665039e+003;4.6121796875e+003;4.6058974609e+003;
3.1562500000e+000;4.3766665039e+003;4.4411538086e+003;4.4474360352e+003;4.4293588867e+003;4.4339741211e+003;4.4124360352e+003;4.4337177734e+003;4.4720512695e+003;4.4611538086e+003;4.4564101563e+003;4.4544873047e+003;4.4408974609e+003;4.4488461914e+003;4.4441025391e+003;
3.1640625000e+000;4.4035898438e+003;4.4725639648e+003;4.4743588867e+003;4.4570512695e+003;4.4642309570e+003;4.4401284180e+003;4.4637177734e+003;4.5000000000e+003;4.4924360352e+003;4.4843588867e+003;4.4811538086e+003;4.4689741211e+003;4.4762822266e+003;4.4730771484e+003;
3.1718750000e+000;4.5356411133e+003;4.6153847656e+003;4.6117949219e+003;4.5939741211e+003;4.6103847656e+003;4.5819228516e+003;4.6066665039e+003;4.6398715820e+003;4.6376923828e+003;4.6334614258e+003;4.6174360352e+003;4.6044873047e+003;4.6133334961e+003;4.6007690430e+003;
3.1796875000e+000;4.5320512695e+003;4.6148715820e+003;4.6083334961e+003;4.5933334961e+003;4.6101284180e+003;4.5860258789e+003;4.6075639648e+003;4.6374360352e+003;4.6371796875e+003;4.6338461914e+003;4.6153847656e+003;4.6017949219e+003;4.6129487305e+003;4.5964101563e+003;
3.1875000000e+000;4.4603847656e+003;4.5446152344e+003;4.5364101563e+003;4.5244873047e+003;4.5432050781e+003;4.5311538086e+003;4.5483334961e+003;4.5650000000e+003;4.5643588867e+003;4.5569228516e+003;4.5442309570e+003;4.5370512695e+003;4.5434614258e+003;4.5343588867e+003;
3.1953125000e+000;4.4250000000e+003;4.5058974609e+003;4.5005126953e+003;4.4878203125e+003;4.5098715820e+003;4.5011538086e+003;4.5174360352e+003;4.5276923828e+003;4.5239741211e+003;4.5148715820e+003;4.5069228516e+003;4.5030771484e+003;4.5048715820e+003;4.5038461914e+003;
3.2031250000e+000;4.4162822266e+003;4.4893588867e+003;4.4873076172e+003;4.4796152344e+003;4.5062822266e+003;4.4987177734e+003;4.5107690430e+003;4.5096152344e+003;4.4996152344e+003;4.4953847656e+003;4.4911538086e+003;4.4803847656e+003;4.4882050781e+003;4.4862822266e+003;
3.2109375000e+000;4.4217949219e+003;4.4964101563e+003;4.4934614258e+003;4.4866665039e+003;4.5114101563e+003;4.5044873047e+003;4.5166665039e+003;4.5125639648e+003;4.5024360352e+003;4.4992309570e+003;4.4970512695e+003;4.4832050781e+003;4.4953847656e+003;4.4882050781e+003;
3.2187500000e+000;4.3916665039e+003;4.4662822266e+003;4.4671796875e+003;4.4517949219e+003;4.4764101563e+003;4.4710258789e+003;4.4856411133e+003;4.4791025391e+003;4.4673076172e+003;4.4606411133e+003;4.4664101563e+003;4.4542309570e+003;4.4657690430e+003;4.4574360352e+003;
3.2265625000e+000;4.3524360352e+003;4.4229487305e+003;4.4288461914e+003;4.4089741211e+003;4.4339741211e+003;4.4303847656e+003;4.4453847656e+003;4.4394873047e+003;4.4239741211e+003;4.4158974609e+003;4.4230771484e+003;4.4160258789e+003;4.4221796875e+003;4.4178203125e+003;
3.2343750000e+000;4.2391025391e+003;4.2979487305e+003;4.3103847656e+003;4.3076923828e+003;4.3111538086e+003;4.3183334961e+003;4.3330771484e+003;4.3228203125e+003;4.2938461914e+003;4.2917949219e+003;4.2950000000e+003;4.3007690430e+003;4.2989741211e+003;4.3035898438e+003;
3.2421875000e+000;4.2278203125e+003;4.2857690430e+003;4.2962822266e+003;4.3001284180e+003;4.2970512695e+003;4.3041025391e+003;4.3207690430e+003;4.3084614258e+003;4.2810258789e+003;4.2798715820e+003;4.2848715820e+003;4.2873076172e+003;4.2903847656e+003;4.2939741211e+003;
3.2500000000e+000;4.2228203125e+003;4.2789741211e+003;4.2888461914e+003;4.2935898438e+003;4.2901284180e+003;4.2937177734e+003;4.3134614258e+003;4.3011538086e+003;4.2775639648e+003;4.2751284180e+003;4.2839741211e+003;4.2811538086e+003;4.2883334961e+003;4.2902563477e+003;
3.2578125000e+000;4.4187177734e+003;4.4708974609e+003;4.4706411133e+003;4.4785898438e+003;4.4702563477e+003;4.4593588867e+003;4.4793588867e+003;4.4935898438e+003;4.4701284180e+003;4.4661538086e+003;4.4746152344e+003;4.4700000000e+003;4.4764101563e+003;4.4785898438e+003;
3.2656250000e+000;4.4593588867e+003;4.5147436523e+003;4.5107690430e+003;4.5178203125e+003;4.5117949219e+003;4.4917949219e+003;4.5128203125e+003;4.5371796875e+003;4.5167949219e+003;4.5162822266e+003;4.5183334961e+003;4.5091025391e+003;4.5215385742e+003;4.5197436523e+003;
3.2734375000e+000;4.2375639648e+003;4.2857690430e+003;4.2956411133e+003;4.2902563477e+003;4.2932050781e+003;4.2698715820e+003;4.2933334961e+003;4.3292309570e+003;4.3241025391e+003;4.3073076172e+003;4.3097436523e+003;4.2960258789e+003;4.3044873047e+003;4.3028203125e+003;
3.2812500000e+000;4.1565385742e+003;4.2015385742e+003;4.2129487305e+003;4.2120512695e+003;4.2116665039e+003;4.1958974609e+003;4.2179487305e+003;4.2482050781e+003;4.2446152344e+003;4.2197436523e+003;4.2258974609e+003;4.2129487305e+003;4.2194873047e+003;4.2207690430e+003;
3.2890625000e+000;4.1301284180e+003;4.1714101563e+003;4.1761538086e+003;4.1880771484e+003;4.1778203125e+003;4.1776923828e+003;4.1967949219e+003;4.2126923828e+003;4.2087177734e+003;4.1767949219e+003;4.1824360352e+003;4.1712822266e+003;4.1814101563e+003;4.1875639648e+003;
3.2968750000e+000;4.0769230957e+003;4.1092309570e+003;4.1143588867e+003;4.1280771484e+003;4.1255126953e+003;4.1378203125e+003;4.1510258789e+003;4.1580771484e+003;4.1571796875e+003;4.1215385742e+003;4.1158974609e+003;4.1057690430e+003;4.1229487305e+003;4.1203847656e+003;
3.3046875000e+000;4.0461538086e+003;4.0725642090e+003;4.0834614258e+003;4.0991025391e+003;4.0939743652e+003;4.1121796875e+003;4.1247436523e+003;4.1260258789e+003;4.1232050781e+003;4.0857692871e+003;4.0820512695e+003;4.0733332520e+003;4.0880769043e+003;4.0882050781e+003;
3.3125000000e+000;4.0965385742e+003;4.1106411133e+003;4.1269228516e+003;4.1383334961e+003;4.1307690430e+003;4.1565385742e+003;4.1710258789e+003;4.1579487305e+003;4.1474360352e+003;4.1128203125e+003;4.1153847656e+003;4.1085898438e+003;4.1241025391e+003;4.1330771484e+003;
3.3203125000e+000;4.1558974609e+003;4.1697436523e+003;4.1819228516e+003;4.1893588867e+003;4.1862822266e+003;4.2089741211e+003;4.2241025391e+003;4.2084614258e+003;4.1939741211e+003;4.1657690430e+003;4.1710258789e+003;4.1620512695e+003;4.1811538086e+003;4.1906411133e+003;
3.3281250000e+000;4.1647436523e+003;4.1923076172e+003;4.1897436523e+003;4.2019228516e+003;4.2064101563e+003;4.2152563477e+003;4.2267949219e+003;4.2115385742e+003;4.1958974609e+003;4.1815385742e+003;4.1929487305e+003;4.1812822266e+003;4.1975639648e+003;4.2019228516e+003;
3.3359375000e+000;4.1328203125e+003;4.1593588867e+003;4.1565385742e+003;4.1716665039e+003;4.1743588867e+003;4.1828203125e+003;4.1937177734e+003;4.1752563477e+003;4.1630771484e+003;4.1485898438e+003;4.1611538086e+003;4.1505126953e+003;4.1647436523e+003;4.1691025391e+003;
3.3437500000e+000;4.1047436523e+003;4.1185898438e+003;4.1224360352e+003;4.1334614258e+003;4.1323076172e+003;4.1462822266e+003;4.1544873047e+003;4.1328203125e+003;4.1246152344e+003;4.1111538086e+003;4.1246152344e+003;4.1175639648e+003;4.1317949219e+003;4.1375639648e+003;
3.3515625000e+000;4.1134614258e+003;4.1205126953e+003;4.1296152344e+003;4.1371796875e+003;4.1329487305e+003;4.1487177734e+003;4.1551284180e+003;4.1333334961e+003;4.1238461914e+003;4.1123076172e+003;4.1260258789e+003;4.1235898438e+003;4.1371796875e+003;4.1446152344e+003;
3.3593750000e+000;4.3701284180e+003;4.3810258789e+003;4.3847436523e+003;4.3894873047e+003;4.3869228516e+003;4.3725639648e+003;4.3856411133e+003;4.3726923828e+003;4.3615385742e+003;4.3602563477e+003;4.3715385742e+003;4.3711538086e+003;4.3838461914e+003;4.3934614258e+003;
3.3671875000e+000;4.4888461914e+003;4.5061538086e+003;4.5034614258e+003;4.5029487305e+003;4.5071796875e+003;4.4814101563e+003;4.4978203125e+003;4.4976923828e+003;4.4896152344e+003;4.4924360352e+003;4.4998715820e+003;4.4926923828e+003;4.5069228516e+003;4.5125639648e+003;
3.3750000000e+000;4.5461538086e+003;4.5675639648e+003;4.5624360352e+003;4.5547436523e+003;4.5641025391e+003;4.5344873047e+003;4.5525639648e+003;4.5679487305e+003;4.5623076172e+003;4.5673076172e+003;4.5714101563e+003;4.5582050781e+003;4.5723076172e+003;4.5733334961e+003;
3.3828125000e+000;4.1411538086e+003;4.1579487305e+003;4.1653847656e+003;4.1693588867e+003;4.1446152344e+003;4.1415385742e+003;4.1571796875e+003;4.1843588867e+003;4.1751284180e+003;4.1582050781e+003;4.1533334961e+003;4.1588461914e+003;4.1615385742e+003;4.1683334961e+003;
3.3906250000e+000;4.1282050781e+003;4.1425639648e+003;4.1494873047e+003;4.1525639648e+003;4.1278203125e+003;4.1265385742e+003;4.1429487305e+003;4.1650000000e+003;4.1575639648e+003;4.1382050781e+003;4.1344873047e+003;4.1406411133e+003;4.1424360352e+003;4.1519228516e+003;
3.3984375000e+000;4.1092309570e+003;4.1179487305e+003;4.1219228516e+003;4.1242309570e+003;4.1114101563e+003;4.1143588867e+003;4.1348715820e+003;4.1466665039e+003;4.1403847656e+003;4.1174360352e+003;4.1208974609e+003;4.1162822266e+003;4.1247436523e+003;4.1288461914e+003;
3.4062500000e+000;4.0862819824e+003;4.0857692871e+003;4.0962822266e+003;4.1026923828e+003;4.0850000000e+003;4.1056411133e+003;4.1219228516e+003;4.1202563477e+003;4.1117949219e+003;4.0850000000e+003;4.0825642090e+003;4.0846154785e+003;4.0971796875e+003;4.1044873047e+003;
3.4140625000e+000;4.1126923828e+003;4.1094873047e+003;4.1201284180e+003;4.1260258789e+003;4.1129487305e+003;4.1310258789e+003;4.1446152344e+003;4.1419228516e+003;4.1320512695e+003;4.1094873047e+003;4.1061538086e+003;4.1061538086e+003;4.1205126953e+003;4.1280771484e+003;
3.4218750000e+000;4.1475639648e+003;4.1517949219e+003;4.1515385742e+003;4.1571796875e+003;4.1582050781e+003;4.1682050781e+003;4.1757690430e+003;4.1696152344e+003;4.1547436523e+003;4.1382050781e+003;4.1411538086e+003;4.1406411133e+003;4.1521796875e+003;4.1564101563e+003;
3.4296875000e+000;4.1558974609e+003;4.1619228516e+003;4.1594873047e+003;4.1634614258e+003;4.1643588867e+003;4.1762822266e+003;4.1846152344e+003;4.1728203125e+003;4.1589741211e+003;4.1408974609e+003;4.1469228516e+003;4.1500000000e+003;4.1587177734e+003;4.1647436523e+003;
