Time (s);AF3;F7;F3;FC5;T7;P7;O1;O2;P8;T8;FC6;F4;F8;AF4;Sampling Rate
0.0000000000e+000;4.2702563477e+003;4.3064101563e+003;4.3074360352e+003;4.3150000000e+003;4.3205126953e+003;4.3289741211e+003;4.3175639648e+003;4.3283334961e+003;4.3239741211e+003;4.3214101563e+003;4.3207690430e+003;4.3191025391e+003;4.3103847656e+003;4.2957690430e+003;128
7.8125000000e-003;4.2819228516e+003;4.3233334961e+003;4.3184614258e+003;4.3296152344e+003;4.3423076172e+003;4.3560258789e+003;4.3373076172e+003;4.3421796875e+003;4.3434614258e+003;4.3360258789e+003;4.3224360352e+003;4.3207690430e+003;4.3206411133e+003;4.3010258789e+003;
1.5625000000e-002;4.2483334961e+003;4.2910258789e+003;4.2814101563e+003;4.3000000000e+003;4.3129487305e+003;4.3329487305e+003;4.3094873047e+003;4.3021796875e+003;4.3133334961e+003;4.3012822266e+003;4.2878203125e+003;4.2896152344e+003;4.2860258789e+003;4.2680771484e+003;
2.3437500000e-002;4.2608974609e+003;4.3052563477e+003;4.2962822266e+003;4.3115385742e+003;4.3241025391e+003;4.3433334961e+003;4.3187177734e+003;4.3128203125e+003;4.3279487305e+003;4.3176923828e+003;4.3024360352e+003;4.3020512695e+003;4.2978203125e+003;4.2838461914e+003;
3.1250000000e-002;4.1880771484e+003;4.2237177734e+003;4.2252563477e+003;4.2420512695e+003;4.2378203125e+003;4.2652563477e+003;4.2367949219e+003;4.2353847656e+003;4.2485898438e+003;4.2376923828e+003;4.2206411133e+003;4.2197436523e+003;4.2215385742e+003;4.2106411133e+003;
3.9062500000e-002;4.1860258789e+003;4.2170512695e+003;4.2188461914e+003;4.2365385742e+003;4.2330771484e+003;4.2585898438e+003;4.2316665039e+003;4.2291025391e+003;4.2379487305e+003;4.2273076172e+003;4.2138461914e+003;4.2124360352e+003;4.2180771484e+003;4.2044873047e+003;
4.6875000000e-002;4.2152563477e+003;4.2402563477e+003;4.2437177734e+003;4.2551284180e+003;4.2578203125e+003;4.2769228516e+003;4.2530771484e+003;4.2567949219e+003;4.2615385742e+003;4.2541025391e+003;4.2428203125e+003;4.2437177734e+003;4.2460258789e+003;4.2329487305e+003;
5.4687500000e-002;4.1948715820e+003;4.2173076172e+003;4.2244873047e+003;4.2337177734e+003;4.2332050781e+003;4.2532050781e+003;4.2306411133e+003;4.2366665039e+003;4.2408974609e+003;4.2344873047e+003;4.2230771484e+003;4.2273076172e+003;4.2241025391e+003;4.2139741211e+003;
6.2500000000e-002;4.1650000000e+003;4.1850000000e+003;4.1947436523e+003;4.2044873047e+003;4.1979487305e+003;4.2189741211e+003;4.1989741211e+003;4.2032050781e+003;4.2062822266e+003;4.2014101563e+003;4.1916665039e+003;4.1980771484e+003;4.1917949219e+003;4.1833334961e+003;
7.0312500000e-002;4.1696152344e+003;4.1855126953e+003;4.1960258789e+003;4.2051284180e+003;4.1914101563e+003;4.2070512695e+003;4.1930771484e+003;4.1948715820e+003;4.1908974609e+003;4.1962822266e+003;4.1920512695e+003;4.1961538086e+003;4.1914101563e+003;4.1816665039e+003;
7.8125000000e-002;4.1801284180e+003;4.1923076172e+003;4.2062822266e+003;4.2115385742e+003;4.1966665039e+003;4.2102563477e+003;4.1973076172e+003;4.2020512695e+003;4.1934614258e+003;4.2042309570e+003;4.2023076172e+003;4.2053847656e+003;4.1992309570e+003;4.1908974609e+003;
8.5937500000e-002;4.1700000000e+003;4.1771796875e+003;4.1971796875e+003;4.1984614258e+003;4.1819228516e+003;4.1962822266e+003;4.1828203125e+003;4.1901284180e+003;4.1783334961e+003;4.1905126953e+003;4.1916665039e+003;4.1953847656e+003;4.1852563477e+003;4.1805126953e+003;
9.3750000000e-002;4.1915385742e+003;4.1973076172e+003;4.2134614258e+003;4.2228203125e+003;4.2007690430e+003;4.2091025391e+003;4.1950000000e+003;4.2097436523e+003;4.2043588867e+003;4.2074360352e+003;4.2094873047e+003;4.2173076172e+003;4.2029487305e+003;4.1975639648e+003;
1.0156250000e-001;4.1739741211e+003;4.1789741211e+003;4.1967949219e+003;4.2048715820e+003;4.1830771484e+003;4.1946152344e+003;4.1785898438e+003;4.1908974609e+003;4.1850000000e+003;4.1878203125e+003;4.1883334961e+003;4.1970512695e+003;4.1829487305e+003;4.1775639648e+003;
1.0937500000e-001;4.1958974609e+003;4.2010258789e+003;4.2158974609e+003;4.2221796875e+003;4.2066665039e+003;4.2206411133e+003;4.2000000000e+003;4.2076923828e+003;4.2066665039e+003;4.2067949219e+003;4.2052563477e+003;4.2069228516e+003;4.2056411133e+003;4.1920512695e+003;
1.1718750000e-001;4.1328203125e+003;4.1437177734e+003;4.1520512695e+003;4.1702563477e+003;4.1542309570e+003;4.1805126953e+003;4.1579487305e+003;4.1489741211e+003;4.1521796875e+003;4.1462822266e+003;4.1453847656e+003;4.1429487305e+003;4.1430771484e+003;4.1317949219e+003;
1.2500000000e-001;4.1535898438e+003;4.1652563477e+003;4.1710258789e+003;4.1894873047e+003;4.1769228516e+003;4.2002563477e+003;4.1800000000e+003;4.1667949219e+003;4.1721796875e+003;4.1656411133e+003;4.1626923828e+003;4.1602563477e+003;4.1614101563e+003;4.1512822266e+003;
1.3281250000e-001;4.1433334961e+003;4.1526923828e+003;4.1605126953e+003;4.1755126953e+003;4.1673076172e+003;4.1908974609e+003;4.1650000000e+003;4.1507690430e+003;4.1624360352e+003;4.1537177734e+003;4.1485898438e+003;4.1487177734e+003;4.1452563477e+003;4.1379487305e+003;
1.4062500000e-001;4.1953847656e+003;4.2071796875e+003;4.2120512695e+003;4.2278203125e+003;4.2169228516e+003;4.2393588867e+003;4.2160258789e+003;4.2048715820e+003;4.2075639648e+003;4.1987177734e+003;4.2023076172e+003;4.1989741211e+003;4.1937177734e+003;4.1898715820e+003;
1.4843750000e-001;4.1978203125e+003;4.2091025391e+003;4.2151284180e+003;4.2307690430e+003;4.2161538086e+003;4.2366665039e+003;4.2155126953e+003;4.2093588867e+003;4.2094873047e+003;4.2023076172e+003;4.2067949219e+003;4.2026923828e+003;4.1976923828e+003;4.1960258789e+003;
1.5625000000e-001;4.1734614258e+003;4.1815385742e+003;4.1900000000e+003;4.2052563477e+003;4.1878203125e+003;4.2070512695e+003;4.1878203125e+003;4.1835898438e+003;4.1819228516e+003;4.1756411133e+003;4.1834614258e+003;4.1789741211e+003;4.1744873047e+003;4.1744873047e+003;
1.6406250000e-001;4.1451284180e+003;4.1475639648e+003;4.1575639648e+003;4.1705126953e+003;4.1544873047e+003;4.1682050781e+003;4.1526923828e+003;4.1492309570e+003;4.1425639648e+003;4.1406411133e+003;4.1569228516e+003;4.1539741211e+003;4.1496152344e+003;4.1493588867e+003;
1.7187500000e-001;4.1157690430e+003;4.1162822266e+003;4.1302563477e+003;4.1402563477e+003;4.1148715820e+003;4.1282050781e+003;4.1119228516e+003;4.1142309570e+003;4.1017949219e+003;4.1061538086e+003;4.1229487305e+003;4.1312822266e+003;4.1188461914e+003;4.1211538086e+003;
1.7968750000e-001;4.1156411133e+003;4.1120512695e+003;4.1275639648e+003;4.1373076172e+003;4.1082050781e+003;4.1205126953e+003;4.1055126953e+003;4.1060258789e+003;4.0952563477e+003;4.0994873047e+003;4.1173076172e+003;4.1262822266e+003;4.1148715820e+003;4.1189741211e+003;
1.8750000000e-001;4.1402563477e+003;4.1326923828e+003;4.1491025391e+003;4.1566665039e+003;4.1280771484e+003;4.1366665039e+003;4.1234614258e+003;4.1244873047e+003;4.1165385742e+003;4.1217949219e+003;4.1401284180e+003;4.1476923828e+003;4.1379487305e+003;4.1433334961e+003;
1.9531250000e-001;4.1620512695e+003;4.1500000000e+003;4.1698715820e+003;4.1721796875e+003;4.1466665039e+003;4.1539741211e+003;4.1397436523e+003;4.1512822266e+003;4.1465385742e+003;4.1517949219e+003;4.1691025391e+003;4.1752563477e+003;4.1626923828e+003;4.1676923828e+003;
2.0312500000e-001;4.1365385742e+003;4.1239741211e+003;4.1446152344e+003;4.1479487305e+003;4.1217949219e+003;4.1324360352e+003;4.1170512695e+003;4.1307690430e+003;4.1264101563e+003;4.1278203125e+003;4.1448715820e+003;4.1511538086e+003;4.1364101563e+003;4.1403847656e+003;
2.1093750000e-001;4.1208974609e+003;4.1089741211e+003;4.1274360352e+003;4.1338461914e+003;4.1084614258e+003;4.1208974609e+003;4.1061538086e+003;4.1173076172e+003;4.1135898438e+003;4.1103847656e+003;4.1271796875e+003;4.1316665039e+003;4.1179487305e+003;4.1208974609e+003;
2.1875000000e-001;4.1414101563e+003;4.1388461914e+003;4.1494873047e+003;4.1628203125e+003;4.1505126953e+003;4.1765385742e+003;4.1525639648e+003;4.1553847656e+003;4.1596152344e+003;4.1430771484e+003;4.1420512695e+003;4.1473076172e+003;4.1446152344e+003;4.1391025391e+003;
2.2656250000e-001;4.1517949219e+003;4.1501284180e+003;4.1567949219e+003;4.1738461914e+003;4.1626923828e+003;4.1896152344e+003;4.1634614258e+003;4.1626923828e+003;4.1701284180e+003;4.1514101563e+003;4.1489741211e+003;4.1537177734e+003;4.1500000000e+003;4.1437177734e+003;
2.3437500000e-001;4.1469228516e+003;4.1503847656e+003;4.1450000000e+003;4.1737177734e+003;4.1644873047e+003;4.1929487305e+003;4.1671796875e+003;4.1598715820e+003;4.1689741211e+003;4.1526923828e+003;4.1503847656e+003;4.1457690430e+003;4.1429487305e+003;4.1384614258e+003;
2.4218750000e-001;4.1979487305e+003;4.2088461914e+003;4.2011538086e+003;4.2270512695e+003;4.2235898438e+003;4.2447436523e+003;4.2229487305e+003;4.2138461914e+003;4.2252563477e+003;4.2117949219e+003;4.2050000000e+003;4.1970512695e+003;4.2035898438e+003;4.1958974609e+003;
2.5000000000e-001;4.2176923828e+003;4.2285898438e+003;4.2224360352e+003;4.2464101563e+003;4.2412822266e+003;4.2614101563e+003;4.2397436523e+003;4.2342309570e+003;4.2458974609e+003;4.2326923828e+003;4.2243588867e+003;4.2198715820e+003;4.2230771484e+003;4.2194873047e+003;
2.5781250000e-001;4.1665385742e+003;4.1682050781e+003;4.1650000000e+003;4.1882050781e+003;4.1755126953e+003;4.1983334961e+003;4.1780771484e+003;4.1707690430e+003;4.1734614258e+003;4.1617949219e+003;4.1639741211e+003;4.1657690430e+003;4.1623076172e+003;4.1650000000e+003;
2.6562500000e-001;4.1393588867e+003;4.1352563477e+003;4.1406411133e+003;4.1567949219e+003;4.1347436523e+003;4.1484614258e+003;4.1328203125e+003;4.1334614258e+003;4.1300000000e+003;4.1229487305e+003;4.1294873047e+003;4.1332050781e+003;4.1266665039e+003;4.1337177734e+003;
2.7343750000e-001;4.1152563477e+003;4.1076923828e+003;4.1180771484e+003;4.1328203125e+003;4.1046152344e+003;4.1175639648e+003;4.1044873047e+003;4.1038461914e+003;4.0989741211e+003;4.0919230957e+003;4.1015385742e+003;4.1085898438e+003;4.0997436523e+003;4.1084614258e+003;
2.8125000000e-001;4.1155126953e+003;4.1047436523e+003;4.1175639648e+003;4.1307690430e+003;4.0994873047e+003;4.1106411133e+003;4.0991025391e+003;4.0978203125e+003;4.0919230957e+003;4.0864101563e+003;4.0984614258e+003;4.1067949219e+003;4.0985898438e+003;4.1065385742e+003;
2.8906250000e-001;4.1473076172e+003;4.1325639648e+003;4.1474360352e+003;4.1552563477e+003;4.1247436523e+003;4.1326923828e+003;4.1179487305e+003;4.1253847656e+003;4.1202563477e+003;4.1188461914e+003;4.1289741211e+003;4.1369228516e+003;4.1291025391e+003;4.1356411133e+003;
2.9687500000e-001;4.1408974609e+003;4.1248715820e+003;4.1403847656e+003;4.1475639648e+003;4.1162822266e+003;4.1246152344e+003;4.1079487305e+003;4.1189741211e+003;4.1171796875e+003;4.1137177734e+003;4.1225639648e+003;4.1311538086e+003;4.1200000000e+003;4.1288461914e+003;
3.0468750000e-001;4.1321796875e+003;4.1160258789e+003;4.1300000000e+003;4.1391025391e+003;4.1065385742e+003;4.1141025391e+003;4.0987177734e+003;4.1089741211e+003;4.1128203125e+003;4.1048715820e+003;4.1133334961e+003;4.1225639648e+003;4.1087177734e+003;4.1198715820e+003;
3.1250000000e-001;4.1271796875e+003;4.1055126953e+003;4.1110258789e+003;4.1312822266e+003;4.1065385742e+003;4.1238461914e+003;4.1030771484e+003;4.1112822266e+003;4.1176923828e+003;4.1023076172e+003;4.0948718262e+003;4.1041025391e+003;4.0960258789e+003;4.1012822266e+003;
3.2031250000e-001;4.1400000000e+003;4.1189741211e+003;4.1235898438e+003;4.1425639648e+003;4.1239741211e+003;4.1419228516e+003;4.1188461914e+003;4.1214101563e+003;4.1257690430e+003;4.1088461914e+003;4.1039741211e+003;4.1106411133e+003;4.1033334961e+003;4.1079487305e+003;
3.2812500000e-001;4.1902563477e+003;4.1744873047e+003;4.1755126953e+003;4.1914101563e+003;4.1828203125e+003;4.1966665039e+003;4.1725639648e+003;4.1674360352e+003;4.1802563477e+003;4.1633334961e+003;4.1566665039e+003;4.1593588867e+003;4.1530771484e+003;4.1584614258e+003;
3.3593750000e-001;4.1669228516e+003;4.1533334961e+003;4.1525639648e+003;4.1716665039e+003;4.1623076172e+003;4.1785898438e+003;4.1533334961e+003;4.1458974609e+003;4.1646152344e+003;4.1460258789e+003;4.1358974609e+003;4.1396152344e+003;4.1334614258e+003;4.1401284180e+003;
3.4375000000e-001;4.0878205566e+003;4.0792307129e+003;4.0702563477e+003;4.1033334961e+003;4.0941025391e+003;4.1178203125e+003;4.0892307129e+003;4.0792307129e+003;4.0983334961e+003;4.0694870605e+003;4.0585898438e+003;4.0670512695e+003;4.0629487305e+003;4.0698718262e+003;
3.5156250000e-001;4.0880769043e+003;4.0787180176e+003;4.0730769043e+003;4.1032050781e+003;4.0958974609e+003;4.1205126953e+003;4.0907692871e+003;4.0834614258e+003;4.0998715820e+003;4.0711538086e+003;4.0616667480e+003;4.0706411133e+003;4.0644870605e+003;4.0724357910e+003;
3.5937500000e-001;4.0421794434e+003;4.0183332520e+003;4.0288461914e+003;4.0552563477e+003;4.0400000000e+003;4.0739743652e+003;4.0419230957e+003;4.0308974609e+003;4.0475642090e+003;4.0202563477e+003;4.0188461914e+003;4.0257692871e+003;4.0176923828e+003;4.0282050781e+003;
3.6718750000e-001;4.0457692871e+003;4.0164101563e+003;4.0224357910e+003;4.0550000000e+003;4.0297436523e+003;4.0611538086e+003;4.0350000000e+003;4.0333332520e+003;4.0466667480e+003;4.0173076172e+003;4.0198718262e+003;4.0302563477e+003;4.0197436523e+003;4.0301281738e+003;
3.7500000000e-001;4.0279487305e+003;3.9958974609e+003;4.0052563477e+003;4.0364101563e+003;4.0069230957e+003;4.0367949219e+003;4.0137180176e+003;4.0098718262e+003;4.0203845215e+003;3.9946154785e+003;3.9983332520e+003;4.0119230957e+003;3.9988461914e+003;4.0114101563e+003;
3.8281250000e-001;4.0316667480e+003;3.9961538086e+003;4.0088461914e+003;4.0365385742e+003;4.0053845215e+003;4.0301281738e+003;4.0105129395e+003;4.0033332520e+003;4.0102563477e+003;3.9911538086e+003;3.9982050781e+003;4.0129487305e+003;4.0000000000e+003;4.0134614258e+003;
3.9062500000e-001;4.0785898438e+003;4.0384614258e+003;4.0535898438e+003;4.0733332520e+003;4.0406411133e+003;4.0537180176e+003;4.0374357910e+003;4.0350000000e+003;4.0339743652e+003;4.0284614258e+003;4.0470512695e+003;4.0591025391e+003;4.0487180176e+003;4.0612819824e+003;
3.9843750000e-001;4.0452563477e+003;3.9962819824e+003;4.0175642090e+003;4.0373076172e+003;3.9921794434e+003;4.0042307129e+003;3.9891025391e+003;3.9966667480e+003;3.9969230957e+003;3.9883332520e+003;4.0119230957e+003;4.0276923828e+003;4.0114101563e+003;4.0270512695e+003;
4.0625000000e-001;4.0676923828e+003;4.0187180176e+003;4.0384614258e+003;4.0594870605e+003;4.0156411133e+003;4.0223076172e+003;4.0094870605e+003;4.0182050781e+003;4.0242307129e+003;4.0126923828e+003;4.0320512695e+003;4.0480769043e+003;4.0333332520e+003;4.0476923828e+003;
4.1406250000e-001;4.0926923828e+003;4.0474357910e+003;4.0629487305e+003;4.0852563477e+003;4.0455129395e+003;4.0471794434e+003;4.0351281738e+003;4.0461538086e+003;4.0576923828e+003;4.0435898438e+003;4.0584614258e+003;4.0732050781e+003;4.0602563477e+003;4.0725642090e+003;
4.2187500000e-001;4.0925642090e+003;4.0526923828e+003;4.0633332520e+003;4.0869230957e+003;4.0520512695e+003;4.0528205566e+003;4.0397436523e+003;4.0524357910e+003;4.0665385742e+003;4.0493588867e+003;4.0615385742e+003;4.0748718262e+003;4.0621794434e+003;4.0729487305e+003;
4.2968750000e-001;4.0630769043e+003;4.0316667480e+003;4.0329487305e+003;4.0641025391e+003;4.0355129395e+003;4.0575642090e+003;4.0411538086e+003;4.0452563477e+003;4.0584614258e+003;4.0335898438e+003;4.0364101563e+003;4.0442307129e+003;4.0351281738e+003;4.0415385742e+003;
4.3750000000e-001;4.0519230957e+003;4.0196154785e+003;4.0228205566e+003;4.0552563477e+003;4.0250000000e+003;4.0526923828e+003;4.0353845215e+003;4.0373076172e+003;4.0535898438e+003;4.0288461914e+003;4.0258974609e+003;4.0339743652e+003;4.0256411133e+003;4.0314101563e+003;
4.4531250000e-001;4.0461538086e+003;4.0110256348e+003;4.0114101563e+003;4.0464101563e+003;4.0293588867e+003;4.0551281738e+003;4.0344870605e+003;4.0247436523e+003;4.0491025391e+003;4.0198718262e+003;4.0146154785e+003;4.0188461914e+003;4.0141025391e+003;4.0225642090e+003;
4.5312500000e-001;4.0317949219e+003;3.9957692871e+003;3.9951281738e+003;4.0343588867e+003;4.0151281738e+003;4.0500000000e+003;4.0216667480e+003;4.0126923828e+003;4.0365385742e+003;4.0084614258e+003;4.0012819824e+003;4.0055129395e+003;3.9997436523e+003;4.0087180176e+003;
4.6093750000e-001;4.0150000000e+003;3.9782050781e+003;3.9778205566e+003;4.0170512695e+003;3.9956411133e+003;4.0337180176e+003;4.0055129395e+003;3.9935898438e+003;4.0160256348e+003;3.9878205566e+003;3.9812819824e+003;3.9862819824e+003;3.9820512695e+003;3.9898718262e+003;
4.6875000000e-001;4.0841025391e+003;4.0493588867e+003;4.0482050781e+003;4.0766667480e+003;4.0608974609e+003;4.0847436523e+003;4.0600000000e+003;4.0555129395e+003;4.0742307129e+003;4.0503845215e+003;4.0471794434e+003;4.0546154785e+003;4.0520512695e+003;4.0585898438e+003;
4.7656250000e-001;4.0778205566e+003;4.0419230957e+003;4.0426923828e+003;4.0703845215e+003;4.0503845215e+003;4.0728205566e+003;4.0494870605e+003;4.0448718262e+003;4.0617949219e+003;4.0392307129e+003;4.0398718262e+003;4.0489743652e+003;4.0442307129e+003;4.0516667480e+003;
4.8437500000e-001;4.1057690430e+003;4.0679487305e+003;4.0662819824e+003;4.0921794434e+003;4.0670512695e+003;4.0820512695e+003;4.0644870605e+003;4.0538461914e+003;4.0633332520e+003;4.0517949219e+003;4.0643588867e+003;4.0732050781e+003;4.0697436523e+003;4.0784614258e+003;
4.9218750000e-001;4.0987177734e+003;4.0582050781e+003;4.0650000000e+003;4.0824357910e+003;4.0544870605e+003;4.0625642090e+003;4.0432050781e+003;4.0371794434e+003;4.0394870605e+003;4.0417949219e+003;4.0607692871e+003;4.0726923828e+003;4.0648718262e+003;4.0751281738e+003;
5.0000000000e-001;4.1221796875e+003;4.0808974609e+003;4.0875642090e+003;4.1042309570e+003;4.0760256348e+003;4.0775642090e+003;4.0621794434e+003;4.0579487305e+003;4.0608974609e+003;4.0653845215e+003;4.0862819824e+003;4.0953845215e+003;4.0887180176e+003;4.0967949219e+003;
5.0781250000e-001;4.1523076172e+003;4.1114101563e+003;4.1179487305e+003;4.1333334961e+003;4.1051284180e+003;4.1008974609e+003;4.0894870605e+003;4.0916667480e+003;4.0964101563e+003;4.1008974609e+003;4.1200000000e+003;4.1271796875e+003;4.1203847656e+003;4.1274360352e+003;
5.1562500000e-001;4.1258974609e+003;4.0869230957e+003;4.0985898438e+003;4.1117949219e+003;4.0802563477e+003;4.0808974609e+003;4.0700000000e+003;4.0864101563e+003;4.0924357910e+003;4.0894870605e+003;4.0987177734e+003;4.1082050781e+003;4.0935898438e+003;4.1056411133e+003;
5.2343750000e-001;4.1226923828e+003;4.0917949219e+003;4.0952563477e+003;4.1144873047e+003;4.0912819824e+003;4.1000000000e+003;4.0920512695e+003;4.1012822266e+003;4.1070512695e+003;4.0941025391e+003;4.0952563477e+003;4.1002563477e+003;4.0889743652e+003;4.0989741211e+003;
5.3125000000e-001;4.1423076172e+003;4.1147436523e+003;4.1134614258e+003;4.1360258789e+003;4.1174360352e+003;4.1273076172e+003;4.1188461914e+003;4.1266665039e+003;4.1332050781e+003;4.1201284180e+003;4.1183334961e+003;4.1208974609e+003;4.1146152344e+003;4.1216665039e+003;
5.3906250000e-001;4.1385898438e+003;4.1130771484e+003;4.1102563477e+003;4.1356411133e+003;4.1203847656e+003;4.1339741211e+003;4.1228203125e+003;4.1292309570e+003;4.1364101563e+003;4.1223076172e+003;4.1182050781e+003;4.1196152344e+003;4.1170512695e+003;4.1219228516e+003;
5.4687500000e-001;4.1288461914e+003;4.1046152344e+003;4.1019228516e+003;4.1285898438e+003;4.1176923828e+003;4.1343588867e+003;4.1202563477e+003;4.1243588867e+003;4.1325639648e+003;4.1156411133e+003;4.1110258789e+003;4.1111538086e+003;4.1107690430e+003;4.1137177734e+003;
5.5468750000e-001;4.1665385742e+003;4.1480771484e+003;4.1391025391e+003;4.1674360352e+003;4.1682050781e+003;4.1811538086e+003;4.1670512695e+003;4.1635898438e+003;4.1848715820e+003;4.1589741211e+003;4.1506411133e+003;4.1447436523e+003;4.1467949219e+003;4.1412822266e+003;
5.6250000000e-001;4.1547436523e+003;4.1357690430e+003;4.1265385742e+003;4.1562822266e+003;4.1553847656e+003;4.1707690430e+003;4.1562822266e+003;4.1470512695e+003;4.1697436523e+003;4.1430771484e+003;4.1360258789e+003;4.1332050781e+003;4.1362822266e+003;4.1288461914e+003;
5.7031250000e-001;4.2008974609e+003;4.1833334961e+003;4.1766665039e+003;4.2042309570e+003;4.2071796875e+003;4.2192309570e+003;4.1985898438e+003;4.1903847656e+003;4.2055126953e+003;4.1885898438e+003;4.1839741211e+003;4.1834614258e+003;4.1887177734e+003;4.1783334961e+003;
5.7812500000e-001;4.1707690430e+003;4.1548715820e+003;4.1512822266e+003;4.1756411133e+003;4.1737177734e+003;4.1862822266e+003;4.1655126953e+003;4.1583334961e+003;4.1675639648e+003;4.1520512695e+003;4.1532050781e+003;4.1551284180e+003;4.1521796875e+003;4.1500000000e+003;
5.8593750000e-001;4.1901284180e+003;4.1750000000e+003;4.1700000000e+003;4.1906411133e+003;4.1897436523e+003;4.1992309570e+003;4.1814101563e+003;4.1717949219e+003;4.1819228516e+003;4.1676923828e+003;4.1698715820e+003;4.1743588867e+003;4.1693588867e+003;4.1674360352e+003;
5.9375000000e-001;4.1925639648e+003;4.1783334961e+003;4.1742309570e+003;4.1935898438e+003;4.1882050781e+003;4.1944873047e+003;4.1782050781e+003;4.1691025391e+003;4.1741025391e+003;4.1673076172e+003;4.1744873047e+003;4.1787177734e+003;4.1705126953e+003;4.1657690430e+003;
6.0156250000e-001;4.2155126953e+003;4.2016665039e+003;4.1960258789e+003;4.2160258789e+003;4.2110258789e+003;4.2134614258e+003;4.1984614258e+003;4.1914101563e+003;4.1953847656e+003;4.1892309570e+003;4.2002563477e+003;4.1997436523e+003;4.1955126953e+003;4.1888461914e+003;
6.0937500000e-001;4.3123076172e+003;4.2987177734e+003;4.2911538086e+003;4.3032050781e+003;4.3003847656e+003;4.2937177734e+003;4.2862822266e+003;4.2939741211e+003;4.3016665039e+003;4.2953847656e+003;4.3037177734e+003;4.3014101563e+003;4.3010258789e+003;4.2923076172e+003;
6.1718750000e-001;4.3155126953e+003;4.3017949219e+003;4.2941025391e+003;4.3058974609e+003;4.3016665039e+003;4.2950000000e+003;4.2902563477e+003;4.2989741211e+003;4.3058974609e+003;4.2980771484e+003;4.3048715820e+003;4.3053847656e+003;4.3037177734e+003;4.2956411133e+003;
6.2500000000e-001;4.3984614258e+003;4.3924360352e+003;4.3798715820e+003;4.3915385742e+003;4.3915385742e+003;4.3758974609e+003;4.3757690430e+003;4.3882050781e+003;4.3921796875e+003;4.3860258789e+003;4.3919228516e+003;4.3885898438e+003;4.3893588867e+003;4.3819228516e+003;
6.3281250000e-001;4.4498715820e+003;4.4501284180e+003;4.4376923828e+003;4.4455126953e+003;4.4502563477e+003;4.4303847656e+003;4.4303847656e+003;4.4467949219e+003;4.4511538086e+003;4.4482050781e+003;4.4519228516e+003;4.4447436523e+003;4.4457690430e+003;4.4384614258e+003;
6.4062500000e-001;4.4512822266e+003;4.4702563477e+003;4.4574360352e+003;4.4560258789e+003;4.4720512695e+003;4.4583334961e+003;4.4555126953e+003;4.4619228516e+003;4.4728203125e+003;4.4753847656e+003;4.4705126953e+003;4.4578203125e+003;4.4610258789e+003;4.4473076172e+003;
6.4843750000e-001;4.4666665039e+003;4.5026923828e+003;4.4776923828e+003;4.4832050781e+003;4.4965385742e+003;4.4882050781e+003;4.4817949219e+003;4.4898715820e+003;4.4992309570e+003;4.5011538086e+003;4.4921796875e+003;4.4794873047e+003;4.4841025391e+003;4.4697436523e+003;
6.5625000000e-001;4.4388461914e+003;4.4746152344e+003;4.4530771484e+003;4.4606411133e+003;4.4720512695e+003;4.4679487305e+003;4.4580771484e+003;4.4660258789e+003;4.4741025391e+003;4.4726923828e+003;4.4643588867e+003;4.4541025391e+003;4.4567949219e+003;4.4442309570e+003;
6.6406250000e-001;4.4202563477e+003;4.4551284180e+003;4.4362822266e+003;4.4442309570e+003;4.4578203125e+003;4.4551284180e+003;4.4434614258e+003;4.4480771484e+003;4.4567949219e+003;4.4523076172e+003;4.4447436523e+003;4.4346152344e+003;4.4389741211e+003;4.4262822266e+003;
6.7187500000e-001;4.4226923828e+003;4.4578203125e+003;4.4392309570e+003;4.4460258789e+003;4.4643588867e+003;4.4601284180e+003;4.4487177734e+003;4.4505126953e+003;4.4615385742e+003;4.4561538086e+003;4.4482050781e+003;4.4355126953e+003;4.4441025391e+003;4.4297436523e+003;
6.7968750000e-001;4.3803847656e+003;4.4219228516e+003;4.4061538086e+003;4.4142309570e+003;4.4239741211e+003;4.4264101563e+003;4.4138461914e+003;4.4138461914e+003;4.4314101563e+003;4.4230771484e+003;4.4166665039e+003;4.3997436523e+003;4.4120512695e+003;4.3976923828e+003;
6.8750000000e-001;4.3900000000e+003;4.4348715820e+003;4.4184614258e+003;4.4284614258e+003;4.4373076172e+003;4.4366665039e+003;4.4239741211e+003;4.4234614258e+003;4.4394873047e+003;4.4307690430e+003;4.4258974609e+003;4.4087177734e+003;4.4228203125e+003;4.4073076172e+003;
6.9531250000e-001;4.3574360352e+003;4.4005126953e+003;4.3867949219e+003;4.3994873047e+003;4.4064101563e+003;4.3980771484e+003;4.3860258789e+003;4.3942309570e+003;4.4008974609e+003;4.3962822266e+003;4.3912822266e+003;4.3810258789e+003;4.3894873047e+003;4.3757690430e+003;
7.0312500000e-001;4.3697436523e+003;4.4112822266e+003;4.4002563477e+003;4.4070512695e+003;4.4105126953e+003;4.3953847656e+003;4.3921796875e+003;4.4019228516e+003;4.4102563477e+003;4.4067949219e+003;4.4006411133e+003;4.3989741211e+003;4.4005126953e+003;4.3953847656e+003;
7.1093750000e-001;4.3732050781e+003;4.4171796875e+003;4.4075639648e+003;4.4116665039e+003;4.4125639648e+003;4.3965385742e+003;4.3957690430e+003;4.4067949219e+003;4.4147436523e+003;4.4134614258e+003;4.4073076172e+003;4.4066665039e+003;4.4066665039e+003;4.4047436523e+003;
7.1875000000e-001;4.3548715820e+003;4.3934614258e+003;4.3892309570e+003;4.3888461914e+003;4.3821796875e+003;4.3638461914e+003;4.3655126953e+003;4.3776923828e+003;4.3801284180e+003;4.3835898438e+003;4.3903847656e+003;4.3880771484e+003;4.3851284180e+003;4.3844873047e+003;
7.2656250000e-001;4.3675639648e+003;4.4041025391e+003;4.4010258789e+003;4.3988461914e+003;4.3926923828e+003;4.3734614258e+003;4.3732050781e+003;4.3902563477e+003;4.3920512695e+003;4.3956411133e+003;4.4025639648e+003;4.4015385742e+003;4.3982050781e+003;4.3958974609e+003;
7.3437500000e-001;4.3196152344e+003;4.3562822266e+003;4.3579487305e+003;4.3548715820e+003;4.3484614258e+003;4.3424360352e+003;4.3384614258e+003;4.3502563477e+003;4.3480771484e+003;4.3489741211e+003;4.3533334961e+003;4.3571796875e+003;4.3535898438e+003;4.3511538086e+003;
7.4218750000e-001;4.3335898438e+003;4.3714101563e+003;4.3715385742e+003;4.3680771484e+003;4.3635898438e+003;4.3587177734e+003;4.3557690430e+003;4.3606411133e+003;4.3585898438e+003;4.3607690430e+003;4.3658974609e+003;4.3689741211e+003;4.3664101563e+003;4.3634614258e+003;
7.5000000000e-001;4.3592309570e+003;4.4002563477e+003;4.3996152344e+003;4.3937177734e+003;4.3912822266e+003;4.3905126953e+003;4.3794873047e+003;4.3826923828e+003;4.3866665039e+003;4.3888461914e+003;4.3916665039e+003;4.3961538086e+003;4.3911538086e+003;4.3902563477e+003;
7.5781250000e-001;4.3330771484e+003;4.3756411133e+003;4.3760258789e+003;4.3710258789e+003;4.3666665039e+003;4.3716665039e+003;4.3548715820e+003;4.3576923828e+003;4.3643588867e+003;4.3629487305e+003;4.3660258789e+003;4.3712822266e+003;4.3647436523e+003;4.3658974609e+003;
7.6562500000e-001;4.3157690430e+003;4.3621796875e+003;4.3575639648e+003;4.3598715820e+003;4.3583334961e+003;4.3637177734e+003;4.3501284180e+003;4.3476923828e+003;4.3528203125e+003;4.3492309570e+003;4.3517949219e+003;4.3506411133e+003;4.3521796875e+003;4.3482050781e+003;
7.7343750000e-001;4.3261538086e+003;4.3729487305e+003;4.3671796875e+003;4.3698715820e+003;4.3712822266e+003;4.3753847656e+003;4.3628203125e+003;4.3626923828e+003;4.3665385742e+003;4.3648715820e+003;4.3635898438e+003;4.3624360352e+003;4.3641025391e+003;4.3592309570e+003;
7.8125000000e-001;4.3610258789e+003;4.4080771484e+003;4.4015385742e+003;4.4019228516e+003;4.4074360352e+003;4.4117949219e+003;4.3985898438e+003;4.3984614258e+003;4.4046152344e+003;4.3983334961e+003;4.3953847656e+003;4.3946152344e+003;4.3970512695e+003;4.3932050781e+003;
7.8906250000e-001;4.4201284180e+003;4.4683334961e+003;4.4601284180e+003;4.4579487305e+003;4.4673076172e+003;4.4671796875e+003;4.4551284180e+003;4.4561538086e+003;4.4641025391e+003;4.4551284180e+003;4.4543588867e+003;4.4505126953e+003;4.4569228516e+003;4.4521796875e+003;
7.9687500000e-001;4.4830771484e+003;4.5330771484e+003;4.5238461914e+003;4.5189741211e+003;4.5320512695e+003;4.5255126953e+003;4.5153847656e+003;4.5216665039e+003;4.5296152344e+003;4.5210258789e+003;4.5215385742e+003;4.5142309570e+003;4.5234614258e+003;4.5176923828e+003;
8.0468750000e-001;4.4937177734e+003;4.5598715820e+003;4.5438461914e+003;4.5382050781e+003;4.5485898438e+003;4.5316665039e+003;4.5307690430e+003;4.5419228516e+003;4.5439741211e+003;4.5488461914e+003;4.5501284180e+003;4.5452563477e+003;4.5511538086e+003;4.5473076172e+003;
8.1250000000e-001;4.5294873047e+003;4.5979487305e+003;4.5825639648e+003;4.5739741211e+003;4.5833334961e+003;4.5630771484e+003;4.5619228516e+003;4.5761538086e+003;4.5776923828e+003;4.5848715820e+003;4.5882050781e+003;4.5812822266e+003;4.5893588867e+003;4.5862822266e+003;
8.2031250000e-001;4.5274360352e+003;4.6007690430e+003;4.5917949219e+003;4.5812822266e+003;4.5802563477e+003;4.5535898438e+003;4.5553847656e+003;4.5719228516e+003;4.5641025391e+003;4.5820512695e+003;4.5911538086e+003;4.5853847656e+003;4.5928203125e+003;4.5850000000e+003;
8.2812500000e-001;4.5475639648e+003;4.6267949219e+003;4.6157690430e+003;4.5969228516e+003;4.5980771484e+003;4.5593588867e+003;4.5634614258e+003;4.5880771484e+003;4.5847436523e+003;4.6061538086e+003;4.6155126953e+003;4.6116665039e+003;4.6158974609e+003;4.6085898438e+003;
8.3593750000e-001;4.5251284180e+003;4.6057690430e+003;4.5942309570e+003;4.5756411133e+003;4.5791025391e+003;4.5380771484e+003;4.5411538086e+003;4.5664101563e+003;4.5653847656e+003;4.5837177734e+003;4.5925639648e+003;4.5889741211e+003;4.5924360352e+003;4.5888461914e+003;
8.4375000000e-001;4.5403847656e+003;4.6310258789e+003;4.6134614258e+003;4.6006411133e+003;4.6114101563e+003;4.5711538086e+003;4.5721796875e+003;4.5973076172e+003;4.6035898438e+003;4.6151284180e+003;4.6176923828e+003;4.6080771484e+003;4.6179487305e+003;4.6125639648e+003;
8.5156250000e-001;4.5235898438e+003;4.6161538086e+003;4.6012822266e+003;4.5884614258e+003;4.5975639648e+003;4.5667949219e+003;4.5661538086e+003;4.5894873047e+003;4.5964101563e+003;4.6035898438e+003;4.6053847656e+003;4.5967949219e+003;4.6065385742e+003;4.6001284180e+003;
8.5937500000e-001;4.4798715820e+003;4.5696152344e+003;4.5550000000e+003;4.5464101563e+003;4.5648715820e+003;4.5514101563e+003;4.5502563477e+003;4.5607690430e+003;4.5610258789e+003;4.5555126953e+003;4.5542309570e+003;4.5491025391e+003;4.5611538086e+003;4.5529487305e+003;
8.6718750000e-001;4.4834614258e+003;4.5733334961e+003;4.5569228516e+003;4.5510258789e+003;4.5741025391e+003;4.5614101563e+003;4.5591025391e+003;4.5705126953e+003;4.5685898438e+003;4.5625639648e+003;4.5564101563e+003;4.5512822266e+003;4.5634614258e+003;4.5530771484e+003;
8.7500000000e-001;4.4444873047e+003;4.5362822266e+003;4.5251284180e+003;4.5206411133e+003;4.5420512695e+003;4.5374360352e+003;4.5303847656e+003;4.5408974609e+003;4.5385898438e+003;4.5308974609e+003;4.5201284180e+003;4.5170512695e+003;4.5262822266e+003;4.5125639648e+003;
8.8281250000e-001;4.4326923828e+003;4.5261538086e+003;4.5171796875e+003;4.5112822266e+003;4.5312822266e+003;4.5296152344e+003;4.5212822266e+003;4.5298715820e+003;4.5279487305e+003;4.5191025391e+003;4.5103847656e+003;4.5071796875e+003;4.5165385742e+003;4.5024360352e+003;
8.9062500000e-001;4.4062822266e+003;4.4985898438e+003;4.4865385742e+003;4.4801284180e+003;4.5012822266e+003;4.5012822266e+003;4.4921796875e+003;4.5060258789e+003;4.5008974609e+003;4.4901284180e+003;4.4844873047e+003;4.4797436523e+003;4.4929487305e+003;4.4797436523e+003;
8.9843750000e-001;4.3784614258e+003;4.4667949219e+003;4.4557690430e+003;4.4501284180e+003;4.4701284180e+003;4.4714101563e+003;4.4630771484e+003;4.4737177734e+003;4.4679487305e+003;4.4565385742e+003;4.4514101563e+003;4.4483334961e+003;4.4605126953e+003;4.4484614258e+003;
9.0625000000e-001;4.4126923828e+003;4.5000000000e+003;4.4916665039e+003;4.4794873047e+003;4.5028203125e+003;4.4976923828e+003;4.4915385742e+003;4.4920512695e+003;4.4887177734e+003;4.4829487305e+003;4.4788461914e+003;4.4783334961e+003;4.4874360352e+003;4.4797436523e+003;
9.1406250000e-001;4.4485898438e+003;4.5387177734e+003;4.5324360352e+003;4.5150000000e+003;4.5396152344e+003;4.5306411133e+003;4.5244873047e+003;4.5247436523e+003;4.5221796875e+003;4.5219228516e+003;4.5171796875e+003;4.5180771484e+003;4.5248715820e+003;4.5197436523e+003;
9.2187500000e-001;4.4574360352e+003;4.5487177734e+003;4.5453847656e+003;4.5247436523e+003;4.5473076172e+003;4.5375639648e+003;4.5310258789e+003;4.5330771484e+003;4.5301284180e+003;4.5337177734e+003;4.5294873047e+003;4.5321796875e+003;4.5365385742e+003;4.5328203125e+003;
9.2968750000e-001;4.4729487305e+003;4.5562822266e+003;4.5505126953e+003;4.5301284180e+003;4.5452563477e+003;4.5183334961e+003;4.5203847656e+003;4.5316665039e+003;4.5278203125e+003;4.5398715820e+003;4.5494873047e+003;4.5558974609e+003;4.5514101563e+003;4.5512822266e+003;
9.3750000000e-001;4.4648715820e+003;4.5461538086e+003;4.5442309570e+003;4.5225639648e+003;4.5350000000e+003;4.5089741211e+003;4.5107690430e+003;4.5217949219e+003;4.5187177734e+003;4.5311538086e+003;4.5405126953e+003;4.5478203125e+003;4.5442309570e+003;4.5441025391e+003;
9.4531250000e-001;4.5250000000e+003;4.6120512695e+003;4.6067949219e+003;4.5862822266e+003;4.6001284180e+003;4.5650000000e+003;4.5701284180e+003;4.5911538086e+003;4.5974360352e+003;4.6043588867e+003;4.6069228516e+003;4.6098715820e+003;4.6178203125e+003;4.6055126953e+003;
9.5312500000e-001;4.4494873047e+003;4.5423076172e+003;4.5388461914e+003;4.5191025391e+003;4.5338461914e+003;4.5100000000e+003;4.5130771484e+003;4.5353847656e+003;4.5414101563e+003;4.5347436523e+003;4.5379487305e+003;4.5415385742e+003;4.5419228516e+003;4.5369228516e+003;
9.6093750000e-001;4.4225639648e+003;4.5151284180e+003;4.5147436523e+003;4.4937177734e+003;4.5115385742e+003;4.4920512695e+003;4.4943588867e+003;4.5141025391e+003;4.5185898438e+003;4.5071796875e+003;4.5117949219e+003;4.5142309570e+003;4.5165385742e+003;4.5112822266e+003;
9.6875000000e-001;4.2853847656e+003;4.3773076172e+003;4.3791025391e+003;4.3684614258e+003;4.3870512695e+003;4.3880771484e+003;4.3819228516e+003;4.3935898438e+003;4.3982050781e+003;4.3771796875e+003;4.3753847656e+003;4.3764101563e+003;4.3846152344e+003;4.3755126953e+003;
9.7656250000e-001;4.2569228516e+003;4.3470512695e+003;4.3447436523e+003;4.3402563477e+003;4.3594873047e+003;4.3655126953e+003;4.3567949219e+003;4.3601284180e+003;4.3655126953e+003;4.3416665039e+003;4.3411538086e+003;4.3412822266e+003;4.3515385742e+003;4.3417949219e+003;
9.8437500000e-001;4.3017949219e+003;4.3867949219e+003;4.3791025391e+003;4.3764101563e+003;4.3973076172e+003;4.4010258789e+003;4.3865385742e+003;4.3917949219e+003;4.4008974609e+003;4.3761538086e+003;4.3761538086e+003;4.3743588867e+003;4.3871796875e+003;4.3755126953e+003;
9.9218750000e-001;4.2675639648e+003;4.3511538086e+003;4.3470512695e+003;4.3444873047e+003;4.3598715820e+003;4.3669228516e+003;4.3511538086e+003;4.3584614258e+003;4.3684614258e+003;4.3419228516e+003;4.3420512695e+003;4.3403847656e+003;4.3506411133e+003;4.3398715820e+003;
1.0000000000e+000;4.2208974609e+003;4.3016665039e+003;4.2988461914e+003;4.2996152344e+003;4.3101284180e+003;4.3229487305e+003;4.3084614258e+003;4.3078203125e+003;4.3175639648e+003;4.2889741211e+003;4.2932050781e+003;4.2891025391e+003;4.2989741211e+003;4.2906411133e+003;
1.0078125000e+000;4.2380771484e+003;4.3158974609e+003;4.3125639648e+003;4.3129487305e+003;4.3255126953e+003;4.3367949219e+003;4.3239741211e+003;4.3214101563e+003;4.3292309570e+003;4.3039741211e+003;4.3094873047e+003;4.3052563477e+003;4.3167949219e+003;4.3098715820e+003;
1.0156250000e+000;4.2525639648e+003;4.3255126953e+003;4.3234614258e+003;4.3228203125e+003;4.3361538086e+003;4.3451284180e+003;4.3335898438e+003;4.3323076172e+003;4.3366665039e+003;4.3169228516e+003;4.3234614258e+003;4.3203847656e+003;4.3334614258e+003;4.3275639648e+003;
1.0234375000e+000;4.2508974609e+003;4.3180771484e+003;4.3183334961e+003;4.3174360352e+003;4.3288461914e+003;4.3361538086e+003;4.3257690430e+003;4.3258974609e+003;4.3257690430e+003;4.3114101563e+003;4.3201284180e+003;4.3182050781e+003;4.3320512695e+003;4.3265385742e+003;
1.0312500000e+000;4.3242309570e+003;4.3832050781e+003;4.3879487305e+003;4.3801284180e+003;4.3833334961e+003;4.3771796875e+003;4.3729487305e+003;4.3752563477e+003;4.3700000000e+003;4.3647436523e+003;4.3787177734e+003;4.3796152344e+003;4.3861538086e+003;4.3816665039e+003;
1.0390625000e+000;4.3276923828e+003;4.3834614258e+003;4.3923076172e+003;4.3800000000e+003;4.3819228516e+003;4.3746152344e+003;4.3717949219e+003;4.3750000000e+003;4.3692309570e+003;4.3653847656e+003;4.3808974609e+003;4.3855126953e+003;4.3870512695e+003;4.3858974609e+003;
1.0468750000e+000;4.4096152344e+003;4.4657690430e+003;4.4662822266e+003;4.4520512695e+003;4.4584614258e+003;4.4353847656e+003;4.4425639648e+003;4.4488461914e+003;4.4415385742e+003;4.4465385742e+003;4.4669228516e+003;4.4641025391e+003;4.4728203125e+003;4.4660258789e+003;
1.0546875000e+000;4.4166665039e+003;4.4787177734e+003;4.4782050781e+003;4.4612822266e+003;4.4688461914e+003;4.4520512695e+003;4.4532050781e+003;4.4639741211e+003;4.4662822266e+003;4.4643588867e+003;4.4800000000e+003;4.4697436523e+003;4.4789741211e+003;4.4720512695e+003;
1.0625000000e+000;4.4258974609e+003;4.4869228516e+003;4.4880771484e+003;4.4693588867e+003;4.4806411133e+003;4.4630771484e+003;4.4643588867e+003;4.4751284180e+003;4.4796152344e+003;4.4752563477e+003;4.4888461914e+003;4.4778203125e+003;4.4878203125e+003;4.4812822266e+003;
1.0703125000e+000;4.4388461914e+003;4.5073076172e+003;4.5024360352e+003;4.4857690430e+003;4.5035898438e+003;4.4873076172e+003;4.4861538086e+003;4.5079487305e+003;4.5102563477e+003;4.5062822266e+003;4.5080771484e+003;4.4951284180e+003;4.5102563477e+003;4.4997436523e+003;
1.0781250000e+000;4.4128203125e+003;4.4834614258e+003;4.4771796875e+003;4.4610258789e+003;4.4802563477e+003;4.4701284180e+003;4.4666665039e+003;4.4838461914e+003;4.4887177734e+003;4.4803847656e+003;4.4821796875e+003;4.4693588867e+003;4.4843588867e+003;4.4747436523e+003;
1.0859375000e+000;4.4215385742e+003;4.4924360352e+003;4.4874360352e+003;4.4675639648e+003;4.4961538086e+003;4.4908974609e+003;4.4866665039e+003;4.4942309570e+003;4.5098715820e+003;4.4910258789e+003;4.4953847656e+003;4.4788461914e+003;4.4920512695e+003;4.4851284180e+003;
1.0937500000e+000;4.4216665039e+003;4.4914101563e+003;4.4901284180e+003;4.4702563477e+003;4.5000000000e+003;4.4973076172e+003;4.4921796875e+003;4.5020512695e+003;4.5198715820e+003;4.4984614258e+003;4.5011538086e+003;4.4829487305e+003;4.4942309570e+003;4.4876923828e+003;
1.1015625000e+000;4.3400000000e+003;4.4041025391e+003;4.4080771484e+003;4.3991025391e+003;4.4219228516e+003;4.4292309570e+003;4.4203847656e+003;4.4335898438e+003;4.4415385742e+003;4.4226923828e+003;4.4171796875e+003;4.4025639648e+003;4.4174360352e+003;4.4050000000e+003;
1.1093750000e+000;4.3547436523e+003;4.4173076172e+003;4.4197436523e+003;4.4092309570e+003;4.4341025391e+003;4.4388461914e+003;4.4311538086e+003;4.4417949219e+003;4.4488461914e+003;4.4326923828e+003;4.4287177734e+003;4.4137177734e+003;4.4316665039e+003;4.4174360352e+003;
1.1171875000e+000;4.3714101563e+003;4.4317949219e+003;4.4343588867e+003;4.4201284180e+003;4.4456411133e+003;4.4480771484e+003;4.4420512695e+003;4.4502563477e+003;4.4580771484e+003;4.4442309570e+003;4.4437177734e+003;4.4287177734e+003;4.4465385742e+003;4.4330771484e+003;
1.1250000000e+000;4.3666665039e+003;4.4241025391e+003;4.4292309570e+003;4.4121796875e+003;4.4342309570e+003;4.4364101563e+003;4.4319228516e+003;4.4380771484e+003;4.4458974609e+003;4.4330771484e+003;4.4378203125e+003;4.4243588867e+003;4.4388461914e+003;4.4279487305e+003;
1.1328125000e+000;4.3534614258e+003;4.4071796875e+003;4.4139741211e+003;4.3980771484e+003;4.4051284180e+003;4.4047436523e+003;4.3985898438e+003;4.4087177734e+003;4.4057690430e+003;4.4067949219e+003;4.4208974609e+003;4.4139741211e+003;4.4215385742e+003;4.4171796875e+003;
1.1406250000e+000;4.3366665039e+003;4.3897436523e+003;4.3919228516e+003;4.3779487305e+003;4.3810258789e+003;4.3715385742e+003;4.3703847656e+003;4.3756411133e+003;4.3761538086e+003;4.3752563477e+003;4.3967949219e+003;4.3851284180e+003;4.3920512695e+003;4.3958974609e+003;
1.1484375000e+000;4.3562822266e+003;4.4092309570e+003;4.4088461914e+003;4.3974360352e+003;4.3976923828e+003;4.3844873047e+003;4.3862822266e+003;4.3946152344e+003;4.3979487305e+003;4.3974360352e+003;4.4192309570e+003;4.4053847656e+003;4.4142309570e+003;4.4148715820e+003;
1.1562500000e+000;4.3305126953e+003;4.3810258789e+003;4.3834614258e+003;4.3750000000e+003;4.3701284180e+003;4.3587177734e+003;4.3573076172e+003;4.3721796875e+003;4.3787177734e+003;4.3771796875e+003;4.3953847656e+003;4.3852563477e+003;4.3915385742e+003;4.3894873047e+003;
1.1640625000e+000;4.3085898438e+003;4.3592309570e+003;4.3612822266e+003;4.3555126953e+003;4.3493588867e+003;4.3401284180e+003;4.3357690430e+003;4.3600000000e+003;4.3652563477e+003;4.3553847656e+003;4.3708974609e+003;4.3611538086e+003;4.3691025391e+003;4.3696152344e+003;
1.1718750000e+000;4.2575639648e+003;4.3039741211e+003;4.3102563477e+003;4.3074360352e+003;4.2967949219e+003;4.2971796875e+003;4.2906411133e+003;4.3116665039e+003;4.3176923828e+003;4.3058974609e+003;4.3233334961e+003;4.3129487305e+003;4.3198715820e+003;4.3192309570e+003;
1.1796875000e+000;4.1929487305e+003;4.2341025391e+003;4.2410258789e+003;4.2446152344e+003;4.2314101563e+003;4.2450000000e+003;4.2348715820e+003;4.2457690430e+003;4.2556411133e+003;4.2419228516e+003;4.2606411133e+003;4.2473076172e+003;4.2578203125e+003;4.2557690430e+003;
1.1875000000e+000;4.1776923828e+003;4.2187177734e+003;4.2223076172e+003;4.2284614258e+003;4.2150000000e+003;4.2319228516e+003;4.2198715820e+003;4.2303847656e+003;4.2402563477e+003;4.2267949219e+003;4.2425639648e+003;4.2296152344e+003;4.2419228516e+003;4.2417949219e+003;
1.1953125000e+000;4.0673076172e+003;4.1017949219e+003;4.1051284180e+003;4.1193588867e+003;4.0991025391e+003;4.1282050781e+003;4.1134614258e+003;4.1133334961e+003;4.1197436523e+003;4.0970512695e+003;4.1147436523e+003;4.1112822266e+003;4.1156411133e+003;4.1215385742e+003;
1.2031250000e+000;4.0670512695e+003;4.0969228516e+003;4.1025639648e+003;4.1178203125e+003;4.0983334961e+003;4.1271796875e+003;4.1139741211e+003;4.1075639648e+003;4.1158974609e+003;4.0902563477e+003;4.1097436523e+003;4.1069228516e+003;4.1097436523e+003;4.1151284180e+003;
1.2109375000e+000;4.0638461914e+003;4.0855129395e+003;4.0971796875e+003;4.1115385742e+003;4.0930769043e+003;4.1215385742e+003;4.1101284180e+003;4.1035898438e+003;4.1139741211e+003;4.0857692871e+003;4.1015385742e+003;4.0988461914e+003;4.0996152344e+003;4.1061538086e+003;
1.2187500000e+000;4.0300000000e+003;4.0471794434e+003;4.0612819824e+003;4.0753845215e+003;4.0555129395e+003;4.0864101563e+003;4.0761538086e+003;4.0702563477e+003;4.0778205566e+003;4.0484614258e+003;4.0643588867e+003;4.0621794434e+003;4.0617949219e+003;4.0696154785e+003;
1.2265625000e+000;4.0048718262e+003;4.0083332520e+003;4.0247436523e+003;4.0374357910e+003;4.0184614258e+003;4.0500000000e+003;4.0416667480e+003;4.0342307129e+003;4.0300000000e+003;4.0061538086e+003;4.0328205566e+003;4.0308974609e+003;4.0256411133e+003;4.0351281738e+003;
1.2343750000e+000;3.9952563477e+003;3.9958974609e+003;4.0144870605e+003;4.0279487305e+003;4.0065385742e+003;4.0391025391e+003;4.0287180176e+003;4.0229487305e+003;4.0166667480e+003;3.9961538086e+003;4.0234614258e+003;4.0233332520e+003;4.0139743652e+003;4.0253845215e+003;
1.2421875000e+000;3.9684614258e+003;3.9665385742e+003;3.9865385742e+003;4.0017949219e+003;3.9762819824e+003;4.0102563477e+003;3.9991025391e+003;3.9928205566e+003;3.9852563477e+003;3.9660256348e+003;3.9938461914e+003;3.9957692871e+003;3.9829487305e+003;3.9969230957e+003;
1.2500000000e+000;3.9503845215e+003;3.9452563477e+003;3.9650000000e+003;3.9810256348e+003;3.9534614258e+003;3.9861538086e+003;3.9764101563e+003;3.9682050781e+003;3.9600000000e+003;3.9396154785e+003;3.9698718262e+003;3.9724357910e+003;3.9585898438e+003;3.9747436523e+003;
1.2578125000e+000;3.9562819824e+003;3.9280769043e+003;3.9571794434e+003;3.9675642090e+003;3.9347436523e+003;3.9571794434e+003;3.9469230957e+003;3.9501281738e+003;3.9508974609e+003;3.9270512695e+003;3.9667949219e+003;3.9705129395e+003;3.9552563477e+003;3.9764101563e+003;
1.2656250000e+000;3.9383332520e+003;3.9071794434e+003;3.9365385742e+003;3.9496154785e+003;3.9132050781e+003;3.9346154785e+003;3.9235898438e+003;3.9285898438e+003;3.9301281738e+003;3.9083332520e+003;3.9465385742e+003;3.9505129395e+003;3.9361538086e+003;3.9552563477e+003;
1.2734375000e+000;3.9765385742e+003;3.9415385742e+003;3.9644870605e+003;3.9792307129e+003;3.9480769043e+003;3.9575642090e+003;3.9492307129e+003;3.9684614258e+003;3.9678205566e+003;3.9479487305e+003;3.9773076172e+003;3.9767949219e+003;3.9696154785e+003;3.9770512695e+003;
1.2812500000e+000;3.9414101563e+003;3.8964101563e+003;3.9269230957e+003;3.9387180176e+003;3.9100000000e+003;3.9308974609e+003;3.9279487305e+003;3.9388461914e+003;3.9401281738e+003;3.9093588867e+003;3.9376923828e+003;3.9383332520e+003;3.9296154785e+003;3.9369230957e+003;
1.2890625000e+000;3.9435898438e+003;3.8978205566e+003;3.9225642090e+003;3.9452563477e+003;3.9203845215e+003;3.9555129395e+003;3.9466667480e+003;3.9397436523e+003;3.9455129395e+003;3.9069230957e+003;3.9223076172e+003;3.9306411133e+003;3.9169230957e+003;3.9179487305e+003;
1.2968750000e+000;3.9562819824e+003;3.9097436523e+003;3.9298718262e+003;3.9550000000e+003;3.9326923828e+003;3.9676923828e+003;3.9575642090e+003;3.9491025391e+003;3.9552563477e+003;3.9151281738e+003;3.9323076172e+003;3.9361538086e+003;3.9265385742e+003;3.9261538086e+003;
1.3046875000e+000;3.9983332520e+003;3.9519230957e+003;3.9684614258e+003;3.9887180176e+003;3.9711538086e+003;4.0017949219e+003;3.9926923828e+003;3.9906411133e+003;3.9984614258e+003;3.9582050781e+003;3.9756411133e+003;3.9743588867e+003;3.9679487305e+003;3.9657692871e+003;
1.3125000000e+000;3.9821794434e+003;3.9334614258e+003;3.9547436523e+003;3.9712819824e+003;3.9524357910e+003;3.9841025391e+003;3.9751281738e+003;3.9741025391e+003;3.9823076172e+003;3.9406411133e+003;3.9571794434e+003;3.9600000000e+003;3.9501281738e+003;3.9489743652e+003;
1.3203125000e+000;3.9861538086e+003;3.9329487305e+003;3.9594870605e+003;3.9770512695e+003;3.9575642090e+003;3.9888461914e+003;3.9764101563e+003;3.9682050781e+003;3.9770512695e+003;3.9343588867e+003;3.9515385742e+003;3.9625642090e+003;3.9505129395e+003;3.9523076172e+003;
1.3281250000e+000;4.0114101563e+003;3.9602563477e+003;3.9825642090e+003;4.0019230957e+003;3.9826923828e+003;4.0134614258e+003;3.9996154785e+003;3.9932050781e+003;4.0008974609e+003;3.9616667480e+003;3.9792307129e+003;3.9880769043e+003;3.9767949219e+003;3.9789743652e+003;
1.3359375000e+000;4.0208974609e+003;3.9694870605e+003;3.9867949219e+003;4.0080769043e+003;3.9852563477e+003;4.0155129395e+003;4.0032050781e+003;3.9966667480e+003;4.0003845215e+003;3.9661538086e+003;3.9875642090e+003;3.9948718262e+003;3.9821794434e+003;3.9841025391e+003;
1.3437500000e+000;4.0358974609e+003;3.9823076172e+003;3.9989743652e+003;4.0197436523e+003;3.9962819824e+003;4.0210256348e+003;4.0117949219e+003;4.0044870605e+003;4.0062819824e+003;3.9750000000e+003;3.9983332520e+003;4.0065385742e+003;3.9938461914e+003;3.9941025391e+003;
1.3515625000e+000;4.0398718262e+003;3.9792307129e+003;4.0047436523e+003;4.0178205566e+003;3.9907692871e+003;4.0014101563e+003;3.9919230957e+003;3.9955129395e+003;3.9929487305e+003;3.9716667480e+003;3.9960256348e+003;4.0108974609e+003;3.9955129395e+003;3.9998718262e+003;
1.3593750000e+000;4.0187180176e+003;3.9562819824e+003;3.9833332520e+003;3.9951281738e+003;3.9651281738e+003;3.9748718262e+003;3.9653845215e+003;3.9671794434e+003;3.9653845215e+003;3.9434614258e+003;3.9703845215e+003;3.9855129395e+003;3.9708974609e+003;3.9787180176e+003;
1.3671875000e+000;4.0270512695e+003;3.9648718262e+003;3.9889743652e+003;4.0010256348e+003;3.9693588867e+003;3.9751281738e+003;3.9684614258e+003;3.9674357910e+003;3.9674357910e+003;3.9450000000e+003;3.9733332520e+003;3.9865385742e+003;3.9744870605e+003;3.9838461914e+003;
1.3750000000e+000;4.0596154785e+003;4.0002563477e+003;4.0189743652e+003;4.0315385742e+003;3.9993588867e+003;3.9993588867e+003;3.9961538086e+003;3.9964101563e+003;3.9974357910e+003;3.9766667480e+003;4.0029487305e+003;4.0141025391e+003;4.0037180176e+003;4.0128205566e+003;
1.3828125000e+000;4.0342307129e+003;3.9812819824e+003;3.9978205566e+003;4.0088461914e+003;3.9741025391e+003;3.9832050781e+003;3.9765385742e+003;3.9879487305e+003;3.9858974609e+003;3.9578205566e+003;3.9792307129e+003;3.9962819824e+003;3.9793588867e+003;3.9880769043e+003;
1.3906250000e+000;4.0507692871e+003;3.9976923828e+003;4.0117949219e+003;4.0238461914e+003;3.9926923828e+003;4.0012819824e+003;3.9967949219e+003;4.0073076172e+003;4.0066667480e+003;3.9757692871e+003;3.9958974609e+003;4.0126923828e+003;3.9965385742e+003;4.0050000000e+003;
1.3984375000e+000;4.0256411133e+003;3.9732050781e+003;3.9860256348e+003;4.0056411133e+003;3.9778205566e+003;3.9996154785e+003;3.9930769043e+003;3.9998718262e+003;4.0024357910e+003;3.9693588867e+003;3.9766667480e+003;3.9889743652e+003;3.9782050781e+003;3.9819230957e+003;
1.4062500000e+000;4.0374357910e+003;3.9844870605e+003;3.9969230957e+003;4.0169230957e+003;3.9970512695e+003;4.0248718262e+003;4.0120512695e+003;4.0147436523e+003;4.0208974609e+003;3.9846154785e+003;3.9924357910e+003;3.9974357910e+003;3.9947436523e+003;3.9971794434e+003;
1.4140625000e+000;4.0244870605e+003;3.9703845215e+003;3.9850000000e+003;4.0051281738e+003;3.9826923828e+003;4.0123076172e+003;4.0000000000e+003;4.0038461914e+003;4.0125642090e+003;3.9741025391e+003;3.9810256348e+003;3.9879487305e+003;3.9823076172e+003;3.9861538086e+003;
1.4218750000e+000;3.9844870605e+003;3.9215385742e+003;3.9457692871e+003;3.9651281738e+003;3.9424357910e+003;3.9732050781e+003;3.9646154785e+003;3.9610256348e+003;3.9756411133e+003;3.9306411133e+003;3.9392307129e+003;3.9456411133e+003;3.9407692871e+003;3.9411538086e+003;
1.4296875000e+000;3.9650000000e+003;3.8974357910e+003;3.9235898438e+003;3.9389743652e+003;3.9134614258e+003;3.9450000000e+003;3.9382050781e+003;3.9312819824e+003;3.9473076172e+003;3.9062819824e+003;3.9139743652e+003;3.9280769043e+003;3.9132050781e+003;3.9212819824e+003;
1.4375000000e+000;3.9467949219e+003;3.8774357910e+003;3.9033332520e+003;3.9210256348e+003;3.8897436523e+003;3.9207692871e+003;3.9155129395e+003;3.9060256348e+003;3.9221794434e+003;3.8808974609e+003;3.8902563477e+003;3.9094870605e+003;3.8903845215e+003;3.9000000000e+003;
1.4453125000e+000;3.9385898438e+003;3.8641025391e+003;3.8967949219e+003;3.9164101563e+003;3.8752563477e+003;3.9008974609e+003;3.8935898438e+003;3.8861538086e+003;3.9008974609e+003;3.8629487305e+003;3.8797436523e+003;3.9003845215e+003;3.8821794434e+003;3.8924357910e+003;
1.4531250000e+000;3.9125642090e+003;3.8358974609e+003;3.8706411133e+003;3.8908974609e+003;3.8474357910e+003;3.8753845215e+003;3.8661538086e+003;3.8578205566e+003;3.8693588867e+003;3.8350000000e+003;3.8528205566e+003;3.8742307129e+003;3.8561538086e+003;3.8683332520e+003;
1.4609375000e+000;3.9198718262e+003;3.8401281738e+003;3.8702563477e+003;3.8910256348e+003;3.8479487305e+003;3.8750000000e+003;3.8673076172e+003;3.8570512695e+003;3.8650000000e+003;3.8371794434e+003;3.8539743652e+003;3.8782050781e+003;3.8598718262e+003;3.8741025391e+003;
1.4687500000e+000;3.9403845215e+003;3.8594870605e+003;3.8888461914e+003;3.9080769043e+003;3.8653845215e+003;3.8898718262e+003;3.8830769043e+003;3.8764101563e+003;3.8852563477e+003;3.8573076172e+003;3.8738461914e+003;3.8991025391e+003;3.8784614258e+003;3.8943588867e+003;
1.4765625000e+000;3.8850000000e+003;3.7973076172e+003;3.8373076172e+003;3.8561538086e+003;3.8091025391e+003;3.8325642090e+003;3.8273076172e+003;3.8248718262e+003;3.8346154785e+003;3.7950000000e+003;3.8206411133e+003;3.8444870605e+003;3.8152563477e+003;3.8344870605e+003;
1.4843750000e+000;3.8961538086e+003;3.8078205566e+003;3.8439743652e+003;3.8650000000e+003;3.8207692871e+003;3.8415385742e+003;3.8380769043e+003;3.8355129395e+003;3.8450000000e+003;3.8055129395e+003;3.8301281738e+003;3.8514101563e+003;3.8243588867e+003;3.8411538086e+003;
1.4921875000e+000;3.9235898438e+003;3.8357692871e+003;3.8655129395e+003;3.8888461914e+003;3.8474357910e+003;3.8666667480e+003;3.8638461914e+003;3.8638461914e+003;3.8741025391e+003;3.8366667480e+003;3.8555129395e+003;3.8756411133e+003;3.8503845215e+003;3.8655129395e+003;
1.5000000000e+000;3.9371794434e+003;3.8498718262e+003;3.8750000000e+003;3.9001281738e+003;3.8596154785e+003;3.8810256348e+003;3.8770512695e+003;3.8803845215e+003;3.8923076172e+003;3.8556411133e+003;3.8676923828e+003;3.8887180176e+003;3.8629487305e+003;3.8782050781e+003;
1.5078125000e+000;3.9703845215e+003;3.8807692871e+003;3.9048718262e+003;3.9264101563e+003;3.9001281738e+003;3.9257692871e+003;3.9232050781e+003;3.9212819824e+003;3.9388461914e+003;3.8941025391e+003;3.9024357910e+003;3.9228205566e+003;3.8992307129e+003;3.9105129395e+003;
1.5156250000e+000;3.9738461914e+003;3.8838461914e+003;3.9080769043e+003;3.9303845215e+003;3.9052563477e+003;3.9332050781e+003;3.9296154785e+003;3.9283332520e+003;3.9458974609e+003;3.9011538086e+003;3.9066667480e+003;3.9258974609e+003;3.9047436523e+003;3.9142307129e+003;
1.5234375000e+000;3.9600000000e+003;3.8746154785e+003;3.8917949219e+003;3.9187180176e+003;3.8893588867e+003;3.9298718262e+003;3.9173076172e+003;3.9105129395e+003;3.9328205566e+003;3.8855129395e+003;3.8873076172e+003;3.9046154785e+003;3.8915385742e+003;3.8957692871e+003;
1.5312500000e+000;3.9717949219e+003;3.8879487305e+003;3.9073076172e+003;3.9302563477e+003;3.9058974609e+003;3.9384614258e+003;3.9220512695e+003;3.9297436523e+003;3.9469230957e+003;3.9079487305e+003;3.9108974609e+003;3.9239743652e+003;3.9080769043e+003;3.9116667480e+003;
1.5390625000e+000;3.9582050781e+003;3.8724357910e+003;3.8906411133e+003;3.9170512695e+003;3.8921794434e+003;3.9220512695e+003;3.9084614258e+003;3.9147436523e+003;3.9289743652e+003;3.8907692871e+003;3.8960256348e+003;3.9080769043e+003;3.8942307129e+003;3.8960256348e+003;
1.5468750000e+000;4.0269230957e+003;3.9487180176e+003;3.9588461914e+003;3.9812819824e+003;3.9582050781e+003;3.9839743652e+003;3.9720512695e+003;3.9762819824e+003;3.9938461914e+003;3.9602563477e+003;3.9651281738e+003;3.9792307129e+003;3.9715385742e+003;3.9678205566e+003;
1.5546875000e+000;4.0064101563e+003;3.9288461914e+003;3.9443588867e+003;3.9647436523e+003;3.9370512695e+003;3.9597436523e+003;3.9465385742e+003;3.9450000000e+003;3.9575642090e+003;3.9323076172e+003;3.9446154785e+003;3.9582050781e+003;3.9452563477e+003;3.9452563477e+003;
1.5625000000e+000;4.0269230957e+003;3.9520512695e+003;3.9643588867e+003;3.9875642090e+003;3.9602563477e+003;3.9771794434e+003;3.9678205566e+003;3.9652563477e+003;3.9779487305e+003;3.9528205566e+003;3.9667949219e+003;3.9776923828e+003;3.9666667480e+003;3.9661538086e+003;
1.5703125000e+000;4.0361538086e+003;3.9644870605e+003;3.9746154785e+003;3.9994870605e+003;3.9726923828e+003;3.9871794434e+003;3.9801281738e+003;3.9784614258e+003;3.9925642090e+003;3.9664101563e+003;3.9798718262e+003;3.9902563477e+003;3.9798718262e+003;3.9792307129e+003;
1.5781250000e+000;4.0051281738e+003;3.9339743652e+003;3.9458974609e+003;3.9685898438e+003;3.9428205566e+003;3.9608974609e+003;3.9547436523e+003;3.9502563477e+003;3.9637180176e+003;3.9394870605e+003;3.9498718262e+003;3.9644870605e+003;3.9511538086e+003;3.9512819824e+003;
1.5859375000e+000;4.0115385742e+003;3.9374357910e+003;3.9505129395e+003;3.9705129395e+003;3.9460256348e+003;3.9629487305e+003;3.9584614258e+003;3.9508974609e+003;3.9615385742e+003;3.9417949219e+003;3.9512819824e+003;3.9669230957e+003;3.9529487305e+003;3.9520512695e+003;
1.5937500000e+000;4.0570512695e+003;3.9779487305e+003;3.9944870605e+003;4.0094870605e+003;3.9847436523e+003;3.9958974609e+003;3.9947436523e+003;3.9888461914e+003;3.9965385742e+003;3.9806411133e+003;3.9898718262e+003;4.0046154785e+003;3.9889743652e+003;3.9883332520e+003;
1.6015625000e+000;4.0543588867e+003;3.9750000000e+003;3.9948718262e+003;4.0083332520e+003;3.9820512695e+003;3.9935898438e+003;3.9929487305e+003;3.9878205566e+003;3.9971794434e+003;3.9769230957e+003;3.9874357910e+003;4.0026923828e+003;3.9850000000e+003;3.9871794434e+003;
1.6093750000e+000;4.0884614258e+003;4.0171794434e+003;4.0378205566e+003;4.0444870605e+003;4.0267949219e+003;4.0374357910e+003;4.0325642090e+003;4.0282050781e+003;4.0438461914e+003;4.0180769043e+003;4.0226923828e+003;4.0432050781e+003;4.0256411133e+003;4.0284614258e+003;
1.6171875000e+000;4.1010258789e+003;4.0312819824e+003;4.0506411133e+003;4.0555129395e+003;4.0401281738e+003;4.0526923828e+003;4.0421794434e+003;4.0429487305e+003;4.0574357910e+003;4.0360256348e+003;4.0341025391e+003;4.0561538086e+003;4.0400000000e+003;4.0391025391e+003;
1.6250000000e+000;4.0808974609e+003;4.0110256348e+003;4.0292307129e+003;4.0353845215e+003;4.0185898438e+003;4.0369230957e+003;4.0205129395e+003;4.0237180176e+003;4.0366667480e+003;4.0176923828e+003;4.0117949219e+003;4.0334614258e+003;4.0194870605e+003;4.0152563477e+003;
1.6328125000e+000;4.0528205566e+003;3.9978205566e+003;4.0034614258e+003;4.0219230957e+003;4.0079487305e+003;4.0285898438e+003;4.0082050781e+003;4.0032050781e+003;4.0260256348e+003;3.9993588867e+003;3.9948718262e+003;4.0037180176e+003;3.9987180176e+003;3.9953845215e+003;
1.6406250000e+000;4.0330769043e+003;3.9774357910e+003;3.9861538086e+003;4.0030769043e+003;3.9894870605e+003;4.0139743652e+003;3.9921794434e+003;3.9864101563e+003;4.0069230957e+003;3.9812819824e+003;3.9737180176e+003;3.9871794434e+003;3.9807692871e+003;3.9773076172e+003;
1.6484375000e+000;4.0600000000e+003;4.0025642090e+003;4.0087180176e+003;4.0224357910e+003;4.0135898438e+003;4.0335898438e+003;4.0167949219e+003;4.0111538086e+003;4.0250000000e+003;4.0014101563e+003;3.9978205566e+003;4.0069230957e+003;4.0046154785e+003;4.0015385742e+003;
1.6562500000e+000;4.0184614258e+003;3.9620512695e+003;3.9746154785e+003;3.9858974609e+003;3.9658974609e+003;3.9883332520e+003;3.9729487305e+003;3.9656411133e+003;3.9741025391e+003;3.9525642090e+003;3.9594870605e+003;3.9717949219e+003;3.9653845215e+003;3.9646154785e+003;
1.6640625000e+000;4.0415385742e+003;3.9848718262e+003;3.9992307129e+003;4.0082050781e+003;3.9883332520e+003;4.0084614258e+003;3.9947436523e+003;3.9867949219e+003;3.9934614258e+003;3.9758974609e+003;3.9826923828e+003;3.9965385742e+003;3.9903845215e+003;3.9889743652e+003;
1.6718750000e+000;4.0385898438e+003;3.9751281738e+003;3.9955129395e+003;3.9994870605e+003;3.9715385742e+003;3.9906411133e+003;3.9802563477e+003;3.9775642090e+003;3.9802563477e+003;3.9714101563e+003;3.9758974609e+003;3.9928205566e+003;3.9797436523e+003;3.9844870605e+003;
1.6796875000e+000;4.0217949219e+003;3.9548718262e+003;3.9769230957e+003;3.9800000000e+003;3.9494870605e+003;3.9669230957e+003;3.9570512695e+003;3.9538461914e+003;3.9571794434e+003;3.9469230957e+003;3.9544870605e+003;3.9720512695e+003;3.9576923828e+003;3.9629487305e+003;
1.6875000000e+000;4.0426923828e+003;3.9747436523e+003;3.9955129395e+003;3.9985898438e+003;3.9696154785e+003;3.9791025391e+003;3.9700000000e+003;3.9706411133e+003;3.9764101563e+003;3.9664101563e+003;3.9760256348e+003;3.9933332520e+003;3.9779487305e+003;3.9808974609e+003;
1.6953125000e+000;4.0452563477e+003;3.9785898438e+003;3.9974357910e+003;4.0033332520e+003;3.9742307129e+003;3.9834614258e+003;3.9752563477e+003;3.9776923828e+003;3.9838461914e+003;3.9747436523e+003;3.9826923828e+003;4.0001281738e+003;3.9824357910e+003;3.9852563477e+003;
1.7031250000e+000;4.0748718262e+003;4.0070512695e+003;4.0200000000e+003;4.0301281738e+003;4.0053845215e+003;4.0143588867e+003;4.0114101563e+003;4.0137180176e+003;4.0210256348e+003;4.0070512695e+003;4.0134614258e+003;4.0266667480e+003;4.0085898438e+003;4.0133332520e+003;
1.7109375000e+000;4.0947436523e+003;4.0262819824e+003;4.0402563477e+003;4.0478205566e+003;4.0273076172e+003;4.0337180176e+003;4.0291025391e+003;4.0374357910e+003;4.0451281738e+003;4.0285898438e+003;4.0338461914e+003;4.0466667480e+003;4.0294870605e+003;4.0344870605e+003;
1.7187500000e+000;4.0510256348e+003;3.9883332520e+003;4.0056411133e+003;4.0147436523e+003;3.9953845215e+003;4.0076923828e+003;3.9961538086e+003;4.0100000000e+003;4.0183332520e+003;3.9948718262e+003;3.9976923828e+003;4.0114101563e+003;3.9942307129e+003;3.9979487305e+003;
1.7265625000e+000;4.0297436523e+003;3.9728205566e+003;3.9878205566e+003;4.0005129395e+003;3.9819230957e+003;3.9982050781e+003;3.9858974609e+003;3.9948718262e+003;4.0039743652e+003;3.9782050781e+003;3.9805129395e+003;3.9923076172e+003;3.9775642090e+003;3.9794870605e+003;
1.7343750000e+000;4.0446154785e+003;3.9970512695e+003;4.0026923828e+003;4.0197436523e+003;4.0091025391e+003;4.0250000000e+003;4.0108974609e+003;4.0125642090e+003;4.0253845215e+003;4.0021794434e+003;4.0017949219e+003;4.0073076172e+003;4.0006411133e+003;4.0005129395e+003;
1.7421875000e+000;4.0194870605e+003;3.9693588867e+003;3.9767949219e+003;3.9944870605e+003;3.9834614258e+003;4.0006411133e+003;3.9829487305e+003;3.9837180176e+003;3.9976923828e+003;3.9733332520e+003;3.9738461914e+003;3.9808974609e+003;3.9730769043e+003;3.9739743652e+003;
1.7500000000e+000;4.0012819824e+003;3.9482050781e+003;3.9570512695e+003;3.9758974609e+003;3.9642307129e+003;3.9825642090e+003;3.9626923828e+003;3.9608974609e+003;3.9761538086e+003;3.9503845215e+003;3.9523076172e+003;3.9597436523e+003;3.9512819824e+003;3.9521794434e+003;
1.7578125000e+000;4.0050000000e+003;3.9505129395e+003;3.9591025391e+003;3.9780769043e+003;3.9670512695e+003;3.9855129395e+003;3.9660256348e+003;3.9619230957e+003;3.9787180176e+003;3.9530769043e+003;3.9548718262e+003;3.9606411133e+003;3.9534614258e+003;3.9525642090e+003;
1.7656250000e+000;3.9384614258e+003;3.8747436523e+003;3.8852563477e+003;3.9067949219e+003;3.8850000000e+003;3.9119230957e+003;3.8957692871e+003;3.8861538086e+003;3.9052563477e+003;3.8833332520e+003;3.8834614258e+003;3.8892307129e+003;3.8866667480e+003;3.8839743652e+003;
1.7734375000e+000;3.9369230957e+003;3.8666667480e+003;3.8807692871e+003;3.8979487305e+003;3.8758974609e+003;3.8984614258e+003;3.8770512695e+003;3.8692307129e+003;3.8884614258e+003;3.8760256348e+003;3.8783332520e+003;3.8884614258e+003;3.8791025391e+003;3.8812819824e+003;
1.7812500000e+000;3.9003845215e+003;3.8274357910e+003;3.8429487305e+003;3.8603845215e+003;3.8384614258e+003;3.8606411133e+003;3.8423076172e+003;3.8329487305e+003;3.8485898438e+003;3.8379487305e+003;3.8389743652e+003;3.8515385742e+003;3.8412819824e+003;3.8438461914e+003;
1.7890625000e+000;3.8882050781e+003;3.8112819824e+003;3.8274357910e+003;3.8470512695e+003;3.8215385742e+003;3.8389743652e+003;3.8273076172e+003;3.8214101563e+003;3.8301281738e+003;3.8200000000e+003;3.8224357910e+003;3.8370512695e+003;3.8246154785e+003;3.8284614258e+003;
1.7968750000e+000;3.8375642090e+003;3.7510256348e+003;3.7774357910e+003;3.7984614258e+003;3.7616667480e+003;3.7830769043e+003;3.7702563477e+003;3.7693588867e+003;3.7703845215e+003;3.7550000000e+003;3.7700000000e+003;3.7825642090e+003;3.7656411133e+003;3.7685898438e+003;
1.8046875000e+000;3.8517949219e+003;3.7664101563e+003;3.7888461914e+003;3.8098718262e+003;3.7776923828e+003;3.7946154785e+003;3.7823076172e+003;3.7848718262e+003;3.7864101563e+003;3.7725642090e+003;3.7850000000e+003;3.7952563477e+003;3.7832050781e+003;3.7839743652e+003;
1.8125000000e+000;3.8282050781e+003;3.7410256348e+003;3.7606411133e+003;3.7858974609e+003;3.7517949219e+003;3.7726923828e+003;3.7597436523e+003;3.7683332520e+003;3.7721794434e+003;3.7519230957e+003;3.7588461914e+003;3.7693588867e+003;3.7585898438e+003;3.7616667480e+003;
1.8203125000e+000;3.8053845215e+003;3.7151281738e+003;3.7342307129e+003;3.7643588867e+003;3.7273076172e+003;3.7538461914e+003;3.7406411133e+003;3.7458974609e+003;3.7514101563e+003;3.7241025391e+003;3.7302563477e+003;3.7416667480e+003;3.7294870605e+003;3.7338461914e+003;
1.8281250000e+000;3.8496154785e+003;3.7552563477e+003;3.7715385742e+003;3.8067949219e+003;3.7793588867e+003;3.8115385742e+003;3.7946154785e+003;3.7939743652e+003;3.8055129395e+003;3.7711538086e+003;3.7637180176e+003;3.7734614258e+003;3.7597436523e+003;3.7602563477e+003;
1.8359375000e+000;3.8341025391e+003;3.7384614258e+003;3.7588461914e+003;3.7923076172e+003;3.7671794434e+003;3.8043588867e+003;3.7834614258e+003;3.7832050781e+003;3.7960256348e+003;3.7603845215e+003;3.7482050781e+003;3.7591025391e+003;3.7441025391e+003;3.7441025391e+003;
1.8437500000e+000;3.7971794434e+003;3.6955129395e+003;3.7212819824e+003;3.7544870605e+003;3.7293588867e+003;3.7732050781e+003;3.7489743652e+003;3.7412819824e+003;3.7592307129e+003;3.7193588867e+003;3.7091025391e+003;3.7196154785e+003;3.7069230957e+003;3.7048718262e+003;
1.8515625000e+000;3.8061538086e+003;3.7010256348e+003;3.7247436523e+003;3.7605129395e+003;3.7341025391e+003;3.7761538086e+003;3.7528205566e+003;3.7420512695e+003;3.7634614258e+003;3.7250000000e+003;3.7170512695e+003;3.7251281738e+003;3.7147436523e+003;3.7108974609e+003;
1.8593750000e+000;3.7673076172e+003;3.6558974609e+003;3.6703845215e+003;3.7194870605e+003;3.6785898438e+003;3.7203845215e+003;3.6976923828e+003;3.6851281738e+003;3.7112819824e+003;3.6794870605e+003;3.6751281738e+003;3.6801281738e+003;3.6669230957e+003;3.6615385742e+003;
1.8671875000e+000;3.7633332520e+003;3.6524357910e+003;3.6665385742e+003;3.7153845215e+003;3.6723076172e+003;3.7135898438e+003;3.6906411133e+003;3.6783332520e+003;3.7050000000e+003;3.6724357910e+003;3.6710256348e+003;3.6753845215e+003;3.6629487305e+003;3.6564101563e+003;
1.8750000000e+000;3.7789743652e+003;3.6688461914e+003;3.6841025391e+003;3.7293588867e+003;3.6857692871e+003;3.7255129395e+003;3.7019230957e+003;3.6925642090e+003;3.7193588867e+003;3.6873076172e+003;3.6883332520e+003;3.6921794434e+003;3.6821794434e+003;3.6741025391e+003;
1.8828125000e+000;3.7880769043e+003;3.6771794434e+003;3.6948718262e+003;3.7358974609e+003;3.6907692871e+003;3.7302563477e+003;3.7051281738e+003;3.6996154785e+003;3.7255129395e+003;3.6967949219e+003;3.6984614258e+003;3.7034614258e+003;3.6952563477e+003;3.6871794434e+003;
1.8906250000e+000;3.7750000000e+003;3.6576923828e+003;3.6674357910e+003;3.7116667480e+003;3.6602563477e+003;3.6914101563e+003;3.6767949219e+003;3.6629487305e+003;3.6728205566e+003;3.6560256348e+003;3.6679487305e+003;3.6760256348e+003;3.6656411133e+003;3.6650000000e+003;
1.8984375000e+000;3.7891025391e+003;3.6721794434e+003;3.6825642090e+003;3.7273076172e+003;3.6748718262e+003;3.7050000000e+003;3.6923076172e+003;3.6826923828e+003;3.6888461914e+003;3.6717949219e+003;3.6851281738e+003;3.6907692871e+003;3.6805129395e+003;3.6794870605e+003;
1.9062500000e+000;3.7730769043e+003;3.6394870605e+003;3.6615385742e+003;3.6991025391e+003;3.6456411133e+003;3.6784614258e+003;3.6639743652e+003;3.6555129395e+003;3.6562819824e+003;3.6441025391e+003;3.6576923828e+003;3.6723076172e+003;3.6570512695e+003;3.6626923828e+003;
1.9140625000e+000;3.8173076172e+003;3.6789743652e+003;3.7021794434e+003;3.7302563477e+003;3.6829487305e+003;3.7061538086e+003;3.7001281738e+003;3.6911538086e+003;3.6865385742e+003;3.6841025391e+003;3.6944870605e+003;3.7161538086e+003;3.6925642090e+003;3.7046154785e+003;
1.9218750000e+000;3.7953845215e+003;3.6592307129e+003;3.6815385742e+003;3.7129487305e+003;3.6632050781e+003;3.6911538086e+003;3.6828205566e+003;3.6757692871e+003;3.6717949219e+003;3.6658974609e+003;3.6756411133e+003;3.6939743652e+003;3.6729487305e+003;3.6811538086e+003;
1.9296875000e+000;3.8482050781e+003;3.7178205566e+003;3.7225642090e+003;3.7632050781e+003;3.7215385742e+003;3.7498718262e+003;3.7365385742e+003;3.7343588867e+003;3.7400000000e+003;3.7253845215e+003;3.7262819824e+003;3.7344870605e+003;3.7274357910e+003;3.7267949219e+003;
1.9375000000e+000;3.8093588867e+003;3.6875642090e+003;3.6921794434e+003;3.7332050781e+003;3.6987180176e+003;3.7333332520e+003;3.7164101563e+003;3.7043588867e+003;3.7198718262e+003;3.6979487305e+003;3.6923076172e+003;3.7033332520e+003;3.6933332520e+003;3.6917949219e+003;
1.9453125000e+000;3.8261538086e+003;3.7066667480e+003;3.7089743652e+003;3.7501281738e+003;3.7198718262e+003;3.7551281738e+003;3.7350000000e+003;3.7228205566e+003;3.7419230957e+003;3.7202563477e+003;3.7123076172e+003;3.7211538086e+003;3.7150000000e+003;3.7080769043e+003;
1.9531250000e+000;3.8291025391e+003;3.7115385742e+003;3.7070512695e+003;3.7492307129e+003;3.7155129395e+003;3.7544870605e+003;3.7302563477e+003;3.7234614258e+003;3.7414101563e+003;3.7282050781e+003;3.7151281738e+003;3.7224357910e+003;3.7182050781e+003;3.7121794434e+003;
1.9609375000e+000;3.8123076172e+003;3.6962819824e+003;3.6926923828e+003;3.7350000000e+003;3.6973076172e+003;3.7352563477e+003;3.7139743652e+003;3.7026923828e+003;3.7200000000e+003;3.7066667480e+003;3.6971794434e+003;3.7047436523e+003;3.6985898438e+003;3.6958974609e+003;
1.9687500000e+000;3.8326923828e+003;3.7189743652e+003;3.7201281738e+003;3.7585898438e+003;3.7223076172e+003;3.7535898438e+003;3.7360256348e+003;3.7197436523e+003;3.7410256348e+003;3.7285898438e+003;3.7230769043e+003;3.7330769043e+003;3.7212819824e+003;3.7220512695e+003;
1.9765625000e+000;3.8348718262e+003;3.7191025391e+003;3.7243588867e+003;3.7593588867e+003;3.7248718262e+003;3.7565385742e+003;3.7383332520e+003;3.7223076172e+003;3.7442307129e+003;3.7339743652e+003;3.7289743652e+003;3.7416667480e+003;3.7251281738e+003;3.7276923828e+003;
1.9843750000e+000;3.8579487305e+003;3.7366667480e+003;3.7424357910e+003;3.7717949219e+003;3.7373076172e+003;3.7630769043e+003;3.7543588867e+003;3.7406411133e+003;3.7528205566e+003;3.7501281738e+003;3.7535898438e+003;3.7632050781e+003;3.7469230957e+003;3.7480769043e+003;
1.9921875000e+000;3.8842307129e+003;3.7646154785e+003;3.7689743652e+003;3.7979487305e+003;3.7620512695e+003;3.7825642090e+003;3.7782050781e+003;3.7716667480e+003;3.7783332520e+003;3.7780769043e+003;3.7826923828e+003;3.7916667480e+003;3.7756411133e+003;3.7751281738e+003;
2.0000000000e+000;3.8848718262e+003;3.7662819824e+003;3.7716667480e+003;3.8014101563e+003;3.7629487305e+003;3.7820512695e+003;3.7794870605e+003;3.7801281738e+003;3.7807692871e+003;3.7820512695e+003;3.7870512695e+003;3.7984614258e+003;3.7787180176e+003;3.7788461914e+003;
2.0078125000e+000;3.8648718262e+003;3.7469230957e+003;3.7535898438e+003;3.7847436523e+003;3.7441025391e+003;3.7652563477e+003;3.7632050781e+003;3.7662819824e+003;3.7616667480e+003;3.7629487305e+003;3.7694870605e+003;3.7844870605e+003;3.7593588867e+003;3.7620512695e+003;
2.0156250000e+000;3.9137180176e+003;3.8039743652e+003;3.8062819824e+003;3.8324357910e+003;3.7944870605e+003;3.8056411133e+003;3.8070512695e+003;3.8070512695e+003;3.8070512695e+003;3.8079487305e+003;3.8164101563e+003;3.8278205566e+003;3.8082050781e+003;3.8092307129e+003;
2.0234375000e+000;3.9221794434e+003;3.8152563477e+003;3.8129487305e+003;3.8435898438e+003;3.8067949219e+003;3.8170512695e+003;3.8189743652e+003;3.8120512695e+003;3.8160256348e+003;3.8093588867e+003;3.8197436523e+003;3.8356411133e+003;3.8107692871e+003;3.8133332520e+003;
2.0312500000e+000;3.9362819824e+003;3.8351281738e+003;3.8310256348e+003;3.8600000000e+003;3.8275642090e+003;3.8370512695e+003;3.8360256348e+003;3.8320512695e+003;3.8383332520e+003;3.8310256348e+003;3.8388461914e+003;3.8533332520e+003;3.8292307129e+003;3.8298718262e+003;
2.0390625000e+000;3.9112819824e+003;3.8146154785e+003;3.8135898438e+003;3.8412819824e+003;3.8121794434e+003;3.8269230957e+003;3.8157692871e+003;3.8066667480e+003;3.8207692871e+003;3.8115385742e+003;3.8146154785e+003;3.8288461914e+003;3.8107692871e+003;3.8044870605e+003;
2.0468750000e+000;3.9176923828e+003;3.8198718262e+003;3.8192307129e+003;3.8485898438e+003;3.8210256348e+003;3.8357692871e+003;3.8212819824e+003;3.8062819824e+003;3.8248718262e+003;3.8151281738e+003;3.8173076172e+003;3.8310256348e+003;3.8165385742e+003;3.8074357910e+003;
2.0546875000e+000;3.9246154785e+003;3.8269230957e+003;3.8289743652e+003;3.8565385742e+003;3.8328205566e+003;3.8496154785e+003;3.8292307129e+003;3.8147436523e+003;3.8350000000e+003;3.8238461914e+003;3.8248718262e+003;3.8419230957e+003;3.8185898438e+003;3.8112819824e+003;
2.0625000000e+000;3.9694870605e+003;3.8748718262e+003;3.8752563477e+003;3.8957692871e+003;3.8794870605e+003;3.8914101563e+003;3.8819230957e+003;3.8670512695e+003;3.8891025391e+003;3.8778205566e+003;3.8751281738e+003;3.8861538086e+003;3.8639743652e+003;3.8600000000e+003;
2.0703125000e+000;3.9825642090e+003;3.8876923828e+003;3.8892307129e+003;3.9097436523e+003;3.8908974609e+003;3.9026923828e+003;3.8955129395e+003;3.8841025391e+003;3.9058974609e+003;3.8950000000e+003;3.8903845215e+003;3.9000000000e+003;3.8788461914e+003;3.8764101563e+003;
2.0781250000e+000;3.9687180176e+003;3.8776923828e+003;3.8817949219e+003;3.9026923828e+003;3.8803845215e+003;3.8964101563e+003;3.8961538086e+003;3.8843588867e+003;3.8903845215e+003;3.8770512695e+003;3.8780769043e+003;3.8887180176e+003;3.8670512695e+003;3.8620512695e+003;
2.0859375000e+000;4.0125642090e+003;3.9260256348e+003;3.9257692871e+003;3.9433332520e+003;3.9262819824e+003;3.9375642090e+003;3.9416667480e+003;3.9325642090e+003;3.9344870605e+003;3.9229487305e+003;3.9243588867e+003;3.9321794434e+003;3.9114101563e+003;3.9043588867e+003;
2.0937500000e+000;4.0462819824e+003;3.9656411133e+003;3.9607692871e+003;3.9750000000e+003;3.9596154785e+003;3.9671794434e+003;3.9739743652e+003;3.9743588867e+003;3.9746154785e+003;3.9680769043e+003;3.9661538086e+003;3.9702563477e+003;3.9485898438e+003;3.9416667480e+003;
2.1015625000e+000;4.0278205566e+003;3.9485898438e+003;3.9438461914e+003;3.9594870605e+003;3.9419230957e+003;3.9496154785e+003;3.9551281738e+003;3.9562819824e+003;3.9557692871e+003;3.9528205566e+003;3.9508974609e+003;3.9552563477e+003;3.9335898438e+003;3.9261538086e+003;
2.1093750000e+000;4.0208974609e+003;3.9439743652e+003;3.9391025391e+003;3.9560256348e+003;3.9385898438e+003;3.9433332520e+003;3.9479487305e+003;3.9475642090e+003;3.9457692871e+003;3.9482050781e+003;3.9478205566e+003;3.9526923828e+003;3.9323076172e+003;3.9226923828e+003;
2.1171875000e+000;4.0488461914e+003;3.9853845215e+003;3.9811538086e+003;3.9891025391e+003;3.9752563477e+003;3.9747436523e+003;3.9696154785e+003;3.9657692871e+003;3.9788461914e+003;3.9894870605e+003;4.0008974609e+003;4.0076923828e+003;3.9856411133e+003;3.9828205566e+003;
2.1250000000e+000;4.0397436523e+003;3.9764101563e+003;3.9719230957e+003;3.9794870605e+003;3.9684614258e+003;3.9724357910e+003;3.9692307129e+003;3.9596154785e+003;3.9771794434e+003;3.9832050781e+003;3.9941025391e+003;3.9982050781e+003;3.9767949219e+003;3.9755129395e+003;
2.1328125000e+000;4.0498718262e+003;3.9862819824e+003;3.9814101563e+003;3.9880769043e+003;3.9810256348e+003;3.9870512695e+003;3.9869230957e+003;3.9717949219e+003;3.9923076172e+003;3.9950000000e+003;4.0046154785e+003;4.0056411133e+003;3.9852563477e+003;3.9864101563e+003;
2.1406250000e+000;4.0507692871e+003;3.9935898438e+003;3.9888461914e+003;3.9947436523e+003;3.9994870605e+003;4.0141025391e+003;4.0121794434e+003;4.0000000000e+003;4.0146154785e+003;4.0165385742e+003;4.0160256348e+003;4.0119230957e+003;3.9967949219e+003;3.9925642090e+003;
2.1484375000e+000;4.0674357910e+003;4.0121794434e+003;4.0060256348e+003;4.0111538086e+003;4.0185898438e+003;4.0293588867e+003;4.0312819824e+003;4.0196154785e+003;4.0366667480e+003;4.0347436523e+003;4.0344870605e+003;4.0289743652e+003;4.0158974609e+003;4.0108974609e+003;
2.1562500000e+000;4.0373076172e+003;3.9892307129e+003;3.9865385742e+003;3.9925642090e+003;3.9932050781e+003;4.0056411133e+003;4.0026923828e+003;4.0055129395e+003;4.0189743652e+003;4.0164101563e+003;4.0105129395e+003;4.0084614258e+003;3.9910256348e+003;3.9911538086e+003;
2.1640625000e+000;4.0937180176e+003;4.0502563477e+003;4.0401281738e+003;4.0474357910e+003;4.0510256348e+003;4.0547436523e+003;4.0553845215e+003;4.0561538086e+003;4.0617949219e+003;4.0630769043e+003;4.0667949219e+003;4.0570512695e+003;4.0457692871e+003;4.0424357910e+003;
2.1718750000e+000;4.1428203125e+003;4.1057690430e+003;4.0930769043e+003;4.0978203125e+003;4.1023076172e+003;4.0953845215e+003;4.1091025391e+003;4.1023076172e+003;4.0947436523e+003;4.1153847656e+003;4.1214101563e+003;4.1173076172e+003;4.1048715820e+003;4.0951281738e+003;
2.1796875000e+000;4.1488461914e+003;4.1138461914e+003;4.1010258789e+003;4.1028203125e+003;4.1083334961e+003;4.0971796875e+003;4.1093588867e+003;4.1051284180e+003;4.0955129395e+003;4.1201284180e+003;4.1316665039e+003;4.1262822266e+003;4.1116665039e+003;4.1033334961e+003;
2.1875000000e+000;4.1843588867e+003;4.1579487305e+003;4.1414101563e+003;4.1429487305e+003;4.1473076172e+003;4.1283334961e+003;4.1406411133e+003;4.1233334961e+003;4.1151284180e+003;4.1425639648e+003;4.1661538086e+003;4.1611538086e+003;4.1429487305e+003;4.1387177734e+003;
2.1953125000e+000;4.2384614258e+003;4.2162822266e+003;4.1953847656e+003;4.1983334961e+003;4.2067949219e+003;4.1801284180e+003;4.1951284180e+003;4.1746152344e+003;4.1696152344e+003;4.2005126953e+003;4.2206411133e+003;4.2146152344e+003;4.2012822266e+003;4.1943588867e+003;
2.2031250000e+000;4.2765385742e+003;4.2637177734e+003;4.2378203125e+003;4.2402563477e+003;4.2547436523e+003;4.2206411133e+003;4.2321796875e+003;4.2197436523e+003;4.2232050781e+003;4.2576923828e+003;4.2680771484e+003;4.2588461914e+003;4.2500000000e+003;4.2419228516e+003;
2.2109375000e+000;4.2497436523e+003;4.2415385742e+003;4.2146152344e+003;4.2156411133e+003;4.2307690430e+003;4.2003847656e+003;4.2074360352e+003;4.1961538086e+003;4.2047436523e+003;4.2351284180e+003;4.2446152344e+003;4.2334614258e+003;4.2242309570e+003;4.2170512695e+003;
2.2187500000e+000;4.2885898438e+003;4.2912822266e+003;4.2588461914e+003;4.2560258789e+003;4.2793588867e+003;4.2566665039e+003;4.2610258789e+003;4.2435898438e+003;4.2665385742e+003;4.2882050781e+003;4.2908974609e+003;4.2714101563e+003;4.2691025391e+003;4.2555126953e+003;
2.2265625000e+000;4.2820512695e+003;4.2855126953e+003;4.2555126953e+003;4.2528203125e+003;4.2770512695e+003;4.2583334961e+003;4.2628203125e+003;4.2469228516e+003;4.2717949219e+003;4.2917949219e+003;4.2896152344e+003;4.2700000000e+003;4.2685898438e+003;4.2533334961e+003;
2.2343750000e+000;4.2252563477e+003;4.2283334961e+003;4.2021796875e+003;4.2012822266e+003;4.2256411133e+003;4.2170512695e+003;4.2221796875e+003;4.2046152344e+003;4.2275639648e+003;4.2364101563e+003;4.2356411133e+003;4.2148715820e+003;4.2162822266e+003;4.1996152344e+003;
2.2421875000e+000;4.2425639648e+003;4.2470512695e+003;4.2197436523e+003;4.2176923828e+003;4.2450000000e+003;4.2366665039e+003;4.2426923828e+003;4.2265385742e+003;4.2462822266e+003;4.2519228516e+003;4.2537177734e+003;4.2297436523e+003;4.2347436523e+003;4.2166665039e+003;
2.2500000000e+000;4.2774360352e+003;4.2843588867e+003;4.2571796875e+003;4.2528203125e+003;4.2828203125e+003;4.2732050781e+003;4.2789741211e+003;4.2696152344e+003;4.2852563477e+003;4.2925639648e+003;4.2932050781e+003;4.2666665039e+003;4.2738461914e+003;4.2553847656e+003;
2.2578125000e+000;4.2866665039e+003;4.2960258789e+003;4.2717949219e+003;4.2664101563e+003;4.2961538086e+003;4.2871796875e+003;4.2907690430e+003;4.2907690430e+003;4.3024360352e+003;4.3142309570e+003;4.3102563477e+003;4.2837177734e+003;4.2894873047e+003;4.2726923828e+003;
2.2656250000e+000;4.2241025391e+003;4.2447436523e+003;4.2112822266e+003;4.2144873047e+003;4.2474360352e+003;4.2428203125e+003;4.2442309570e+003;4.2434614258e+003;4.2547436523e+003;4.2679487305e+003;4.2600000000e+003;4.2324360352e+003;4.2353847656e+003;4.2161538086e+003;
2.2734375000e+000;4.2442309570e+003;4.2675639648e+003;4.2292309570e+003;4.2324360352e+003;4.2696152344e+003;4.2617949219e+003;4.2643588867e+003;4.2632050781e+003;4.2723076172e+003;4.2862822266e+003;4.2793588867e+003;4.2502563477e+003;4.2557690430e+003;4.2328203125e+003;
2.2812500000e+000;4.2483334961e+003;4.2730771484e+003;4.2346152344e+003;4.2415385742e+003;4.2730771484e+003;4.2551284180e+003;4.2612822266e+003;4.2597436523e+003;4.2539741211e+003;4.2793588867e+003;4.2801284180e+003;4.2521796875e+003;4.2579487305e+003;4.2385898438e+003;
2.2890625000e+000;4.2594873047e+003;4.2789741211e+003;4.2508974609e+003;4.2439741211e+003;4.2701284180e+003;4.2494873047e+003;4.2514101563e+003;4.2401284180e+003;4.2335898438e+003;4.2697436523e+003;4.2862822266e+003;4.2601284180e+003;4.2598715820e+003;4.2478203125e+003;
2.2968750000e+000;4.2669228516e+003;4.2824360352e+003;4.2591025391e+003;4.2482050781e+003;4.2735898438e+003;4.2501284180e+003;4.2525639648e+003;4.2351284180e+003;4.2291025391e+003;4.2675639648e+003;4.2896152344e+003;4.2642309570e+003;4.2628203125e+003;4.2514101563e+003;
2.3046875000e+000;4.3467949219e+003;4.3744873047e+003;4.3439741211e+003;4.3334614258e+003;4.3588461914e+003;4.3152563477e+003;4.3215385742e+003;4.3100000000e+003;4.3151284180e+003;4.3610258789e+003;4.3794873047e+003;4.3544873047e+003;4.3544873047e+003;4.3423076172e+003;
2.3125000000e+000;4.3164101563e+003;4.3491025391e+003;4.3155126953e+003;4.3071796875e+003;4.3271796875e+003;4.2883334961e+003;4.2930771484e+003;4.2844873047e+003;4.2950000000e+003;4.3383334961e+003;4.3541025391e+003;4.3288461914e+003;4.3291025391e+003;4.3176923828e+003;
2.3203125000e+000;4.2789741211e+003;4.3114101563e+003;4.2764101563e+003;4.2710258789e+003;4.2860258789e+003;4.2589741211e+003;4.2683334961e+003;4.2607690430e+003;4.2710258789e+003;4.3041025391e+003;4.3156411133e+003;4.2865385742e+003;4.2906411133e+003;4.2742309570e+003;
2.3281250000e+000;4.2928203125e+003;4.3258974609e+003;4.2926923828e+003;4.2876923828e+003;4.3067949219e+003;4.2785898438e+003;4.2910258789e+003;4.2880771484e+003;4.2943588867e+003;4.3262822266e+003;4.3314101563e+003;4.3041025391e+003;4.3064101563e+003;4.2887177734e+003;
2.3359375000e+000;4.2582050781e+003;4.2920512695e+003;4.2653847656e+003;4.2619228516e+003;4.2858974609e+003;4.2624360352e+003;4.2774360352e+003;4.2758974609e+003;4.2769228516e+003;4.3035898438e+003;4.3010258789e+003;4.2758974609e+003;4.2753847656e+003;4.2592309570e+003;
2.3437500000e+000;4.2453847656e+003;4.2774360352e+003;4.2533334961e+003;4.2491025391e+003;4.2737177734e+003;4.2543588867e+003;4.2682050781e+003;4.2646152344e+003;4.2652563477e+003;4.2889741211e+003;4.2871796875e+003;4.2596152344e+003;4.2612822266e+003;4.2461538086e+003;
2.3515625000e+000;4.2228203125e+003;4.2514101563e+003;4.2297436523e+003;4.2255126953e+003;4.2465385742e+003;4.2411538086e+003;4.2475639648e+003;4.2460258789e+003;4.2489741211e+003;4.2611538086e+003;4.2596152344e+003;4.2325639648e+003;4.2320512695e+003;4.2183334961e+003;
2.3593750000e+000;4.2208974609e+003;4.2597436523e+003;4.2321796875e+003;4.2328203125e+003;4.2698715820e+003;4.2601284180e+003;4.2701284180e+003;4.2689741211e+003;4.2715385742e+003;4.2739741211e+003;4.2675639648e+003;4.2391025391e+003;4.2410258789e+003;4.2244873047e+003;
2.3671875000e+000;4.2261538086e+003;4.2693588867e+003;4.2401284180e+003;4.2411538086e+003;4.2794873047e+003;4.2703847656e+003;4.2778203125e+003;4.2810258789e+003;4.2843588867e+003;4.2889741211e+003;4.2797436523e+003;4.2484614258e+003;4.2529487305e+003;4.2351284180e+003;
2.3750000000e+000;4.2025639648e+003;4.2484614258e+003;4.2178203125e+003;4.2210258789e+003;4.2556411133e+003;4.2498715820e+003;4.2537177734e+003;4.2583334961e+003;4.2634614258e+003;4.2698715820e+003;4.2598715820e+003;4.2275639648e+003;4.2325639648e+003;4.2141025391e+003;
2.3828125000e+000;4.1733334961e+003;4.2201284180e+003;4.1871796875e+003;4.1930771484e+003;4.2237177734e+003;4.2196152344e+003;4.2212822266e+003;4.2224360352e+003;4.2297436523e+003;4.2371796875e+003;4.2293588867e+003;4.1971796875e+003;4.2028203125e+003;4.1832050781e+003;
2.3906250000e+000;4.2891025391e+003;4.3241025391e+003;4.2997436523e+003;4.2900000000e+003;4.3182050781e+003;4.2997436523e+003;4.3044873047e+003;4.3056411133e+003;4.3064101563e+003;4.3330771484e+003;4.3361538086e+003;4.3066665039e+003;4.3141025391e+003;4.2962822266e+003;
2.3984375000e+000;4.2848715820e+003;4.3191025391e+003;4.2992309570e+003;4.2870512695e+003;4.3084614258e+003;4.2907690430e+003;4.2943588867e+003;4.2955126953e+003;4.2919228516e+003;4.3250000000e+003;4.3310258789e+003;4.3078203125e+003;4.3087177734e+003;4.2955126953e+003;
2.4062500000e+000;4.3087177734e+003;4.3550000000e+003;4.3270512695e+003;4.3169228516e+003;4.3311538086e+003;4.2971796875e+003;4.2998715820e+003;4.2896152344e+003;4.2870512695e+003;4.3332050781e+003;4.3475639648e+003;4.3366665039e+003;4.3294873047e+003;4.3217949219e+003;
2.4140625000e+000;4.2864101563e+003;4.3232050781e+003;4.3042309570e+003;4.2893588867e+003;4.2994873047e+003;4.2707690430e+003;4.2750000000e+003;4.2666665039e+003;4.2651284180e+003;4.3041025391e+003;4.3173076172e+003;4.3073076172e+003;4.2998715820e+003;4.2962822266e+003;
2.4218750000e+000;4.2964101563e+003;4.3357690430e+003;4.3146152344e+003;4.2983334961e+003;4.3121796875e+003;4.2843588867e+003;4.2930771484e+003;4.2870512695e+003;4.2866665039e+003;4.3214101563e+003;4.3314101563e+003;4.3217949219e+003;4.3132050781e+003;4.3092309570e+003;
2.4296875000e+000;4.2237177734e+003;4.2791025391e+003;4.2523076172e+003;4.2403847656e+003;4.2620512695e+003;4.2421796875e+003;4.2558974609e+003;4.2557690430e+003;4.2535898438e+003;4.2762822266e+003;4.2791025391e+003;4.2737177734e+003;4.2585898438e+003;4.2502563477e+003;
2.4375000000e+000;4.2075639648e+003;4.2620512695e+003;4.2378203125e+003;4.2266665039e+003;4.2491025391e+003;4.2330771484e+003;4.2457690430e+003;4.2437177734e+003;4.2400000000e+003;4.2587177734e+003;4.2639741211e+003;4.2566665039e+003;4.2432050781e+003;4.2333334961e+003;
2.4453125000e+000;4.2492309570e+003;4.3043588867e+003;4.2862822266e+003;4.2716665039e+003;4.3035898438e+003;4.2912822266e+003;4.2997436523e+003;4.2997436523e+003;4.2991025391e+003;4.3137177734e+003;4.3125639648e+003;4.3003847656e+003;4.2915385742e+003;4.2791025391e+003;
2.4531250000e+000;4.2215385742e+003;4.2806411133e+003;4.2611538086e+003;4.2506411133e+003;4.2841025391e+003;4.2743588867e+003;4.2816665039e+003;4.2794873047e+003;4.2796152344e+003;4.2930771484e+003;4.2857690430e+003;4.2762822266e+003;4.2684614258e+003;4.2537177734e+003;
2.4609375000e+000;4.2206411133e+003;4.2882050781e+003;4.2558974609e+003;4.2564101563e+003;4.2941025391e+003;4.2826923828e+003;4.2883334961e+003;4.2830771484e+003;4.2858974609e+003;4.2964101563e+003;4.2828203125e+003;4.2703847656e+003;4.2714101563e+003;4.2503847656e+003;
2.4687500000e+000;4.2567949219e+003;4.3276923828e+003;4.2887177734e+003;4.2908974609e+003;4.3310258789e+003;4.3178203125e+003;4.3207690430e+003;4.3198715820e+003;4.3250000000e+003;4.3352563477e+003;4.3206411133e+003;4.3024360352e+003;4.3067949219e+003;4.2855126953e+003;
2.4765625000e+000;4.3479487305e+003;4.4269228516e+003;4.3792309570e+003;4.3766665039e+003;4.4275639648e+003;4.4117949219e+003;4.4114101563e+003;4.4091025391e+003;4.4207690430e+003;4.4367949219e+003;4.4205126953e+003;4.3916665039e+003;4.4017949219e+003;4.3797436523e+003;
2.4843750000e+000;4.4724360352e+003;4.5662822266e+003;4.5107690430e+003;4.5041025391e+003;4.5593588867e+003;4.5217949219e+003;4.5298715820e+003;4.5329487305e+003;4.5432050781e+003;4.5743588867e+003;4.5551284180e+003;4.5284614258e+003;4.5485898438e+003;4.5192309570e+003;
2.4921875000e+000;4.4373076172e+003;4.5330771484e+003;4.4815385742e+003;4.4711538086e+003;4.5193588867e+003;4.4842309570e+003;4.4905126953e+003;4.4966665039e+003;4.5035898438e+003;4.5358974609e+003;4.5216665039e+003;4.4964101563e+003;4.5142309570e+003;4.4887177734e+003;
2.5000000000e+000;4.4002563477e+003;4.4948715820e+003;4.4482050781e+003;4.4338461914e+003;4.4750000000e+003;4.4443588867e+003;4.4489741211e+003;4.4528203125e+003;4.4560258789e+003;4.4900000000e+003;4.4834614258e+003;4.4580771484e+003;4.4732050781e+003;4.4521796875e+003;
2.5078125000e+000;4.3958974609e+003;4.4874360352e+003;4.4452563477e+003;4.4264101563e+003;4.4634614258e+003;4.4343588867e+003;4.4393588867e+003;4.4379487305e+003;4.4384614258e+003;4.4764101563e+003;4.4773076172e+003;4.4516665039e+003;4.4633334961e+003;4.4462822266e+003;
2.5156250000e+000;4.3702563477e+003;4.4510258789e+003;4.4300000000e+003;4.3967949219e+003;4.4221796875e+003;4.3915385742e+003;4.3998715820e+003;4.3835898438e+003;4.3832050781e+003;4.4294873047e+003;4.4467949219e+003;4.4433334961e+003;4.4284614258e+003;4.4270512695e+003;
2.5234375000e+000;4.3579487305e+003;4.4414101563e+003;4.4189741211e+003;4.3861538086e+003;4.4117949219e+003;4.3798715820e+003;4.3887177734e+003;4.3723076172e+003;4.3698715820e+003;4.4137177734e+003;4.4329487305e+003;4.4317949219e+003;4.4164101563e+003;4.4167949219e+003;
2.5312500000e+000;4.3491025391e+003;4.4350000000e+003;4.4150000000e+003;4.3866665039e+003;4.4167949219e+003;4.3871796875e+003;4.3969228516e+003;4.3950000000e+003;4.3784614258e+003;4.4182050781e+003;4.4320512695e+003;4.4276923828e+003;4.4133334961e+003;4.4120512695e+003;
2.5390625000e+000;4.2917949219e+003;4.3783334961e+003;4.3596152344e+003;4.3375639648e+003;4.3773076172e+003;4.3538461914e+003;4.3656411133e+003;4.3664101563e+003;4.3532050781e+003;4.3769228516e+003;4.3751284180e+003;4.3691025391e+003;4.3485898438e+003;4.3501284180e+003;
2.5468750000e+000;4.2428203125e+003;4.3326923828e+003;4.3114101563e+003;4.2955126953e+003;4.3339741211e+003;4.3157690430e+003;4.3253847656e+003;4.3287177734e+003;4.3185898438e+003;4.3344873047e+003;4.3269228516e+003;4.3221796875e+003;4.3008974609e+003;4.3037177734e+003;
2.5546875000e+000;4.1826923828e+003;4.2711538086e+003;4.2385898438e+003;4.2423076172e+003;4.2762822266e+003;4.2671796875e+003;4.2721796875e+003;4.2735898438e+003;4.2751284180e+003;4.2791025391e+003;4.2747436523e+003;4.2579487305e+003;4.2608974609e+003;4.2488461914e+003;
2.5625000000e+000;4.2251284180e+003;4.3125639648e+003;4.2753847656e+003;4.2798715820e+003;4.3164101563e+003;4.3043588867e+003;4.3093588867e+003;4.3141025391e+003;4.3205126953e+003;4.3283334961e+003;4.3220512695e+003;4.3000000000e+003;4.3112822266e+003;4.2933334961e+003;
2.5703125000e+000;4.1717949219e+003;4.2585898438e+003;4.2235898438e+003;4.2238461914e+003;4.2520512695e+003;4.2496152344e+003;4.2498715820e+003;4.2600000000e+003;4.2700000000e+003;4.2793588867e+003;4.2626923828e+003;4.2478203125e+003;4.2541025391e+003;4.2407690430e+003;
2.5781250000e+000;4.1635898438e+003;4.2476923828e+003;4.2170512695e+003;4.2139741211e+003;4.2388461914e+003;4.2373076172e+003;4.2371796875e+003;4.2447436523e+003;4.2541025391e+003;4.2606411133e+003;4.2467949219e+003;4.2319228516e+003;4.2380771484e+003;4.2270512695e+003;
2.5859375000e+000;4.2152563477e+003;4.2889741211e+003;4.2691025391e+003;4.2556411133e+003;4.2767949219e+003;4.2707690430e+003;4.2697436523e+003;4.2771796875e+003;4.2847436523e+003;4.2934614258e+003;4.2880771484e+003;4.2671796875e+003;4.2767949219e+003;4.2678203125e+003;
2.5937500000e+000;4.2219228516e+003;4.2900000000e+003;4.2744873047e+003;4.2584614258e+003;4.2758974609e+003;4.2708974609e+003;4.2687177734e+003;4.2735898438e+003;4.2793588867e+003;4.2911538086e+003;4.2897436523e+003;4.2694873047e+003;4.2773076172e+003;4.2707690430e+003;
2.6015625000e+000;4.2470512695e+003;4.3130771484e+003;4.2964101563e+003;4.2806411133e+003;4.2966665039e+003;4.2883334961e+003;4.2864101563e+003;4.2771796875e+003;4.2767949219e+003;4.2980771484e+003;4.3026923828e+003;4.2992309570e+003;4.2907690430e+003;4.2938461914e+003;
2.6093750000e+000;4.2248715820e+003;4.2932050781e+003;4.2865385742e+003;4.2658974609e+003;4.2874360352e+003;4.2710258789e+003;4.2689741211e+003;4.2608974609e+003;4.2544873047e+003;4.2867949219e+003;4.2929487305e+003;4.2915385742e+003;4.2784614258e+003;4.2853847656e+003;
2.6171875000e+000;4.2275639648e+003;4.2987177734e+003;4.2893588867e+003;4.2708974609e+003;4.2956411133e+003;4.2757690430e+003;4.2756411133e+003;4.2664101563e+003;4.2606411133e+003;4.2926923828e+003;4.3003847656e+003;4.2942309570e+003;4.2879487305e+003;4.2908974609e+003;
2.6250000000e+000;4.2428203125e+003;4.3187177734e+003;4.3025639648e+003;4.2882050781e+003;4.3162822266e+003;4.2928203125e+003;4.2944873047e+003;4.2878203125e+003;4.2837177734e+003;4.3134614258e+003;4.3202563477e+003;4.3098715820e+003;4.3108974609e+003;4.3088461914e+003;
2.6328125000e+000;4.2434614258e+003;4.3237177734e+003;4.3011538086e+003;4.2926923828e+003;4.3211538086e+003;4.2967949219e+003;4.2993588867e+003;4.2979487305e+003;4.2941025391e+003;4.3203847656e+003;4.3237177734e+003;4.3123076172e+003;4.3173076172e+003;4.3114101563e+003;
2.6406250000e+000;4.2920512695e+003;4.3779487305e+003;4.3450000000e+003;4.3460258789e+003;4.3682050781e+003;4.3466665039e+003;4.3583334961e+003;4.3557690430e+003;4.3424360352e+003;4.3607690430e+003;4.3556411133e+003;4.3497436523e+003;4.3573076172e+003;4.3446152344e+003;
2.6484375000e+000;4.3450000000e+003;4.4341025391e+003;4.4002563477e+003;4.3961538086e+003;4.4219228516e+003;4.3988461914e+003;4.4124360352e+003;4.4146152344e+003;4.4020512695e+003;4.4206411133e+003;4.4130771484e+003;4.4048715820e+003;4.4126923828e+003;4.4011538086e+003;
2.6562500000e+000;4.2985898438e+003;4.3811538086e+003;4.3633334961e+003;4.3508974609e+003;4.3808974609e+003;4.3696152344e+003;4.3852563477e+003;4.3855126953e+003;4.3766665039e+003;4.3861538086e+003;4.3785898438e+003;4.3643588867e+003;4.3708974609e+003;4.3630771484e+003;
2.6640625000e+000;4.2791025391e+003;4.3591025391e+003;4.3448715820e+003;4.3302563477e+003;4.3579487305e+003;4.3588461914e+003;4.3639741211e+003;4.3600000000e+003;4.3567949219e+003;4.3739741211e+003;4.3643588867e+003;4.3473076172e+003;4.3598715820e+003;4.3465385742e+003;
2.6718750000e+000;4.2524360352e+003;4.3305126953e+003;4.3179487305e+003;4.3019228516e+003;4.3273076172e+003;4.3319228516e+003;4.3333334961e+003;4.3301284180e+003;4.3284614258e+003;4.3469228516e+003;4.3360258789e+003;4.3202563477e+003;4.3317949219e+003;4.3206411133e+003;
2.6796875000e+000;4.2375639648e+003;4.3091025391e+003;4.3011538086e+003;4.2778203125e+003;4.3051284180e+003;4.3034614258e+003;4.3057690430e+003;4.3042309570e+003;4.3032050781e+003;4.3192309570e+003;4.3091025391e+003;4.3002563477e+003;4.3047436523e+003;4.3015385742e+003;
2.6875000000e+000;4.2184614258e+003;4.2907690430e+003;4.2848715820e+003;4.2639741211e+003;4.2860258789e+003;4.2860258789e+003;4.2860258789e+003;4.2823076172e+003;4.2824360352e+003;4.3001284180e+003;4.2921796875e+003;4.2856411133e+003;4.2870512695e+003;4.2838461914e+003;
2.6953125000e+000;4.2056411133e+003;4.2830771484e+003;4.2717949219e+003;4.2635898438e+003;4.2796152344e+003;4.2751284180e+003;4.2708974609e+003;4.2514101563e+003;4.2588461914e+003;4.2878203125e+003;4.2867949219e+003;4.2747436523e+003;4.2848715820e+003;4.2711538086e+003;
2.7031250000e+000;4.2334614258e+003;4.3117949219e+003;4.2965385742e+003;4.2874360352e+003;4.3088461914e+003;4.2979487305e+003;4.2952563477e+003;4.2779487305e+003;4.2841025391e+003;4.3164101563e+003;4.3129487305e+003;4.2984614258e+003;4.3132050781e+003;4.2988461914e+003;
2.7109375000e+000;4.2194873047e+003;4.2991025391e+003;4.2810258789e+003;4.2723076172e+003;4.2947436523e+003;4.2819228516e+003;4.2817949219e+003;4.2721796875e+003;4.2664101563e+003;4.3017949219e+003;4.2933334961e+003;4.2807690430e+003;4.2950000000e+003;4.2856411133e+003;
2.7187500000e+000;4.2115385742e+003;4.2930771484e+003;4.2748715820e+003;4.2687177734e+003;4.2879487305e+003;4.2741025391e+003;4.2767949219e+003;4.2692309570e+003;4.2570512695e+003;4.2925639648e+003;4.2851284180e+003;4.2730771484e+003;4.2855126953e+003;4.2764101563e+003;
2.7265625000e+000;4.2748715820e+003;4.3543588867e+003;4.3447436523e+003;4.3356411133e+003;4.3519228516e+003;4.3247436523e+003;4.3376923828e+003;4.3434614258e+003;4.3243588867e+003;4.3553847656e+003;4.3473076172e+003;4.3366665039e+003;4.3448715820e+003;4.3307690430e+003;
2.7343750000e+000;4.2641025391e+003;4.3394873047e+003;4.3335898438e+003;4.3220512695e+003;4.3379487305e+003;4.3110258789e+003;4.3246152344e+003;4.3310258789e+003;4.3121796875e+003;4.3394873047e+003;4.3296152344e+003;4.3243588867e+003;4.3301284180e+003;4.3178203125e+003;
2.7421875000e+000;4.2811538086e+003;4.3557690430e+003;4.3476923828e+003;4.3338461914e+003;4.3524360352e+003;4.3225639648e+003;4.3375639648e+003;4.3374360352e+003;4.3207690430e+003;4.3450000000e+003;4.3396152344e+003;4.3378203125e+003;4.3443588867e+003;4.3342309570e+003;
2.7500000000e+000;4.3176923828e+003;4.3951284180e+003;4.3843588867e+003;4.3693588867e+003;4.3896152344e+003;4.3561538086e+003;4.3726923828e+003;4.3712822266e+003;4.3555126953e+003;4.3820512695e+003;4.3798715820e+003;4.3753847656e+003;4.3830771484e+003;4.3715385742e+003;
2.7578125000e+000;4.3375639648e+003;4.4165385742e+003;4.4057690430e+003;4.3898715820e+003;4.4101284180e+003;4.3761538086e+003;4.3938461914e+003;4.3925639648e+003;4.3771796875e+003;4.4053847656e+003;4.4046152344e+003;4.3988461914e+003;4.4052563477e+003;4.3923076172e+003;
2.7656250000e+000;4.3175639648e+003;4.4015385742e+003;4.3853847656e+003;4.3720512695e+003;4.4026923828e+003;4.3851284180e+003;4.3991025391e+003;4.3885898438e+003;4.3825639648e+003;4.4021796875e+003;4.3920512695e+003;4.3898715820e+003;4.3997436523e+003;4.3826923828e+003;
2.7734375000e+000;4.2783334961e+003;4.3653847656e+003;4.3483334961e+003;4.3360258789e+003;4.3664101563e+003;4.3544873047e+003;4.3650000000e+003;4.3524360352e+003;4.3480771484e+003;4.3665385742e+003;4.3566665039e+003;4.3524360352e+003;4.3634614258e+003;4.3448715820e+003;
2.7812500000e+000;4.3342309570e+003;4.4233334961e+003;4.3973076172e+003;4.3900000000e+003;4.4278203125e+003;4.4112822266e+003;4.4176923828e+003;4.4052563477e+003;4.4056411133e+003;4.4310258789e+003;4.4139741211e+003;4.4001284180e+003;4.4230771484e+003;4.3971796875e+003;
2.7890625000e+000;4.3719228516e+003;4.4602563477e+003;4.4334614258e+003;4.4257690430e+003;4.4647436523e+003;4.4453847656e+003;4.4505126953e+003;4.4435898438e+003;4.4467949219e+003;4.4738461914e+003;4.4521796875e+003;4.4389741211e+003;4.4617949219e+003;4.4379487305e+003;
2.7968750000e+000;4.3365385742e+003;4.4235898438e+003;4.4019228516e+003;4.3894873047e+003;4.4253847656e+003;4.4088461914e+003;4.4121796875e+003;4.4066665039e+003;4.4129487305e+003;4.4333334961e+003;4.4129487305e+003;4.4055126953e+003;4.4221796875e+003;4.4053847656e+003;
2.8046875000e+000;4.3091025391e+003;4.3967949219e+003;4.3769228516e+003;4.3611538086e+003;4.3965385742e+003;4.3808974609e+003;4.3846152344e+003;4.3762822266e+003;4.3823076172e+003;4.3994873047e+003;4.3823076172e+003;4.3767949219e+003;4.3923076172e+003;4.3766665039e+003;
2.8125000000e+000;4.2539741211e+003;4.3361538086e+003;4.3220512695e+003;4.3053847656e+003;4.3341025391e+003;4.3221796875e+003;4.3207690430e+003;4.3161538086e+003;4.3176923828e+003;4.3401284180e+003;4.3238461914e+003;4.3258974609e+003;4.3369228516e+003;4.3212822266e+003;
2.8203125000e+000;4.2388461914e+003;4.3150000000e+003;4.3016665039e+003;4.2875639648e+003;4.3138461914e+003;4.3026923828e+003;4.2992309570e+003;4.2979487305e+003;4.2965385742e+003;4.3187177734e+003;4.3050000000e+003;4.3073076172e+003;4.3178203125e+003;4.3034614258e+003;
2.8281250000e+000;4.2519228516e+003;4.3243588867e+003;4.3050000000e+003;4.2944873047e+003;4.3189741211e+003;4.2988461914e+003;4.3034614258e+003;4.3183334961e+003;4.3042309570e+003;4.3166665039e+003;4.3062822266e+003;4.3076923828e+003;4.3215385742e+003;4.3079487305e+003;
2.8359375000e+000;4.2191025391e+003;4.2894873047e+003;4.2788461914e+003;4.2662822266e+003;4.2775639648e+003;4.2516665039e+003;4.2656411133e+003;4.2775639648e+003;4.2552563477e+003;4.2712822266e+003;4.2693588867e+003;4.2765385742e+003;4.2838461914e+003;4.2746152344e+003;
2.8437500000e+000;4.2407690430e+003;4.3084614258e+003;4.3008974609e+003;4.2857690430e+003;4.2944873047e+003;4.2651284180e+003;4.2793588867e+003;4.2937177734e+003;4.2725639648e+003;4.2917949219e+003;4.2921796875e+003;4.2996152344e+003;4.3048715820e+003;4.2973076172e+003;
2.8515625000e+000;4.2456411133e+003;4.3097436523e+003;4.3056411133e+003;4.2887177734e+003;4.2944873047e+003;4.2657690430e+003;4.2789741211e+003;4.2976923828e+003;4.2782050781e+003;4.2978203125e+003;4.2982050781e+003;4.3079487305e+003;4.3103847656e+003;4.3046152344e+003;
2.8593750000e+000;4.2055126953e+003;4.2587177734e+003;4.2616665039e+003;4.2451284180e+003;4.2455126953e+003;4.2276923828e+003;4.2429487305e+003;4.2588461914e+003;4.2408974609e+003;4.2528203125e+003;4.2521796875e+003;4.2705126953e+003;4.2688461914e+003;4.2651284180e+003;
2.8671875000e+000;4.2332050781e+003;4.2788461914e+003;4.2912822266e+003;4.2696152344e+003;4.2803847656e+003;4.2716665039e+003;4.2916665039e+003;4.2938461914e+003;4.2784614258e+003;4.2884614258e+003;4.2829487305e+003;4.2994873047e+003;4.2948715820e+003;4.2930771484e+003;
2.8750000000e+000;4.2000000000e+003;4.2469228516e+003;4.2633334961e+003;4.2424360352e+003;4.2544873047e+003;4.2526923828e+003;4.2688461914e+003;4.2675639648e+003;4.2550000000e+003;4.2619228516e+003;4.2551284180e+003;4.2698715820e+003;4.2628203125e+003;4.2630771484e+003;
2.8828125000e+000;4.1630771484e+003;4.2112822266e+003;4.2279487305e+003;4.2111538086e+003;4.2228203125e+003;4.2280771484e+003;4.2407690430e+003;4.2333334961e+003;4.2252563477e+003;4.2258974609e+003;4.2187177734e+003;4.2320512695e+003;4.2258974609e+003;4.2261538086e+003;
2.8906250000e+000;4.1633334961e+003;4.2119228516e+003;4.2241025391e+003;4.2123076172e+003;4.2246152344e+003;4.2328203125e+003;4.2441025391e+003;4.2302563477e+003;4.2283334961e+003;4.2226923828e+003;4.2143588867e+003;4.2265385742e+003;4.2247436523e+003;4.2217949219e+003;
2.8984375000e+000;4.2223076172e+003;4.2723076172e+003;4.2725639648e+003;4.2666665039e+003;4.2842309570e+003;4.2887177734e+003;4.2887177734e+003;4.2788461914e+003;4.2933334961e+003;4.2944873047e+003;4.2684614258e+003;4.2776923828e+003;4.2842309570e+003;4.2730771484e+003;
2.9062500000e+000;4.2869228516e+003;4.3501284180e+003;4.3370512695e+003;4.3280771484e+003;4.3461538086e+003;4.3425639648e+003;4.3401284180e+003;4.3360258789e+003;4.3541025391e+003;4.3624360352e+003;4.3294873047e+003;4.3408974609e+003;4.3532050781e+003;4.3405126953e+003;
2.9140625000e+000;4.2857690430e+003;4.3443588867e+003;4.3355126953e+003;4.3253847656e+003;4.3378203125e+003;4.3338461914e+003;4.3320512695e+003;4.3287177734e+003;4.3423076172e+003;4.3503847656e+003;4.3203847656e+003;4.3353847656e+003;4.3444873047e+003;4.3330771484e+003;
2.9218750000e+000;4.3091025391e+003;4.3643588867e+003;4.3551284180e+003;4.3469228516e+003;4.3596152344e+003;4.3465385742e+003;4.3460258789e+003;4.3439741211e+003;4.3415385742e+003;4.3535898438e+003;4.3338461914e+003;4.3476923828e+003;4.3567949219e+003;4.3469228516e+003;
2.9296875000e+000;4.3308974609e+003;4.3920512695e+003;4.3857690430e+003;4.3744873047e+003;4.3846152344e+003;4.3615385742e+003;4.3748715820e+003;4.3678203125e+003;4.3407690430e+003;4.3725639648e+003;4.3623076172e+003;4.3810258789e+003;4.3824360352e+003;4.3758974609e+003;
2.9375000000e+000;4.3515385742e+003;4.4087177734e+003;4.4070512695e+003;4.3924360352e+003;4.4042309570e+003;4.3744873047e+003;4.3921796875e+003;4.3834614258e+003;4.3534614258e+003;4.3896152344e+003;4.3807690430e+003;4.4012822266e+003;4.4003847656e+003;4.3934614258e+003;
2.9453125000e+000;4.3171796875e+003;4.3714101563e+003;4.3758974609e+003;4.3584614258e+003;4.3697436523e+003;4.3410258789e+003;4.3580771484e+003;4.3583334961e+003;4.3221796875e+003;4.3619228516e+003;4.3512822266e+003;4.3748715820e+003;4.3679487305e+003;4.3652563477e+003;
2.9531250000e+000;4.2989741211e+003;4.3533334961e+003;4.3582050781e+003;4.3411538086e+003;4.3500000000e+003;4.3255126953e+003;4.3441025391e+003;4.3441025391e+003;4.3126923828e+003;4.3473076172e+003;4.3352563477e+003;4.3573076172e+003;4.3524360352e+003;4.3492309570e+003;
2.9609375000e+000;4.3288461914e+003;4.3839741211e+003;4.3870512695e+003;4.3683334961e+003;4.3800000000e+003;4.3551284180e+003;4.3776923828e+003;4.3833334961e+003;4.3669228516e+003;4.3882050781e+003;4.3671796875e+003;4.3850000000e+003;4.3867949219e+003;4.3797436523e+003;
2.9687500000e+000;4.3393588867e+003;4.3967949219e+003;4.3978203125e+003;4.3791025391e+003;4.3944873047e+003;4.3707690430e+003;4.3925639648e+003;4.4019228516e+003;4.3893588867e+003;4.4047436523e+003;4.3784614258e+003;4.3958974609e+003;4.3982050781e+003;4.3907690430e+003;
2.9765625000e+000;4.4079487305e+003;4.4834614258e+003;4.4702563477e+003;4.4552563477e+003;4.4884614258e+003;4.4711538086e+003;4.4870512695e+003;4.4883334961e+003;4.4798715820e+003;4.4889741211e+003;4.4614101563e+003;4.4707690430e+003;4.4783334961e+003;4.4653847656e+003;
2.9843750000e+000;4.4357690430e+003;4.5156411133e+003;4.5010258789e+003;4.4858974609e+003;4.5235898438e+003;4.5064101563e+003;4.5193588867e+003;4.5219228516e+003;4.5170512695e+003;4.5285898438e+003;4.4991025391e+003;4.5047436523e+003;4.5151284180e+003;4.4989741211e+003;
2.9921875000e+000;4.3747436523e+003;4.4529487305e+003;4.4453847656e+003;4.4296152344e+003;4.4657690430e+003;4.4556411133e+003;4.4624360352e+003;4.4694873047e+003;4.4714101563e+003;4.4816665039e+003;4.4467949219e+003;4.4533334961e+003;4.4633334961e+003;4.4473076172e+003;
3.0000000000e+000;4.3387177734e+003;4.4142309570e+003;4.4082050781e+003;4.3926923828e+003;4.4271796875e+003;4.4200000000e+003;4.4265385742e+003;4.4317949219e+003;4.4342309570e+003;4.4417949219e+003;4.4071796875e+003;4.4152563477e+003;4.4242309570e+003;4.4110258789e+003;
3.0078125000e+000;4.3415385742e+003;4.4152563477e+003;4.4075639648e+003;4.3921796875e+003;4.4266665039e+003;4.4187177734e+003;4.4270512695e+003;4.4302563477e+003;4.4311538086e+003;4.4380771484e+003;4.4056411133e+003;4.4139741211e+003;4.4217949219e+003;4.4117949219e+003;
3.0156250000e+000;4.3656411133e+003;4.4383334961e+003;4.4289741211e+003;4.4134614258e+003;4.4480771484e+003;4.4380771484e+003;4.4471796875e+003;4.4510258789e+003;4.4491025391e+003;4.4578203125e+003;4.4287177734e+003;4.4364101563e+003;4.4417949219e+003;4.4347436523e+003;
3.0234375000e+000;4.2953847656e+003;4.3638461914e+003;4.3673076172e+003;4.3506411133e+003;4.3780771484e+003;4.3711538086e+003;4.3766665039e+003;4.3729487305e+003;4.3598715820e+003;4.3692309570e+003;4.3555126953e+003;4.3712822266e+003;4.3688461914e+003;4.3603847656e+003;
3.0312500000e+000;4.2926923828e+003;4.3634614258e+003;4.3670512695e+003;4.3500000000e+003;4.3753847656e+003;4.3671796875e+003;4.3764101563e+003;4.3692309570e+003;4.3514101563e+003;4.3625639648e+003;4.3489741211e+003;4.3680771484e+003;4.3643588867e+003;4.3558974609e+003;
3.0390625000e+000;4.2388461914e+003;4.3067949219e+003;4.3096152344e+003;4.3008974609e+003;4.3184614258e+003;4.3108974609e+003;4.3207690430e+003;4.3091025391e+003;4.2755126953e+003;4.2917949219e+003;4.2850000000e+003;4.3039741211e+003;4.2969228516e+003;4.2908974609e+003;
3.0468750000e+000;4.2650000000e+003;4.3344873047e+003;4.3232050781e+003;4.3207690430e+003;4.3478203125e+003;4.3265385742e+003;4.3376923828e+003;4.3320512695e+003;4.3000000000e+003;4.3197436523e+003;4.3111538086e+003;4.3208974609e+003;4.3298715820e+003;4.3169228516e+003;
3.0546875000e+000;4.2447436523e+003;4.3153847656e+003;4.3025639648e+003;4.3015385742e+003;4.3247436523e+003;4.3061538086e+003;4.3179487305e+003;4.3151284180e+003;4.2835898438e+003;4.3029487305e+003;4.2920512695e+003;4.3012822266e+003;4.3101284180e+003;4.2997436523e+003;
3.0625000000e+000;4.2373076172e+003;4.3052563477e+003;4.2916665039e+003;4.2908974609e+003;4.3038461914e+003;4.2898715820e+003;4.3014101563e+003;4.3071796875e+003;4.2850000000e+003;4.2929487305e+003;4.2810258789e+003;4.2897436523e+003;4.2914101563e+003;4.2891025391e+003;
3.0703125000e+000;4.2510258789e+003;4.3150000000e+003;4.3050000000e+003;4.3006411133e+003;4.3119228516e+003;4.2978203125e+003;4.3100000000e+003;4.3189741211e+003;4.3038461914e+003;4.3066665039e+003;4.2934614258e+003;4.3048715820e+003;4.3037177734e+003;4.3016665039e+003;
3.0781250000e+000;4.2798715820e+003;4.3365385742e+003;4.3356411133e+003;4.3203847656e+003;4.3308974609e+003;4.3160258789e+003;4.3400000000e+003;4.3433334961e+003;4.3415385742e+003;4.3415385742e+003;4.3234614258e+003;4.3387177734e+003;4.3360258789e+003;4.3353847656e+003;
3.0859375000e+000;4.3424360352e+003;4.4047436523e+003;4.3992309570e+003;4.3862822266e+003;4.4055126953e+003;4.3978203125e+003;4.4162822266e+003;4.4200000000e+003;4.4173076172e+003;4.4192309570e+003;4.3974360352e+003;4.4064101563e+003;4.4097436523e+003;4.4052563477e+003;
3.0937500000e+000;4.3761538086e+003;4.4384614258e+003;4.4319228516e+003;4.4191025391e+003;4.4417949219e+003;4.4357690430e+003;4.4502563477e+003;4.4510258789e+003;4.4501284180e+003;4.4503847656e+003;4.4287177734e+003;4.4374360352e+003;4.4438461914e+003;4.4357690430e+003;
3.1015625000e+000;4.4355126953e+003;4.5001284180e+003;4.4920512695e+003;4.4760258789e+003;4.5033334961e+003;4.4950000000e+003;4.5073076172e+003;4.5070512695e+003;4.5092309570e+003;4.5101284180e+003;4.4871796875e+003;4.4951284180e+003;4.5033334961e+003;4.4932050781e+003;
3.1093750000e+000;4.4860258789e+003;4.5619228516e+003;4.5558974609e+003;4.5294873047e+003;4.5619228516e+003;4.5507690430e+003;4.5614101563e+003;4.5678203125e+003;4.5738461914e+003;4.5797436523e+003;4.5512822266e+003;4.5582050781e+003;4.5605126953e+003;4.5539741211e+003;
3.1171875000e+000;4.3087177734e+003;4.3861538086e+003;4.3857690430e+003;4.3671796875e+003;4.3964101563e+003;4.3964101563e+003;4.4055126953e+003;4.4000000000e+003;4.3944873047e+003;4.3991025391e+003;4.3815385742e+003;4.3878203125e+003;4.3912822266e+003;4.3846152344e+003;
3.1250000000e+000;4.3267949219e+003;4.4026923828e+003;4.4002563477e+003;4.3834614258e+003;4.4133334961e+003;4.4098715820e+003;4.4188461914e+003;4.4107690430e+003;4.4005126953e+003;4.4091025391e+003;4.3932050781e+003;4.3992309570e+003;4.4066665039e+003;4.3991025391e+003;
3.1328125000e+000;4.3576923828e+003;4.4335898438e+003;4.4303847656e+003;4.4133334961e+003;4.4410258789e+003;4.4338461914e+003;4.4419228516e+003;4.4357690430e+003;4.4219228516e+003;4.4361538086e+003;4.4180771484e+003;4.4262822266e+003;4.4329487305e+003;4.4271796875e+003;
3.1406250000e+000;4.3594873047e+003;4.4364101563e+003;4.4343588867e+003;4.4176923828e+003;4.4392309570e+003;4.4314101563e+003;4.4380771484e+003;4.4351284180e+003;4.4179487305e+003;4.4362822266e+003;4.4153847656e+003;4.4275639648e+003;4.4296152344e+003;4.4273076172e+003;
3.1484375000e+000;4.2807690430e+003;4.3555126953e+003;4.3601284180e+003;4.3469228516e+003;4.3511538086e+003;4.3405126953e+003;4.3516665039e+003;4.3556411133e+003;4.3264101563e+003;4.3464101563e+003;4.3343588867e+003;4.3462822266e+003;4.3442309570e+003;4.3466665039e+003;
3.1562500000e+000;4.2566665039e+003;4.3261538086e+003;4.3356411133e+003;4.3197436523e+003;4.3192309570e+003;4.3092309570e+003;4.3205126953e+003;4.3270512695e+003;4.2985898438e+003;4.3187177734e+003;4.3080771484e+003;4.3220512695e+003;4.3169228516e+003;4.3224360352e+003;
3.1640625000e+000;4.2452563477e+003;4.3003847656e+003;4.3150000000e+003;4.2955126953e+003;4.2855126953e+003;4.2744873047e+003;4.2812822266e+003;4.2865385742e+003;4.2697436523e+003;4.2852563477e+003;4.2850000000e+003;4.3044873047e+003;4.2937177734e+003;4.3053847656e+003;
3.1718750000e+000;4.1767949219e+003;4.2226923828e+003;4.2435898438e+003;4.2264101563e+003;4.2130771484e+003;4.2041025391e+003;4.2092309570e+003;4.2171796875e+003;4.2070512695e+003;4.2184614258e+003;4.2157690430e+003;4.2382050781e+003;4.2251284180e+003;4.2387177734e+003;
3.1796875000e+000;4.1384614258e+003;4.1820512695e+003;4.2024360352e+003;4.1887177734e+003;4.1747436523e+003;4.1666665039e+003;4.1738461914e+003;4.1766665039e+003;4.1705126953e+003;4.1771796875e+003;4.1743588867e+003;4.1952563477e+003;4.1837177734e+003;4.1964101563e+003;
3.1875000000e+000;4.1376923828e+003;4.1774360352e+003;4.1839741211e+003;4.1792309570e+003;4.1700000000e+003;4.1706411133e+003;4.1705126953e+003;4.1674360352e+003;4.1707690430e+003;4.1678203125e+003;4.1625639648e+003;4.1762822266e+003;4.1778203125e+003;4.1811538086e+003;
3.1953125000e+000;4.1225639648e+003;4.1615385742e+003;4.1661538086e+003;4.1642309570e+003;4.1553847656e+003;4.1633334961e+003;4.1601284180e+003;4.1526923828e+003;4.1548715820e+003;4.1517949219e+003;4.1461538086e+003;4.1594873047e+003;4.1626923828e+003;4.1647436523e+003;
3.2031250000e+000;4.1701284180e+003;4.2079487305e+003;4.2103847656e+003;4.2171796875e+003;4.2130771484e+003;4.2171796875e+003;4.2197436523e+003;4.2041025391e+003;4.2069228516e+003;4.2062822266e+003;4.2029487305e+003;4.2084614258e+003;4.2164101563e+003;4.2157690430e+003;
3.2109375000e+000;4.1685898438e+003;4.2069228516e+003;4.2097436523e+003;4.2169228516e+003;4.2121796875e+003;4.2160258789e+003;4.2164101563e+003;4.2042309570e+003;4.2091025391e+003;4.2064101563e+003;4.2029487305e+003;4.2075639648e+003;4.2161538086e+003;4.2155126953e+003;
3.2187500000e+000;4.1408974609e+003;4.1823076172e+003;4.1796152344e+003;4.1853847656e+003;4.1823076172e+003;4.1894873047e+003;4.1812822266e+003;4.1711538086e+003;4.1739741211e+003;4.1680771484e+003;4.1637177734e+003;4.1717949219e+003;4.1808974609e+003;4.1794873047e+003;
3.2265625000e+000;4.1623076172e+003;4.2062822266e+003;4.1975639648e+003;4.2028203125e+003;4.2042309570e+003;4.2082050781e+003;4.1988461914e+003;4.1893588867e+003;4.1874360352e+003;4.1847436523e+003;4.1782050781e+003;4.1882050781e+003;4.1975639648e+003;4.1939741211e+003;
3.2343750000e+000;4.1893588867e+003;4.2350000000e+003;4.2229487305e+003;4.2284614258e+003;4.2330771484e+003;4.2326923828e+003;4.2241025391e+003;4.2171796875e+003;4.2096152344e+003;4.2120512695e+003;4.2020512695e+003;4.2132050781e+003;4.2221796875e+003;4.2171796875e+003;
3.2421875000e+000;4.1258974609e+003;4.1558974609e+003;4.1593588867e+003;4.1646152344e+003;4.1587177734e+003;4.1639741211e+003;4.1585898438e+003;4.1537177734e+003;4.1453847656e+003;4.1443588867e+003;4.1369228516e+003;4.1406411133e+003;4.1558974609e+003;4.1583334961e+003;
3.2500000000e+000;4.1129487305e+003;4.1402563477e+003;4.1455126953e+003;4.1494873047e+003;4.1414101563e+003;4.1483334961e+003;4.1423076172e+003;4.1414101563e+003;4.1326923828e+003;4.1314101563e+003;4.1251284180e+003;4.1319228516e+003;4.1430771484e+003;4.1464101563e+003;
3.2578125000e+000;4.1029487305e+003;4.1150000000e+003;4.1260258789e+003;4.1297436523e+003;4.1191025391e+003;4.1232050781e+003;4.1185898438e+003;4.1233334961e+003;4.1123076172e+003;4.1097436523e+003;4.1061538086e+003;4.1233334961e+003;4.1216665039e+003;4.1250000000e+003;
3.2656250000e+000;4.1358974609e+003;4.1460258789e+003;4.1564101563e+003;4.1587177734e+003;4.1478203125e+003;4.1480771484e+003;4.1433334961e+003;4.1537177734e+003;4.1447436523e+003;4.1432050781e+003;4.1387177734e+003;4.1566665039e+003;4.1534614258e+003;4.1571796875e+003;
3.2734375000e+000;4.1211538086e+003;4.1289741211e+003;4.1439741211e+003;4.1443588867e+003;4.1235898438e+003;4.1253847656e+003;4.1185898438e+003;4.1337177734e+003;4.1285898438e+003;4.1298715820e+003;4.1280771484e+003;4.1464101563e+003;4.1398715820e+003;4.1493588867e+003;
3.2812500000e+000;4.0651281738e+003;4.0603845215e+003;4.0824357910e+003;4.0847436523e+003;4.0600000000e+003;4.0582050781e+003;4.0566667480e+003;4.0707692871e+003;4.0698718262e+003;4.0694870605e+003;4.0730769043e+003;4.0883332520e+003;4.0843588867e+003;4.0923076172e+003;
3.2890625000e+000;4.0242307129e+003;4.0174357910e+003;4.0417949219e+003;4.0443588867e+003;4.0191025391e+003;4.0215385742e+003;4.0198718262e+003;4.0355129395e+003;4.0356411133e+003;4.0306411133e+003;4.0323076172e+003;4.0506411133e+003;4.0429487305e+003;4.0507692871e+003;
3.2968750000e+000;3.9676923828e+003;3.9582050781e+003;3.9848718262e+003;3.9871794434e+003;3.9628205566e+003;3.9774357910e+003;3.9756411133e+003;3.9796154785e+003;3.9824357910e+003;3.9697436523e+003;3.9701281738e+003;3.9919230957e+003;3.9805129395e+003;3.9897436523e+003;
3.3046875000e+000;3.9711538086e+003;3.9597436523e+003;3.9875642090e+003;3.9893588867e+003;3.9675642090e+003;3.9860256348e+003;3.9833332520e+003;3.9820512695e+003;3.9862819824e+003;3.9711538086e+003;3.9693588867e+003;3.9917949219e+003;3.9803845215e+003;3.9900000000e+003;
3.3125000000e+000;3.9725642090e+003;3.9494870605e+003;3.9800000000e+003;3.9871794434e+003;3.9715385742e+003;3.9952563477e+003;3.9910256348e+003;3.9885898438e+003;3.9905129395e+003;3.9626923828e+003;3.9556411133e+003;3.9796154785e+003;3.9679487305e+003;3.9757692871e+003;
3.3203125000e+000;3.9930769043e+003;3.9697436523e+003;3.9967949219e+003;4.0056411133e+003;3.9935898438e+003;4.0146154785e+003;4.0124357910e+003;4.0108974609e+003;4.0105129395e+003;3.9830769043e+003;3.9752563477e+003;3.9948718262e+003;3.9870512695e+003;3.9939743652e+003;
3.3281250000e+000;3.9632050781e+003;3.9435898438e+003;3.9638461914e+003;3.9793588867e+003;3.9647436523e+003;3.9912819824e+003;3.9820512695e+003;3.9839743652e+003;3.9787180176e+003;3.9630769043e+003;3.9492307129e+003;3.9601281738e+003;3.9594870605e+003;3.9656411133e+003;
3.3359375000e+000;3.9310256348e+003;3.9100000000e+003;3.9291025391e+003;3.9488461914e+003;3.9310256348e+003;3.9616667480e+003;3.9500000000e+003;3.9476923828e+003;3.9415385742e+003;3.9230769043e+003;3.9129487305e+003;3.9257692871e+003;3.9262819824e+003;3.9292307129e+003;
3.3437500000e+000;3.9661538086e+003;3.9412819824e+003;3.9562819824e+003;3.9765385742e+003;3.9628205566e+003;3.9883332520e+003;3.9801281738e+003;3.9744870605e+003;3.9671794434e+003;3.9430769043e+003;3.9408974609e+003;3.9544870605e+003;3.9578205566e+003;3.9585898438e+003;
3.3515625000e+000;3.9867949219e+003;3.9596154785e+003;3.9751281738e+003;3.9911538086e+003;3.9800000000e+003;4.0026923828e+003;3.9952563477e+003;3.9942307129e+003;3.9855129395e+003;3.9646154785e+003;3.9619230957e+003;3.9734614258e+003;3.9750000000e+003;3.9812819824e+003;
3.3593750000e+000;3.9787180176e+003;3.9492307129e+003;3.9657692871e+003;3.9785898438e+003;3.9664101563e+003;3.9894870605e+003;3.9806411133e+003;3.9839743652e+003;3.9737180176e+003;3.9591025391e+003;3.9544870605e+003;3.9641025391e+003;3.9621794434e+003;3.9750000000e+003;
3.3671875000e+000;3.9808974609e+003;3.9506411133e+003;3.9638461914e+003;3.9760256348e+003;3.9487180176e+003;3.9550000000e+003;3.9461538086e+003;3.9594870605e+003;3.9494870605e+003;3.9524357910e+003;3.9589743652e+003;3.9719230957e+003;3.9653845215e+003;3.9750000000e+003;
3.3750000000e+000;3.9539743652e+003;3.9202563477e+003;3.9379487305e+003;3.9491025391e+003;3.9169230957e+003;3.9225642090e+003;3.9165385742e+003;3.9289743652e+003;3.9194870605e+003;3.9214101563e+003;3.9296154785e+003;3.9433332520e+003;3.9337180176e+003;3.9474357910e+003;
3.3828125000e+000;3.9474357910e+003;3.9097436523e+003;3.9283332520e+003;3.9392307129e+003;3.9052563477e+003;3.9092307129e+003;3.9092307129e+003;3.9216667480e+003;3.9173076172e+003;3.9144870605e+003;3.9152563477e+003;3.9276923828e+003;3.9219230957e+003;3.9346154785e+003;
3.3906250000e+000;3.8948718262e+003;3.8537180176e+003;3.8712819824e+003;3.8888461914e+003;3.8600000000e+003;3.8767949219e+003;3.8746154785e+003;3.8779487305e+003;3.8653845215e+003;3.8551281738e+003;3.8598718262e+003;3.8711538086e+003;3.8691025391e+003;3.8721794434e+003;
3.3984375000e+000;3.9288461914e+003;3.8865385742e+003;3.9017949219e+003;3.9203845215e+003;3.8946154785e+003;3.9106411133e+003;3.9112819824e+003;3.9156411133e+003;3.9006411133e+003;3.8902563477e+003;3.8924357910e+003;3.9002563477e+003;3.9020512695e+003;3.9023076172e+003;
3.4062500000e+000;3.9392307129e+003;3.8952563477e+003;3.9124357910e+003;3.9302563477e+003;3.9085898438e+003;3.9376923828e+003;3.9325642090e+003;3.9429487305e+003;3.9282050781e+003;3.9115385742e+003;3.9002563477e+003;3.9098718262e+003;3.9128205566e+003;3.9139743652e+003;
3.4140625000e+000;3.9235898438e+003;3.8784614258e+003;3.8962819824e+003;3.9142307129e+003;3.8969230957e+003;3.9292307129e+003;3.9196154785e+003;3.9279487305e+003;3.9137180176e+003;3.8941025391e+003;3.8844870605e+003;3.8951281738e+003;3.8973076172e+003;3.8979487305e+003;
3.4218750000e+000;3.9329487305e+003;3.8820512695e+003;3.9023076172e+003;3.9178205566e+003;3.9064101563e+003;3.9366667480e+003;3.9262819824e+003;3.9371794434e+003;3.9207692871e+003;3.9017949219e+003;3.8988461914e+003;3.9075642090e+003;3.9071794434e+003;3.9061538086e+003;
3.4296875000e+000;3.9158974609e+003;3.8600000000e+003;3.8848718262e+003;3.8985898438e+003;3.8833332520e+003;3.9157692871e+003;3.9071794434e+003;3.9192307129e+003;3.9010256348e+003;3.8823076172e+003;3.8823076172e+003;3.8919230957e+003;3.8878205566e+003;3.8888461914e+003;
