Time (s),AF3,F7,F3,FC5,T7,P7,O1,O2,P8,T8,FC6,F4,F8,AF4,Sampling Rate
0.0000000000e+000,4.1611538086e+003,4.1330771484e+003,4.1015385742e+003,4.0730769043e+003,4.1089741211e+003,4.0650000000e+003,4.0735898438e+003,4.0548718262e+003,4.0661538086e+003,4.1035898438e+003,4.0907692871e+003,4.1265385742e+003,4.1085898438e+003,4.1321796875e+003,128
7.8125000000e-003,4.3351284180e+003,4.3273076172e+003,4.2732050781e+003,4.2646152344e+003,4.2620512695e+003,4.2437177734e+003,4.2491025391e+003,4.2426923828e+003,4.2439741211e+003,4.3051284180e+003,4.2948715820e+003,4.3079487305e+003,4.2993588867e+003,4.3103847656e+003,
1.5625000000e-002,4.2650000000e+003,4.2623076172e+003,4.2258974609e+003,4.2046152344e+003,4.2275639648e+003,4.1962822266e+003,4.2015385742e+003,4.2016665039e+003,4.2039741211e+003,4.2566665039e+003,4.2333334961e+003,4.2520512695e+003,4.2574360352e+003,4.2491025391e+003,
2.3437500000e-002,4.2364101563e+003,4.2302563477e+003,4.1996152344e+003,4.1782050781e+003,4.2042309570e+003,4.1732050781e+003,4.1778203125e+003,4.1750000000e+003,4.1803847656e+003,4.2303847656e+003,4.2047436523e+003,4.2279487305e+003,4.2292309570e+003,4.2219228516e+003,
3.1250000000e-002,4.2216665039e+003,4.2152563477e+003,4.1855126953e+003,4.1655126953e+003,4.1912822266e+003,4.1632050781e+003,4.1658974609e+003,4.1615385742e+003,4.1670512695e+003,4.2178203125e+003,4.1916665039e+003,4.2170512695e+003,4.2124360352e+003,4.2087177734e+003,
3.9062500000e-002,4.2288461914e+003,4.2337177734e+003,4.2003847656e+003,4.1778203125e+003,4.2117949219e+003,4.1803847656e+003,4.1801284180e+003,4.1770512695e+003,4.1755126953e+003,4.2269228516e+003,4.2032050781e+003,4.2333334961e+003,4.2169228516e+003,4.2201284180e+003,
4.6875000000e-002,4.3125639648e+003,4.3291025391e+003,4.2962822266e+003,4.2692309570e+003,4.3219228516e+003,4.2752563477e+003,4.2724360352e+003,4.2712822266e+003,4.2735898438e+003,4.3221796875e+003,4.3050000000e+003,4.3232050781e+003,4.3114101563e+003,4.3064101563e+003,
5.4687500000e-002,4.3266665039e+003,4.3451284180e+003,4.3107690430e+003,4.2855126953e+003,4.3344873047e+003,4.2912822266e+003,4.2882050781e+003,4.2885898438e+003,4.2930771484e+003,4.3464101563e+003,4.3300000000e+003,4.3389741211e+003,4.3328203125e+003,4.3225639648e+003,
6.2500000000e-002,4.3202563477e+003,4.3424360352e+003,4.3065385742e+003,4.2820512695e+003,4.3244873047e+003,4.2871796875e+003,4.2853847656e+003,4.2867949219e+003,4.2912822266e+003,4.3496152344e+003,4.3324360352e+003,4.3365385742e+003,4.3344873047e+003,4.3208974609e+003,
7.0312500000e-002,4.2837177734e+003,4.3175639648e+003,4.2782050781e+003,4.2546152344e+003,4.2906411133e+003,4.2606411133e+003,4.2602563477e+003,4.2633334961e+003,4.2644873047e+003,4.3246152344e+003,4.2997436523e+003,4.3108974609e+003,4.3116665039e+003,4.2950000000e+003,
7.8125000000e-002,4.2756411133e+003,4.3135898438e+003,4.2726923828e+003,4.2512822266e+003,4.2883334961e+003,4.2594873047e+003,4.2570512695e+003,4.2616665039e+003,4.2624360352e+003,4.3196152344e+003,4.2894873047e+003,4.3073076172e+003,4.3066665039e+003,4.2885898438e+003,
8.5937500000e-002,4.2783334961e+003,4.3161538086e+003,4.2758974609e+003,4.2571796875e+003,4.2946152344e+003,4.2674360352e+003,4.2623076172e+003,4.2682050781e+003,4.2701284180e+003,4.3239741211e+003,4.2919228516e+003,4.3132050781e+003,4.3088461914e+003,4.2905126953e+003,
9.3750000000e-002,4.4592309570e+003,4.4984614258e+003,4.4517949219e+003,4.4315385742e+003,4.4770512695e+003,4.4371796875e+003,4.4307690430e+003,4.4373076172e+003,4.4361538086e+003,4.4961538086e+003,4.4866665039e+003,4.4857690430e+003,4.4860258789e+003,4.4729487305e+003,
1.0156250000e-001,4.4665385742e+003,4.5061538086e+003,4.4617949219e+003,4.4369228516e+003,4.4834614258e+003,4.4462822266e+003,4.4375639648e+003,4.4473076172e+003,4.4447436523e+003,4.5061538086e+003,4.4910258789e+003,4.4943588867e+003,4.4950000000e+003,4.4784614258e+003,
1.0937500000e-001,4.4020512695e+003,4.4371796875e+003,4.4048715820e+003,4.3634614258e+003,4.4126923828e+003,4.3912822266e+003,4.3776923828e+003,4.3866665039e+003,4.3852563477e+003,4.4410258789e+003,4.4293588867e+003,4.4379487305e+003,4.4334614258e+003,4.4234614258e+003,
1.1718750000e-001,4.4939741211e+003,4.5392309570e+003,4.4865385742e+003,4.4450000000e+003,4.4953847656e+003,4.4724360352e+003,4.4608974609e+003,4.4684614258e+003,4.4612822266e+003,4.5239741211e+003,4.5061538086e+003,4.5226923828e+003,4.5193588867e+003,4.5238461914e+003,
1.2500000000e-001,4.5069228516e+003,4.5521796875e+003,4.4993588867e+003,4.4521796875e+003,4.5070512695e+003,4.4844873047e+003,4.4725639648e+003,4.4815385742e+003,4.4732050781e+003,4.5407690430e+003,4.5201284180e+003,4.5346152344e+003,4.5330771484e+003,4.5382050781e+003,
1.3281250000e-001,4.3420512695e+003,4.3778203125e+003,4.3461538086e+003,4.2801284180e+003,4.3382050781e+003,4.3275639648e+003,4.3151284180e+003,4.3230771484e+003,4.3164101563e+003,4.3800000000e+003,4.3758974609e+003,4.3755126953e+003,4.3755126953e+003,4.3861538086e+003,
1.4062500000e-001,4.2874360352e+003,4.3189741211e+003,4.2907690430e+003,4.2297436523e+003,4.2744873047e+003,4.2702563477e+003,4.2601284180e+003,4.2643588867e+003,4.2575639648e+003,4.3161538086e+003,4.3155126953e+003,4.3176923828e+003,4.3193588867e+003,4.3346152344e+003,
1.4843750000e-001,4.2907690430e+003,4.3200000000e+003,4.2833334961e+003,4.2401284180e+003,4.2624360352e+003,4.2610258789e+003,4.2560258789e+003,4.2542309570e+003,4.2505126953e+003,4.3043588867e+003,4.2951284180e+003,4.3082050781e+003,4.3179487305e+003,4.3347436523e+003,
1.5625000000e-001,4.3255126953e+003,4.3555126953e+003,4.3143588867e+003,4.2738461914e+003,4.2997436523e+003,4.2917949219e+003,4.2871796875e+003,4.2838461914e+003,4.2842309570e+003,4.3375639648e+003,4.3270512695e+003,4.3410258789e+003,4.3493588867e+003,4.3670512695e+003,
1.6406250000e-001,4.3642309570e+003,4.3857690430e+003,4.3601284180e+003,4.3047436523e+003,4.3573076172e+003,4.3296152344e+003,4.3216665039e+003,4.3212822266e+003,4.3253847656e+003,4.3751284180e+003,4.3874360352e+003,4.3894873047e+003,4.3792309570e+003,4.4137177734e+003,
1.7187500000e-001,4.3606411133e+003,4.3767949219e+003,4.3579487305e+003,4.3008974609e+003,4.3448715820e+003,4.3233334961e+003,4.3167949219e+003,4.3200000000e+003,4.3210258789e+003,4.3720512695e+003,4.3843588867e+003,4.3851284180e+003,4.3797436523e+003,4.4133334961e+003,
1.7968750000e-001,4.3508974609e+003,4.3617949219e+003,4.3489741211e+003,4.2924360352e+003,4.3085898438e+003,4.3075639648e+003,4.3048715820e+003,4.3120512695e+003,4.3096152344e+003,4.3650000000e+003,4.3678203125e+003,4.3716665039e+003,4.3820512695e+003,4.4060258789e+003,
1.8750000000e-001,4.3406411133e+003,4.3539741211e+003,4.3393588867e+003,4.2821796875e+003,4.2969228516e+003,4.2970512695e+003,4.2946152344e+003,4.3000000000e+003,4.2991025391e+003,4.3542309570e+003,4.3546152344e+003,4.3623076172e+003,4.3737177734e+003,4.3962822266e+003,
1.9531250000e-001,4.3379487305e+003,4.3642309570e+003,4.3328203125e+003,4.2861538086e+003,4.3348715820e+003,4.3005126953e+003,4.2950000000e+003,4.2960258789e+003,4.2967949219e+003,4.3480771484e+003,4.3476923828e+003,4.3688461914e+003,4.3641025391e+003,4.3974360352e+003,
2.0312500000e-001,4.3637177734e+003,4.3898715820e+003,4.3574360352e+003,4.3152563477e+003,4.3634614258e+003,4.3267949219e+003,4.3210258789e+003,4.3217949219e+003,4.3210258789e+003,4.3739741211e+003,4.3744873047e+003,4.3956411133e+003,4.3903847656e+003,4.4250000000e+003,
2.1093750000e-001,4.4064101563e+003,4.4311538086e+003,4.4017949219e+003,4.3574360352e+003,4.3992309570e+003,4.3689741211e+003,4.3633334961e+003,4.3628203125e+003,4.3610258789e+003,4.4174360352e+003,4.4212822266e+003,4.4383334961e+003,4.4361538086e+003,4.4684614258e+003,
2.1875000000e-001,4.5557690430e+003,4.5901284180e+003,4.5671796875e+003,4.5030771484e+003,4.5456411133e+003,4.5196152344e+003,4.5152563477e+003,4.5197436523e+003,4.5152563477e+003,4.5850000000e+003,4.6053847656e+003,4.6064101563e+003,4.6071796875e+003,4.6298715820e+003,
2.2656250000e-001,4.5575639648e+003,4.5907690430e+003,4.5701284180e+003,4.5119228516e+003,4.5528203125e+003,4.5211538086e+003,4.5174360352e+003,4.5216665039e+003,4.5169228516e+003,4.5855126953e+003,4.5988461914e+003,4.6087177734e+003,4.6106411133e+003,4.6332050781e+003,
2.3437500000e-001,4.6458974609e+003,4.6916665039e+003,4.6612822266e+003,4.6107690430e+003,4.6589741211e+003,4.6171796875e+003,4.6060258789e+003,4.6108974609e+003,4.6093588867e+003,4.6883334961e+003,4.6907690430e+003,4.6967949219e+003,4.7157690430e+003,4.7197436523e+003,
2.4218750000e-001,4.6805126953e+003,4.7467949219e+003,4.7106411133e+003,4.6508974609e+003,4.6903847656e+003,4.6723076172e+003,4.6584614258e+003,4.6673076172e+003,4.6578203125e+003,4.7448715820e+003,4.7532050781e+003,4.7493588867e+003,4.7573076172e+003,4.7637177734e+003,
2.5000000000e-001,4.6783334961e+003,4.7442309570e+003,4.7130771484e+003,4.6492309570e+003,4.6871796875e+003,4.6738461914e+003,4.6571796875e+003,4.6707690430e+003,4.6610258789e+003,4.7451284180e+003,4.7561538086e+003,4.7515385742e+003,4.7547436523e+003,4.7650000000e+003,
2.5781250000e-001,4.5652563477e+003,4.6326923828e+003,4.6055126953e+003,4.5575639648e+003,4.5957690430e+003,4.5680771484e+003,4.5529487305e+003,4.5692309570e+003,4.5610258789e+003,4.6398715820e+003,4.6474360352e+003,4.6451284180e+003,4.6578203125e+003,4.6653847656e+003,
2.6562500000e-001,4.5174360352e+003,4.5956411133e+003,4.5617949219e+003,4.5373076172e+003,4.5456411133e+003,4.5408974609e+003,4.5294873047e+003,4.5350000000e+003,4.5292309570e+003,4.6021796875e+003,4.6037177734e+003,4.6026923828e+003,4.6215385742e+003,4.6267949219e+003,
2.7343750000e-001,4.5158974609e+003,4.5924360352e+003,4.5625639648e+003,4.5334614258e+003,4.5491025391e+003,4.5437177734e+003,4.5301284180e+003,4.5371796875e+003,4.5330771484e+003,4.6010258789e+003,4.6035898438e+003,4.6039741211e+003,4.6179487305e+003,4.6253847656e+003,
2.8125000000e-001,4.5098715820e+003,4.5826923828e+003,4.5560258789e+003,4.5212822266e+003,4.5530771484e+003,4.5367949219e+003,4.5215385742e+003,4.5305126953e+003,4.5280771484e+003,4.5926923828e+003,4.5978203125e+003,4.5969228516e+003,4.6080771484e+003,4.6169228516e+003,
2.8906250000e-001,4.5080771484e+003,4.5732050781e+003,4.5465385742e+003,4.5073076172e+003,4.5650000000e+003,4.5247436523e+003,4.5094873047e+003,4.5173076172e+003,4.5175639648e+003,4.5852563477e+003,4.5960258789e+003,4.5816665039e+003,4.6038461914e+003,4.6071796875e+003,
2.9687500000e-001,4.5384614258e+003,4.5987177734e+003,4.5839741211e+003,4.5430771484e+003,4.5797436523e+003,4.5566665039e+003,4.5424360352e+003,4.5465385742e+003,4.5474360352e+003,4.6142309570e+003,4.6224360352e+003,4.6141025391e+003,4.6324360352e+003,4.6412822266e+003,
3.0468750000e-001,4.5212822266e+003,4.5844873047e+003,4.5707690430e+003,4.5358974609e+003,4.5657690430e+003,4.5447436523e+003,4.5288461914e+003,4.5355126953e+003,4.5357690430e+003,4.5973076172e+003,4.6046152344e+003,4.6039741211e+003,4.6146152344e+003,4.6278203125e+003,
3.1250000000e-001,4.4793588867e+003,4.5476923828e+003,4.5305126953e+003,4.5055126953e+003,4.5315385742e+003,4.5089741211e+003,4.4916665039e+003,4.5007690430e+003,4.5002563477e+003,4.5574360352e+003,4.5644873047e+003,4.5679487305e+003,4.5765385742e+003,4.5893588867e+003,
3.2031250000e-001,4.3687177734e+003,4.4438461914e+003,4.4221796875e+003,4.4070512695e+003,4.4296152344e+003,4.4112822266e+003,4.3943588867e+003,4.4003847656e+003,4.4011538086e+003,4.4533334961e+003,4.4607690430e+003,4.4619228516e+003,4.4800000000e+003,4.4829487305e+003,
3.2812500000e-001,4.3392309570e+003,4.4129487305e+003,4.3938461914e+003,4.3732050781e+003,4.3982050781e+003,4.3846152344e+003,4.3692309570e+003,4.3715385742e+003,4.3742309570e+003,4.4250000000e+003,4.4326923828e+003,4.4303847656e+003,4.4515385742e+003,4.4521796875e+003,
3.3593750000e-001,4.3402563477e+003,4.4105126953e+003,4.3938461914e+003,4.3650000000e+003,4.3952563477e+003,4.3839741211e+003,4.3694873047e+003,4.3705126953e+003,4.3747436523e+003,4.4248715820e+003,4.4325639648e+003,4.4265385742e+003,4.4475639648e+003,4.4494873047e+003,
3.4375000000e-001,4.4333334961e+003,4.5002563477e+003,4.4887177734e+003,4.4420512695e+003,4.4676923828e+003,4.4596152344e+003,4.4494873047e+003,4.4523076172e+003,4.4493588867e+003,4.4991025391e+003,4.5061538086e+003,4.5061538086e+003,4.5276923828e+003,4.5260258789e+003,
3.5156250000e-001,4.4144873047e+003,4.4841025391e+003,4.4691025391e+003,4.4280771484e+003,4.4583334961e+003,4.4392309570e+003,4.4300000000e+003,4.4324360352e+003,4.4303847656e+003,4.4794873047e+003,4.4848715820e+003,4.4865385742e+003,4.5046152344e+003,4.5053847656e+003,
3.5937500000e-001,4.4046152344e+003,4.4711538086e+003,4.4465385742e+003,4.4260258789e+003,4.4580771484e+003,4.4265385742e+003,4.4194873047e+003,4.4161538086e+003,4.4132050781e+003,4.4620512695e+003,4.4703847656e+003,4.4734614258e+003,4.4767949219e+003,4.4937177734e+003,
3.6718750000e-001,4.6823076172e+003,4.7580771484e+003,4.7285898438e+003,4.6948715820e+003,4.7171796875e+003,4.7014101563e+003,4.6933334961e+003,4.6960258789e+003,4.6907690430e+003,4.7592309570e+003,4.7732050781e+003,4.7501284180e+003,4.7697436523e+003,4.7723076172e+003,
3.7500000000e-001,4.6866665039e+003,4.7660258789e+003,4.7361538086e+003,4.7000000000e+003,4.7221796875e+003,4.7055126953e+003,4.6978203125e+003,4.7067949219e+003,4.7006411133e+003,4.7729487305e+003,4.7820512695e+003,4.7569228516e+003,4.7780771484e+003,4.7773076172e+003,
3.8281250000e-001,4.5173076172e+003,4.6042309570e+003,4.5715385742e+003,4.5364101563e+003,4.5853847656e+003,4.5550000000e+003,4.5417949219e+003,4.5514101563e+003,4.5455126953e+003,4.6058974609e+003,4.6147436523e+003,4.5937177734e+003,4.6133334961e+003,4.6150000000e+003,
3.9062500000e-001,4.5111538086e+003,4.6017949219e+003,4.5673076172e+003,4.5315385742e+003,4.5889741211e+003,4.5530771484e+003,4.5387177734e+003,4.5447436523e+003,4.5420512695e+003,4.6002563477e+003,4.6096152344e+003,4.5893588867e+003,4.6112822266e+003,4.6123076172e+003,
3.9843750000e-001,4.5176923828e+003,4.6105126953e+003,4.5762822266e+003,4.5382050781e+003,4.5937177734e+003,4.5539741211e+003,4.5435898438e+003,4.5467949219e+003,4.5484614258e+003,4.6111538086e+003,4.6120512695e+003,4.6001284180e+003,4.6250000000e+003,4.6232050781e+003,
4.0625000000e-001,4.4939741211e+003,4.5852563477e+003,4.5512822266e+003,4.5119228516e+003,4.5630771484e+003,4.5347436523e+003,4.5192309570e+003,4.5233334961e+003,4.5255126953e+003,4.5893588867e+003,4.5858974609e+003,4.5775639648e+003,4.6024360352e+003,4.5996152344e+003,
4.1406250000e-001,4.4188461914e+003,4.5032050781e+003,4.4774360352e+003,4.4280771484e+003,4.4901284180e+003,4.5482050781e+003,4.4584614258e+003,4.4639741211e+003,4.4684614258e+003,4.5150000000e+003,4.5196152344e+003,4.5026923828e+003,4.5182050781e+003,4.5210258789e+003,
4.2187500000e-001,4.4257690430e+003,4.5043588867e+003,4.4874360352e+003,4.4376923828e+003,4.4958974609e+003,4.5803847656e+003,4.4658974609e+003,4.4708974609e+003,4.4753847656e+003,4.5183334961e+003,4.5270512695e+003,4.5078203125e+003,4.5187177734e+003,4.5253847656e+003,
4.2968750000e-001,4.4629487305e+003,4.5323076172e+003,4.5251284180e+003,4.4821796875e+003,4.5191025391e+003,4.6233334961e+003,4.4902563477e+003,4.4960258789e+003,4.4976923828e+003,4.5461538086e+003,4.5507690430e+003,4.5400000000e+003,4.5473076172e+003,4.5580771484e+003,
4.3750000000e-001,4.4764101563e+003,4.5483334961e+003,4.5362822266e+003,4.4960258789e+003,4.5302563477e+003,4.6298715820e+003,4.4978203125e+003,4.5056411133e+003,4.5039741211e+003,4.5567949219e+003,4.5558974609e+003,4.5541025391e+003,4.5608974609e+003,4.5725639648e+003,
4.4531250000e-001,4.4106411133e+003,4.4953847656e+003,4.4714101563e+003,4.4289741211e+003,4.4707690430e+003,4.5662822266e+003,4.4300000000e+003,4.4456411133e+003,4.4378203125e+003,4.4923076172e+003,4.4943588867e+003,4.4941025391e+003,4.5043588867e+003,4.5150000000e+003,
4.5312500000e-001,4.3442309570e+003,4.4248715820e+003,4.4078203125e+003,4.3664101563e+003,4.4034614258e+003,4.5042309570e+003,4.3656411133e+003,4.3805126953e+003,4.3747436523e+003,4.4270512695e+003,4.4351284180e+003,4.4261538086e+003,4.4397436523e+003,4.4483334961e+003,
4.6093750000e-001,4.2798715820e+003,4.3541025391e+003,4.3450000000e+003,4.3061538086e+003,4.3380771484e+003,4.4420512695e+003,4.3048715820e+003,4.3152563477e+003,4.3123076172e+003,4.3611538086e+003,4.3738461914e+003,4.3594873047e+003,4.3734614258e+003,4.3819228516e+003,
4.6875000000e-001,4.2464101563e+003,4.3160258789e+003,4.3111538086e+003,4.2753847656e+003,4.3029487305e+003,4.4092309570e+003,4.2762822266e+003,4.2789741211e+003,4.2793588867e+003,4.3233334961e+003,4.3383334961e+003,4.3242309570e+003,4.3348715820e+003,4.3461538086e+003,
4.7656250000e-001,4.3910258789e+003,4.4637177734e+003,4.4432050781e+003,4.4137177734e+003,4.4201284180e+003,4.5362822266e+003,4.4078203125e+003,4.4061538086e+003,4.4184614258e+003,4.4598715820e+003,4.4664101563e+003,4.4550000000e+003,4.4624360352e+003,4.4764101563e+003,
4.8437500000e-001,4.1323076172e+003,4.1800000000e+003,4.1857690430e+003,4.1455126953e+003,4.1765385742e+003,4.2860258789e+003,4.1524360352e+003,4.1539741211e+003,4.1637177734e+003,4.1934614258e+003,4.1938461914e+003,4.1964101563e+003,4.2023076172e+003,4.2207690430e+003,
4.9218750000e-001,4.1196152344e+003,4.1669228516e+003,4.1706411133e+003,4.1315385742e+003,4.1646152344e+003,4.2762822266e+003,4.1435898438e+003,4.1439741211e+003,4.1519228516e+003,4.1741025391e+003,4.1774360352e+003,4.1816665039e+003,4.1894873047e+003,4.2071796875e+003,
5.0000000000e-001,4.1211538086e+003,4.1762822266e+003,4.1701284180e+003,4.1361538086e+003,4.1632050781e+003,4.2742309570e+003,4.1434614258e+003,4.1487177734e+003,4.1521796875e+003,4.1717949219e+003,4.1817949219e+003,4.1825639648e+003,4.1837177734e+003,4.2048715820e+003,
5.0781250000e-001,4.0085898438e+003,4.0302563477e+003,4.0411538086e+003,4.0078205566e+003,4.0073076172e+003,4.1400000000e+003,4.0158974609e+003,4.0151281738e+003,4.0207692871e+003,4.0389743652e+003,4.0426923828e+003,4.0516667480e+003,4.0500000000e+003,4.0801281738e+003,
5.1562500000e-001,3.9878205566e+003,4.0028205566e+003,4.0161538086e+003,3.9864101563e+003,3.9824357910e+003,4.1191025391e+003,3.9957692871e+003,3.9925642090e+003,4.0001281738e+003,4.0130769043e+003,4.0161538086e+003,4.0311538086e+003,4.0269230957e+003,4.0579487305e+003,
5.2343750000e-001,3.8750000000e+003,3.8874357910e+003,3.8983332520e+003,3.8767949219e+003,3.8861538086e+003,4.0073076172e+003,3.8839743652e+003,3.8783332520e+003,3.8939743652e+003,3.9002563477e+003,3.9005129395e+003,3.9232050781e+003,3.9070512695e+003,3.9421794434e+003,
5.3125000000e-001,3.7810256348e+003,3.7892307129e+003,3.8026923828e+003,3.7823076172e+003,3.7934614258e+003,3.9110256348e+003,3.7889743652e+003,3.7820512695e+003,3.8024357910e+003,3.8065385742e+003,3.8066667480e+003,3.8270512695e+003,3.8078205566e+003,3.8455129395e+003,
5.3906250000e-001,3.5525642090e+003,3.5269230957e+003,3.5724357910e+003,3.5446154785e+003,3.5128205566e+003,3.6702563477e+003,3.5621794434e+003,3.5455129395e+003,3.5721794434e+003,3.5573076172e+003,3.5692307129e+003,3.5814101563e+003,3.5712819824e+003,3.6129487305e+003,
5.4687500000e-001,3.5307692871e+003,3.4978205566e+003,3.5461538086e+003,3.5212819824e+003,3.4879487305e+003,3.6457692871e+003,3.5407692871e+003,3.5228205566e+003,3.5503845215e+003,3.5275642090e+003,3.5396154785e+003,3.5552563477e+003,3.5491025391e+003,3.5887180176e+003,
5.5468750000e-001,3.5215385742e+003,3.4814101563e+003,3.5191025391e+003,3.5085898438e+003,3.4965385742e+003,3.6287180176e+003,3.5243588867e+003,3.5093588867e+003,3.5382050781e+003,3.5083332520e+003,3.5101281738e+003,3.5361538086e+003,3.5330769043e+003,3.5687180176e+003,
5.6250000000e-001,3.5147436523e+003,3.4706411133e+003,3.5046154785e+003,3.4953845215e+003,3.4900000000e+003,3.6153845215e+003,3.5108974609e+003,3.4973076172e+003,3.5253845215e+003,3.4958974609e+003,3.4921794434e+003,3.5228205566e+003,3.5184614258e+003,3.5571794434e+003,
5.7031250000e-001,3.5280769043e+003,3.4744870605e+003,3.5047436523e+003,3.4810256348e+003,3.4644870605e+003,3.6080769043e+003,3.5071794434e+003,3.4944870605e+003,3.5191025391e+003,3.4889743652e+003,3.4867949219e+003,3.5161538086e+003,3.5152563477e+003,3.5623076172e+003,
5.7812500000e-001,3.5437180176e+003,3.4882050781e+003,3.5157692871e+003,3.4950000000e+003,3.4755129395e+003,3.6185898438e+003,3.5189743652e+003,3.5076923828e+003,3.5334614258e+003,3.5011538086e+003,3.5029487305e+003,3.5292307129e+003,3.5324357910e+003,3.5738461914e+003,
5.8593750000e-001,3.5611538086e+003,3.5021794434e+003,3.5284614258e+003,3.5134614258e+003,3.4950000000e+003,3.6305129395e+003,3.5321794434e+003,3.5217949219e+003,3.5491025391e+003,3.5152563477e+003,3.5214101563e+003,3.5453845215e+003,3.5501281738e+003,3.5862819824e+003,
5.9375000000e-001,3.5873076172e+003,3.5232050781e+003,3.5501281738e+003,3.5387180176e+003,3.5252563477e+003,3.6501281738e+003,3.5530769043e+003,3.5423076172e+003,3.5707692871e+003,3.5374357910e+003,3.5482050781e+003,3.5693588867e+003,3.5725642090e+003,3.6070512695e+003,
6.0156250000e-001,3.7365385742e+003,3.6617949219e+003,3.6841025391e+003,3.6658974609e+003,3.6487180176e+003,3.7883332520e+003,3.6917949219e+003,3.6724357910e+003,3.7026923828e+003,3.6866667480e+003,3.6907692871e+003,3.7067949219e+003,3.7129487305e+003,3.7426923828e+003,
6.0937500000e-001,3.7491025391e+003,3.6743588867e+003,3.6932050781e+003,3.6771794434e+003,3.6575642090e+003,3.8005129395e+003,3.7023076172e+003,3.6812819824e+003,3.7116667480e+003,3.6974357910e+003,3.6952563477e+003,3.7156411133e+003,3.7246154785e+003,3.7487180176e+003,
6.1718750000e-001,3.7751281738e+003,3.7043588867e+003,3.7180769043e+003,3.7035898438e+003,3.7126923828e+003,3.8237180176e+003,3.7178205566e+003,3.7060256348e+003,3.7360256348e+003,3.7237180176e+003,3.7214101563e+003,3.7358974609e+003,3.7485898438e+003,3.7634614258e+003,
6.2500000000e-001,3.8200000000e+003,3.7385898438e+003,3.7621794434e+003,3.7379487305e+003,3.7323076172e+003,3.8543588867e+003,3.7569230957e+003,3.7407692871e+003,3.7683332520e+003,3.7621794434e+003,3.7666667480e+003,3.7770512695e+003,3.7914101563e+003,3.8035898438e+003,
6.3281250000e-001,3.8415385742e+003,3.7583332520e+003,3.7805129395e+003,3.7560256348e+003,3.7466667480e+003,3.8720512695e+003,3.7757692871e+003,3.7583332520e+003,3.7820512695e+003,3.7783332520e+003,3.7839743652e+003,3.7979487305e+003,3.8082050781e+003,3.8188461914e+003,
6.4062500000e-001,3.8692307129e+003,3.7952563477e+003,3.8110256348e+003,3.7830769043e+003,3.7982050781e+003,3.9055129395e+003,3.8084614258e+003,3.7907692871e+003,3.8058974609e+003,3.7979487305e+003,3.8066667480e+003,3.8334614258e+003,3.8294870605e+003,3.8383332520e+003,
6.4843750000e-001,3.9555129395e+003,3.8815385742e+003,3.8965385742e+003,3.8826923828e+003,3.8770512695e+003,3.9766667480e+003,3.8900000000e+003,3.8771794434e+003,3.8930769043e+003,3.8946154785e+003,3.8776923828e+003,3.9111538086e+003,3.9271794434e+003,3.9211538086e+003,
6.5625000000e-001,3.9602563477e+003,3.8871794434e+003,3.9012819824e+003,3.8880769043e+003,3.8808974609e+003,3.9814101563e+003,3.8951281738e+003,3.8855129395e+003,3.9005129395e+003,3.9069230957e+003,3.8884614258e+003,3.9194870605e+003,3.9334614258e+003,3.9265385742e+003,
6.6406250000e-001,3.8955129395e+003,3.8266667480e+003,3.8420512695e+003,3.8239743652e+003,3.8202563477e+003,3.9329487305e+003,3.8426923828e+003,3.8378205566e+003,3.8541025391e+003,3.8471794434e+003,3.8475642090e+003,3.8697436523e+003,3.8696154785e+003,3.8717949219e+003,
6.7187500000e-001,3.8858974609e+003,3.8170512695e+003,3.8326923828e+003,3.8196154785e+003,3.8074357910e+003,3.9228205566e+003,3.8344870605e+003,3.8300000000e+003,3.8465385742e+003,3.8344870605e+003,3.8355129395e+003,3.8585898438e+003,3.8608974609e+003,3.8647436523e+003,
6.7968750000e-001,3.8858974609e+003,3.8139743652e+003,3.8307692871e+003,3.8239743652e+003,3.8044870605e+003,3.9106411133e+003,3.8287180176e+003,3.8217949219e+003,3.8374357910e+003,3.8287180176e+003,3.8262819824e+003,3.8553845215e+003,3.8607692871e+003,3.8665385742e+003,
6.8750000000e-001,3.8847436523e+003,3.8123076172e+003,3.8280769043e+003,3.8189743652e+003,3.8080769043e+003,3.9047436523e+003,3.8224357910e+003,3.8138461914e+003,3.8301281738e+003,3.8260256348e+003,3.8220512695e+003,3.8552563477e+003,3.8579487305e+003,3.8643588867e+003,
6.9531250000e-001,3.8930769043e+003,3.8265385742e+003,3.8326923828e+003,3.8212819824e+003,3.8348718262e+003,3.9205129395e+003,3.8262819824e+003,3.8107692871e+003,3.8298718262e+003,3.8269230957e+003,3.8201281738e+003,3.8596154785e+003,3.8537180176e+003,3.8606411133e+003,
7.0312500000e-001,3.9174357910e+003,3.8500000000e+003,3.8565385742e+003,3.8484614258e+003,3.8547436523e+003,3.9475642090e+003,3.8528205566e+003,3.8339743652e+003,3.8535898438e+003,3.8498718262e+003,3.8456411133e+003,3.8798718262e+003,3.8753845215e+003,3.8821794434e+003,
7.1093750000e-001,3.9514101563e+003,3.8826923828e+003,3.8900000000e+003,3.8855129395e+003,3.8806411133e+003,3.9824357910e+003,3.8891025391e+003,3.8687180176e+003,3.8891025391e+003,3.8874357910e+003,3.8858974609e+003,3.9115385742e+003,3.9102563477e+003,3.9162819824e+003,
7.1875000000e-001,3.9826923828e+003,3.9156411133e+003,3.9208974609e+003,3.9201281738e+003,3.9064101563e+003,4.0146154785e+003,3.9226923828e+003,3.9033332520e+003,3.9243588867e+003,3.9269230957e+003,3.9255129395e+003,3.9437180176e+003,3.9456411133e+003,3.9506411133e+003,
7.2656250000e-001,3.9030769043e+003,3.8443588867e+003,3.8442307129e+003,3.8507692871e+003,3.8473076172e+003,3.9350000000e+003,3.8415385742e+003,3.8251281738e+003,3.8411538086e+003,3.8483332520e+003,3.8347436523e+003,3.8678205566e+003,3.8682050781e+003,3.8770512695e+003,
7.3437500000e-001,3.8756411133e+003,3.8097436523e+003,3.8187180176e+003,3.8193588867e+003,3.8208974609e+003,3.9037180176e+003,3.8124357910e+003,3.7914101563e+003,3.8078205566e+003,3.8114101563e+003,3.8003845215e+003,3.8357692871e+003,3.8380769043e+003,3.8442307129e+003,
7.4218750000e-001,3.8298718262e+003,3.7574357910e+003,3.7783332520e+003,3.7769230957e+003,3.7579487305e+003,3.8501281738e+003,3.7729487305e+003,3.7538461914e+003,3.7664101563e+003,3.7606411133e+003,3.7588461914e+003,3.8006411133e+003,3.7903845215e+003,3.8037180176e+003,
7.5000000000e-001,3.8007692871e+003,3.7317949219e+003,3.7407692871e+003,3.7569230957e+003,3.7151281738e+003,3.8125642090e+003,3.7474357910e+003,3.7308974609e+003,3.7419230957e+003,3.7328205566e+003,3.7537180176e+003,3.7776923828e+003,3.7576923828e+003,3.7855129395e+003,
7.5781250000e-001,3.8551281738e+003,3.7842307129e+003,3.7932050781e+003,3.8082050781e+003,3.7723076172e+003,3.8593588867e+003,3.7971794434e+003,3.7791025391e+003,3.7937180176e+003,3.7860256348e+003,3.8058974609e+003,3.8261538086e+003,3.8150000000e+003,3.8358974609e+003,
7.6562500000e-001,4.1919228516e+003,4.1387177734e+003,4.1255126953e+003,4.1430771484e+003,4.1308974609e+003,4.1841025391e+003,4.1162822266e+003,4.1039741211e+003,4.1215385742e+003,4.1264101563e+003,4.1175639648e+003,4.1460258789e+003,4.1610258789e+003,4.1594873047e+003,
7.7343750000e-001,4.3305126953e+003,4.2896152344e+003,4.2614101563e+003,4.2823076172e+003,4.2773076172e+003,4.3261538086e+003,4.2528203125e+003,4.2457690430e+003,4.2594873047e+003,4.2738461914e+003,4.2603847656e+003,4.2839741211e+003,4.3014101563e+003,4.2974360352e+003,
7.8125000000e-001,4.6007690430e+003,4.5826923828e+003,4.5337177734e+003,4.5467949219e+003,4.5641025391e+003,4.6070512695e+003,4.5258974609e+003,4.5219228516e+003,4.5276923828e+003,4.5688461914e+003,4.5567949219e+003,4.5615385742e+003,4.5808974609e+003,4.5739741211e+003,
7.8906250000e-001,4.7741025391e+003,4.7693588867e+003,4.7098715820e+003,4.7148715820e+003,4.7511538086e+003,4.7837177734e+003,4.7001284180e+003,4.6926923828e+003,4.6957690430e+003,4.7533334961e+003,4.7437177734e+003,4.7376923828e+003,4.7629487305e+003,4.7506411133e+003,
7.9687500000e-001,5.4155126953e+003,5.4692309570e+003,5.3615385742e+003,5.3589741211e+003,5.4344873047e+003,5.4374360352e+003,5.3353847656e+003,5.3415385742e+003,5.3334614258e+003,5.4484614258e+003,5.4374360352e+003,5.4006411133e+003,5.4393588867e+003,5.4050000000e+003,
8.0468750000e-001,5.4614101563e+003,5.5298715820e+003,5.4208974609e+003,5.4143588867e+003,5.4844873047e+003,5.4946152344e+003,5.3853847656e+003,5.4061538086e+003,5.3929487305e+003,5.5191025391e+003,5.5053847656e+003,5.4666665039e+003,5.4958974609e+003,5.4619228516e+003,
8.1250000000e-001,5.3496152344e+003,5.4262822266e+003,5.3283334961e+003,5.3132050781e+003,5.3767949219e+003,5.3969228516e+003,5.2839741211e+003,5.3158974609e+003,5.3008974609e+003,5.4270512695e+003,5.4114101563e+003,5.3766665039e+003,5.3930771484e+003,5.3642309570e+003,
8.2031250000e-001,4.5535898438e+003,4.6243588867e+003,4.5767949219e+003,4.5598715820e+003,4.6129487305e+003,4.6460258789e+003,4.5579487305e+003,4.5410258789e+003,4.5370512695e+003,4.6019228516e+003,4.5987177734e+003,4.6016665039e+003,4.6102563477e+003,4.6042309570e+003,
8.2812500000e-001,4.6561538086e+003,4.7229487305e+003,4.6767949219e+003,4.6602563477e+003,4.7050000000e+003,4.7417949219e+003,4.6583334961e+003,4.6411538086e+003,4.6324360352e+003,4.7005126953e+003,4.7001284180e+003,4.7026923828e+003,4.7126923828e+003,4.7065385742e+003,
8.3593750000e-001,4.6182050781e+003,4.6884614258e+003,4.6523076172e+003,4.6076923828e+003,4.6655126953e+003,4.7011538086e+003,4.6237177734e+003,4.6323076172e+003,4.6228203125e+003,4.6866665039e+003,4.6975639648e+003,4.6894873047e+003,4.6888461914e+003,4.6851284180e+003,
8.4375000000e-001,4.5326923828e+003,4.6048715820e+003,4.5701284180e+003,4.5248715820e+003,4.5865385742e+003,4.6179487305e+003,4.5457690430e+003,4.5535898438e+003,4.5447436523e+003,4.6012822266e+003,4.6143588867e+003,4.6067949219e+003,4.6024360352e+003,4.6010258789e+003,
8.5156250000e-001,4.5708974609e+003,4.6424360352e+003,4.6020512695e+003,4.5684614258e+003,4.6220512695e+003,4.6460258789e+003,4.5853847656e+003,4.5935898438e+003,4.5808974609e+003,4.6353847656e+003,4.6476923828e+003,4.6341025391e+003,4.6360258789e+003,4.6326923828e+003,
8.5937500000e-001,4.4189741211e+003,4.4770512695e+003,4.4601284180e+003,4.4156411133e+003,4.4510258789e+003,4.4879487305e+003,4.4225639648e+003,4.4496152344e+003,4.4479487305e+003,4.4916665039e+003,4.4851284180e+003,4.4876923828e+003,4.4934614258e+003,4.4873076172e+003,
8.6718750000e-001,4.2807690430e+003,4.3332050781e+003,4.3253847656e+003,4.2846152344e+003,4.3092309570e+003,4.3608974609e+003,4.2915385742e+003,4.3103847656e+003,4.3101284180e+003,4.3461538086e+003,4.3364101563e+003,4.3485898438e+003,4.3510258789e+003,4.3475639648e+003,
8.7500000000e-001,4.2198715820e+003,4.2674360352e+003,4.2574360352e+003,4.2279487305e+003,4.2488461914e+003,4.3119228516e+003,4.2393588867e+003,4.2375639648e+003,4.2365385742e+003,4.2658974609e+003,4.2629487305e+003,4.2737177734e+003,4.2755126953e+003,4.2785898438e+003,
8.8281250000e-001,4.2914101563e+003,4.3394873047e+003,4.3210258789e+003,4.2915385742e+003,4.3258974609e+003,4.3788461914e+003,4.3062822266e+003,4.3001284180e+003,4.3014101563e+003,4.3312822266e+003,4.3347436523e+003,4.3373076172e+003,4.3405126953e+003,4.3457690430e+003,
8.9062500000e-001,4.2947436523e+003,4.3400000000e+003,4.3173076172e+003,4.2850000000e+003,4.3192309570e+003,4.3717949219e+003,4.2928203125e+003,4.2964101563e+003,4.3092309570e+003,4.3334614258e+003,4.3375639648e+003,4.3405126953e+003,4.3402563477e+003,4.3458974609e+003,
8.9843750000e-001,4.1948715820e+003,4.2328203125e+003,4.2225639648e+003,4.1920512695e+003,4.2044873047e+003,4.2752563477e+003,4.1961538086e+003,4.1970512695e+003,4.2087177734e+003,4.2287177734e+003,4.2308974609e+003,4.2426923828e+003,4.2382050781e+003,4.2462822266e+003,
9.0625000000e-001,4.0779487305e+003,4.1002563477e+003,4.1084614258e+003,4.0811538086e+003,4.0783332520e+003,4.1575639648e+003,4.0837180176e+003,4.0685898438e+003,4.0764101563e+003,4.0932050781e+003,4.0951281738e+003,4.1167949219e+003,4.1076923828e+003,4.1205126953e+003,
9.1406250000e-001,4.0933332520e+003,4.1116665039e+003,4.1178203125e+003,4.0929487305e+003,4.1032050781e+003,4.1673076172e+003,4.0955129395e+003,4.0741025391e+003,4.0820512695e+003,4.1000000000e+003,4.1008974609e+003,4.1233334961e+003,4.1143588867e+003,4.1274360352e+003,
9.2187500000e-001,4.2273076172e+003,4.2392309570e+003,4.2396152344e+003,4.2084614258e+003,4.2489741211e+003,4.2852563477e+003,4.2202563477e+003,4.1946152344e+003,4.1950000000e+003,4.2194873047e+003,4.2300000000e+003,4.2511538086e+003,4.2338461914e+003,4.2539741211e+003,
9.2968750000e-001,4.2579487305e+003,4.2666665039e+003,4.2715385742e+003,4.2344873047e+003,4.2705126953e+003,4.3116665039e+003,4.2505126953e+003,4.2255126953e+003,4.2194873047e+003,4.2482050781e+003,4.2662822266e+003,4.2837177734e+003,4.2647436523e+003,4.2860258789e+003,
9.3750000000e-001,4.2800000000e+003,4.2866665039e+003,4.2939741211e+003,4.2543588867e+003,4.2842309570e+003,4.3289741211e+003,4.2715385742e+003,4.2476923828e+003,4.2367949219e+003,4.2698715820e+003,4.2915385742e+003,4.3056411133e+003,4.2875639648e+003,4.3065385742e+003,
9.4531250000e-001,4.2947436523e+003,4.3015385742e+003,4.3073076172e+003,4.2698715820e+003,4.2950000000e+003,4.3387177734e+003,4.2852563477e+003,4.2628203125e+003,4.2505126953e+003,4.2856411133e+003,4.3044873047e+003,4.3188461914e+003,4.3029487305e+003,4.3174360352e+003,
9.5312500000e-001,4.3371796875e+003,4.3560258789e+003,4.3453847656e+003,4.3226923828e+003,4.3446152344e+003,4.3742309570e+003,4.3266665039e+003,4.3241025391e+003,4.3217949219e+003,4.3464101563e+003,4.3441025391e+003,4.3633334961e+003,4.3602563477e+003,4.3647436523e+003,
9.6093750000e-001,4.2855126953e+003,4.3017949219e+003,4.2998715820e+003,4.2575639648e+003,4.2764101563e+003,4.3202563477e+003,4.2693588867e+003,4.2769228516e+003,4.2816665039e+003,4.2992309570e+003,4.3056411133e+003,4.3185898438e+003,4.3030771484e+003,4.3170512695e+003,
9.6875000000e-001,4.4347436523e+003,4.4666665039e+003,4.4450000000e+003,4.4153847656e+003,4.4408974609e+003,4.4782050781e+003,4.4219228516e+003,4.4303847656e+003,4.4332050781e+003,4.4646152344e+003,4.4661538086e+003,4.4576923828e+003,4.4678203125e+003,4.4675639648e+003,
9.7656250000e-001,4.5061538086e+003,4.5451284180e+003,4.5164101563e+003,4.4916665039e+003,4.5279487305e+003,4.5557690430e+003,4.4942309570e+003,4.5039741211e+003,4.5069228516e+003,4.5458974609e+003,4.5410258789e+003,4.5298715820e+003,4.5433334961e+003,4.5403847656e+003,
9.8437500000e-001,4.5596152344e+003,4.6156411133e+003,4.5769228516e+003,4.5600000000e+003,4.6134614258e+003,4.6323076172e+003,4.5615385742e+003,4.5588461914e+003,4.5662822266e+003,4.6057690430e+003,4.5970512695e+003,4.5948715820e+003,4.5973076172e+003,4.5948715820e+003,
9.9218750000e-001,4.5574360352e+003,4.6173076172e+003,4.5783334961e+003,4.5626923828e+003,4.6167949219e+003,4.6339741211e+003,4.5637177734e+003,4.5571796875e+003,4.5635898438e+003,4.6035898438e+003,4.5937177734e+003,4.5960258789e+003,4.5980771484e+003,4.5944873047e+003,
1.0000000000e+000,4.5267949219e+003,4.5882050781e+003,4.5548715820e+003,4.5342309570e+003,4.5906411133e+003,4.6044873047e+003,4.5330771484e+003,4.5289741211e+003,4.5308974609e+003,4.5782050781e+003,4.5642309570e+003,4.5708974609e+003,4.5734614258e+003,4.5678203125e+003,
1.0078125000e+000,4.4730771484e+003,4.5307690430e+003,4.5038461914e+003,4.4771796875e+003,4.5321796875e+003,4.5494873047e+003,4.4779487305e+003,4.4758974609e+003,4.4765385742e+003,4.5251284180e+003,4.5153847656e+003,4.5189741211e+003,4.5188461914e+003,4.5143588867e+003,
1.0156250000e+000,4.3251284180e+003,4.3679487305e+003,4.3608974609e+003,4.3258974609e+003,4.3579487305e+003,4.3894873047e+003,4.3362822266e+003,4.3167949219e+003,4.3128203125e+003,4.3474360352e+003,4.3693588867e+003,4.3701284180e+003,4.3567949219e+003,4.3653847656e+003,
1.0234375000e+000,4.3593588867e+003,4.4025639648e+003,4.3947436523e+003,4.3601284180e+003,4.3887177734e+003,4.4157690430e+003,4.3698715820e+003,4.3458974609e+003,4.3392309570e+003,4.3720512695e+003,4.3935898438e+003,4.4028203125e+003,4.3883334961e+003,4.3994873047e+003,
1.0312500000e+000,4.4425639648e+003,4.4879487305e+003,4.4744873047e+003,4.4356411133e+003,4.4628203125e+003,4.4851284180e+003,4.4452563477e+003,4.4315385742e+003,4.4194873047e+003,4.4591025391e+003,4.4647436523e+003,4.4883334961e+003,4.4710258789e+003,4.4842309570e+003,
1.0390625000e+000,4.4315385742e+003,4.4726923828e+003,4.4637177734e+003,4.4214101563e+003,4.4424360352e+003,4.4705126953e+003,4.4328203125e+003,4.4257690430e+003,4.4117949219e+003,4.4538461914e+003,4.4564101563e+003,4.4816665039e+003,4.4593588867e+003,4.4753847656e+003,
1.0468750000e+000,4.4146152344e+003,4.4456411133e+003,4.4482050781e+003,4.4103847656e+003,4.4205126953e+003,4.4392309570e+003,4.4148715820e+003,4.4115385742e+003,4.4012822266e+003,4.4364101563e+003,4.4516665039e+003,4.4662822266e+003,4.4415385742e+003,4.4601284180e+003,
1.0546875000e+000,4.4634614258e+003,4.5017949219e+003,4.4966665039e+003,4.4608974609e+003,4.4778203125e+003,4.4838461914e+003,4.4594873047e+003,4.4623076172e+003,4.4557690430e+003,4.4898715820e+003,4.5028203125e+003,4.5123076172e+003,4.4964101563e+003,4.5088461914e+003,
1.0625000000e+000,4.5070512695e+003,4.5529487305e+003,4.5414101563e+003,4.5053847656e+003,4.5266665039e+003,4.5262822266e+003,4.4980771484e+003,4.5106411133e+003,4.5075639648e+003,4.5410258789e+003,4.5483334961e+003,4.5544873047e+003,4.5466665039e+003,4.5529487305e+003,
1.0703125000e+000,4.5294873047e+003,4.5782050781e+003,4.5660258789e+003,4.5298715820e+003,4.5494873047e+003,4.5502563477e+003,4.5165385742e+003,4.5388461914e+003,4.5380771484e+003,4.5697436523e+003,4.5724360352e+003,4.5769228516e+003,4.5726923828e+003,4.5764101563e+003,
1.0781250000e+000,4.4860258789e+003,4.5283334961e+003,4.5232050781e+003,4.5051284180e+003,4.5246152344e+003,4.5429487305e+003,4.4961538086e+003,4.5283334961e+003,4.5316665039e+003,4.5571796875e+003,4.5474360352e+003,4.5419228516e+003,4.5319228516e+003,4.5424360352e+003,
1.0859375000e+000,4.3783334961e+003,4.4287177734e+003,4.4202563477e+003,4.3947436523e+003,4.4078203125e+003,4.4660258789e+003,4.4093588867e+003,4.4243588867e+003,4.4370512695e+003,4.4497436523e+003,4.4316665039e+003,4.4385898438e+003,4.4348715820e+003,4.4443588867e+003,
1.0937500000e+000,4.3665385742e+003,4.4143588867e+003,4.4084614258e+003,4.3878203125e+003,4.4111538086e+003,4.4496152344e+003,4.3965385742e+003,4.4055126953e+003,4.4175639648e+003,4.4314101563e+003,4.4183334961e+003,4.4262822266e+003,4.4196152344e+003,4.4325639648e+003,
1.1015625000e+000,4.3483334961e+003,4.4002563477e+003,4.3903847656e+003,4.3735898438e+003,4.4188461914e+003,4.4275639648e+003,4.3796152344e+003,4.3738461914e+003,4.3800000000e+003,4.4088461914e+003,4.4035898438e+003,4.4080771484e+003,4.3982050781e+003,4.4141025391e+003,
1.1093750000e+000,4.3157690430e+003,4.3589741211e+003,4.3641025391e+003,4.3505126953e+003,4.3588461914e+003,4.3910258789e+003,4.3429487305e+003,4.3202563477e+003,4.3173076172e+003,4.3560258789e+003,4.3685898438e+003,4.3716665039e+003,4.3650000000e+003,4.3785898438e+003,
1.1171875000e+000,4.2598715820e+003,4.2953847656e+003,4.3120512695e+003,4.2957690430e+003,4.2975639648e+003,4.3294873047e+003,4.2884614258e+003,4.2616665039e+003,4.2551284180e+003,4.2911538086e+003,4.3070512695e+003,4.3197436523e+003,4.3030771484e+003,4.3219228516e+003,
1.1250000000e+000,4.0888461914e+003,4.1200000000e+003,4.1464101563e+003,4.1205126953e+003,4.1180771484e+003,4.1528203125e+003,4.1219228516e+003,4.0930769043e+003,4.0792307129e+003,4.1116665039e+003,4.1234614258e+003,4.1537177734e+003,4.1241025391e+003,4.1508974609e+003,
1.1328125000e+000,4.0060256348e+003,4.0346154785e+003,4.0641025391e+003,4.0373076172e+003,4.0285898438e+003,4.0676923828e+003,4.0394870605e+003,4.0126923828e+003,3.9964101563e+003,4.0252563477e+003,4.0374357910e+003,4.0703845215e+003,4.0383332520e+003,4.0683332520e+003,
1.1406250000e+000,4.0266667480e+003,4.0330769043e+003,4.0719230957e+003,4.0542307129e+003,4.0315385742e+003,4.0624357910e+003,4.0484614258e+003,4.0298718262e+003,4.0184614258e+003,4.0260256348e+003,4.0547436523e+003,4.0765385742e+003,4.0492307129e+003,4.0817949219e+003,
1.1484375000e+000,4.1044873047e+003,4.1121796875e+003,4.1437177734e+003,4.1238461914e+003,4.1106411133e+003,4.1326923828e+003,4.1214101563e+003,4.1098715820e+003,4.1025639648e+003,4.1069228516e+003,4.1305126953e+003,4.1501284180e+003,4.1297436523e+003,4.1566665039e+003,
1.1562500000e+000,4.1688461914e+003,4.1875639648e+003,4.2048715820e+003,4.1770512695e+003,4.1774360352e+003,4.1975639648e+003,4.1817949219e+003,4.1887177734e+003,4.1861538086e+003,4.1924360352e+003,4.1901284180e+003,4.2156411133e+003,4.2021796875e+003,4.2200000000e+003,
1.1640625000e+000,4.1429487305e+003,4.1612822266e+003,4.1803847656e+003,4.1529487305e+003,4.1484614258e+003,4.1757690430e+003,4.1565385742e+003,4.1685898438e+003,4.1680771484e+003,4.1730771484e+003,4.1606411133e+003,4.1903847656e+003,4.1765385742e+003,4.1930771484e+003,
1.1718750000e+000,4.1124360352e+003,4.1244873047e+003,4.1451284180e+003,4.1275639648e+003,4.1147436523e+003,4.1561538086e+003,4.1323076172e+003,4.1410258789e+003,4.1528203125e+003,4.1424360352e+003,4.1320512695e+003,4.1496152344e+003,4.1383334961e+003,4.1532050781e+003,
1.1796875000e+000,4.1265385742e+003,4.1442309570e+003,4.1579487305e+003,4.1392309570e+003,4.1335898438e+003,4.1769228516e+003,4.1506411133e+003,4.1567949219e+003,4.1715385742e+003,4.1593588867e+003,4.1530771484e+003,4.1625639648e+003,4.1503847656e+003,4.1667949219e+003,
1.1875000000e+000,4.1339741211e+003,4.1575639648e+003,4.1656411133e+003,4.1456411133e+003,4.1457690430e+003,4.1920512695e+003,4.1617949219e+003,4.1646152344e+003,4.1807690430e+003,4.1694873047e+003,4.1647436523e+003,4.1683334961e+003,4.1556411133e+003,4.1737177734e+003,
1.1953125000e+000,4.1402563477e+003,4.1667949219e+003,4.1719228516e+003,4.1528203125e+003,4.1558974609e+003,4.2044873047e+003,4.1685898438e+003,4.1676923828e+003,4.1847436523e+003,4.1762822266e+003,4.1693588867e+003,4.1698715820e+003,4.1601284180e+003,4.1774360352e+003,
1.2031250000e+000,4.1942309570e+003,4.2161538086e+003,4.2182050781e+003,4.1985898438e+003,4.2300000000e+003,4.2561538086e+003,4.2111538086e+003,4.2012822266e+003,4.2185898438e+003,4.2261538086e+003,4.2062822266e+003,4.2097436523e+003,4.2185898438e+003,4.2239741211e+003,
1.2109375000e+000,4.1507690430e+003,4.1716665039e+003,4.1769228516e+003,4.1561538086e+003,4.1869228516e+003,4.2141025391e+003,4.1705126953e+003,4.1591025391e+003,4.1739741211e+003,4.1833334961e+003,4.1684614258e+003,4.1720512695e+003,4.1748715820e+003,4.1846152344e+003,
1.2187500000e+000,3.9839743652e+003,3.9930769043e+003,4.0111538086e+003,4.0088461914e+003,4.0015385742e+003,4.0488461914e+003,4.0088461914e+003,3.9826923828e+003,3.9894870605e+003,3.9950000000e+003,3.9934614258e+003,4.0121794434e+003,3.9953845215e+003,4.0193588867e+003,
1.2265625000e+000,3.9991025391e+003,3.9964101563e+003,4.0207692871e+003,4.0079487305e+003,3.9996154785e+003,4.0247436523e+003,4.0008974609e+003,3.9661538086e+003,3.9588461914e+003,3.9791025391e+003,3.9906411133e+003,4.0182050781e+003,4.0007692871e+003,4.0324357910e+003,
1.2343750000e+000,4.0023076172e+003,3.9984614258e+003,4.0228205566e+003,4.0053845215e+003,3.9955129395e+003,4.0187180176e+003,3.9993588867e+003,3.9675642090e+003,3.9552563477e+003,3.9814101563e+003,4.0002563477e+003,4.0212819824e+003,4.0055129395e+003,4.0369230957e+003,
1.2421875000e+000,4.0052563477e+003,3.9950000000e+003,4.0225642090e+003,3.9975642090e+003,3.9848718262e+003,4.0137180176e+003,4.0052563477e+003,3.9855129395e+003,3.9742307129e+003,3.9898718262e+003,4.0137180176e+003,4.0278205566e+003,4.0110256348e+003,4.0364101563e+003,
1.2500000000e+000,4.0000000000e+003,3.9869230957e+003,4.0083332520e+003,3.9926923828e+003,3.9694870605e+003,3.9997436523e+003,3.9951281738e+003,3.9976923828e+003,3.9957692871e+003,4.0024357910e+003,4.0042307129e+003,4.0278205566e+003,4.0155129395e+003,4.0306411133e+003,
1.2578125000e+000,3.9753845215e+003,3.9620512695e+003,3.9834614258e+003,3.9734614258e+003,3.9400000000e+003,3.9767949219e+003,3.9702563477e+003,3.9751281738e+003,3.9756411133e+003,3.9778205566e+003,3.9762819824e+003,3.9997436523e+003,3.9929487305e+003,4.0037180176e+003,
1.2656250000e+000,4.0744870605e+003,4.0637180176e+003,4.0820512695e+003,4.0703845215e+003,4.0665385742e+003,4.0925642090e+003,4.0758974609e+003,4.0792307129e+003,4.0857692871e+003,4.0739743652e+003,4.0733332520e+003,4.0806411133e+003,4.0894870605e+003,4.0901281738e+003,
1.2734375000e+000,4.1137177734e+003,4.1058974609e+003,4.1216665039e+003,4.1106411133e+003,4.1228203125e+003,4.1415385742e+003,4.1207690430e+003,4.1248715820e+003,4.1324360352e+003,4.1201284180e+003,4.1180771484e+003,4.1220512695e+003,4.1300000000e+003,4.1300000000e+003,
1.2812500000e+000,4.1014101563e+003,4.1011538086e+003,4.1097436523e+003,4.1105126953e+003,4.1255126953e+003,4.1501284180e+003,4.1196152344e+003,4.1164101563e+003,4.1270512695e+003,4.1198715820e+003,4.1121796875e+003,4.1183334961e+003,4.1192309570e+003,4.1198715820e+003,
1.2890625000e+000,4.1058974609e+003,4.1091025391e+003,4.1116665039e+003,4.1194873047e+003,4.1278203125e+003,4.1605126953e+003,4.1248715820e+003,4.1144873047e+003,4.1269228516e+003,4.1234614258e+003,4.1116665039e+003,4.1207690430e+003,4.1219228516e+003,4.1205126953e+003,
1.2968750000e+000,4.3137177734e+003,4.3253847656e+003,4.3180771484e+003,4.3248715820e+003,4.3402563477e+003,4.3648715820e+003,4.3238461914e+003,4.3123076172e+003,4.3198715820e+003,4.3282050781e+003,4.3024360352e+003,4.3235898438e+003,4.3337177734e+003,4.3161538086e+003,
1.3046875000e+000,4.3391025391e+003,4.3544873047e+003,4.3492309570e+003,4.3483334961e+003,4.3720512695e+003,4.3906411133e+003,4.3505126953e+003,4.3450000000e+003,4.3493588867e+003,4.3612822266e+003,4.3353847656e+003,4.3571796875e+003,4.3651284180e+003,4.3446152344e+003,
1.3125000000e+000,4.2969228516e+003,4.3150000000e+003,4.3133334961e+003,4.3047436523e+003,4.3329487305e+003,4.3511538086e+003,4.3119228516e+003,4.3097436523e+003,4.3126923828e+003,4.3260258789e+003,4.3057690430e+003,4.3234614258e+003,4.3269228516e+003,4.3064101563e+003,
1.3203125000e+000,4.2130771484e+003,4.2306411133e+003,4.2333334961e+003,4.2197436523e+003,4.2462822266e+003,4.2694873047e+003,4.2314101563e+003,4.2264101563e+003,4.2297436523e+003,4.2417949219e+003,4.2324360352e+003,4.2428203125e+003,4.2420512695e+003,4.2244873047e+003,
1.3281250000e+000,4.3324360352e+003,4.3316665039e+003,4.3434614258e+003,4.3174360352e+003,4.3280771484e+003,4.3573076172e+003,4.3333334961e+003,4.2962822266e+003,4.2896152344e+003,4.3114101563e+003,4.3229487305e+003,4.3428203125e+003,4.3382050781e+003,4.3323076172e+003,
1.3359375000e+000,4.4134614258e+003,4.4151284180e+003,4.4260258789e+003,4.3934614258e+003,4.4094873047e+003,4.4307690430e+003,4.4112822266e+003,4.3803847656e+003,4.3666665039e+003,4.3974360352e+003,4.4058974609e+003,4.4285898438e+003,4.4221796875e+003,4.4130771484e+003,
1.3437500000e+000,4.2901284180e+003,4.3007690430e+003,4.3100000000e+003,4.2889741211e+003,4.2866665039e+003,4.3050000000e+003,4.2929487305e+003,4.2801284180e+003,4.2679487305e+003,4.2955126953e+003,4.3007690430e+003,4.3226923828e+003,4.3121796875e+003,4.3035898438e+003,
1.3515625000e+000,4.3346152344e+003,4.3458974609e+003,4.3460258789e+003,4.3262822266e+003,4.3247436523e+003,4.3343588867e+003,4.3288461914e+003,4.3250000000e+003,4.3261538086e+003,4.3423076172e+003,4.3373076172e+003,4.3648715820e+003,4.3550000000e+003,4.3510258789e+003,
1.3593750000e+000,4.4012822266e+003,4.4171796875e+003,4.4158974609e+003,4.3869228516e+003,4.4014101563e+003,4.3984614258e+003,4.3930771484e+003,4.3976923828e+003,4.3966665039e+003,4.4162822266e+003,4.4128203125e+003,4.4342309570e+003,4.4214101563e+003,4.4170512695e+003,
1.3671875000e+000,4.2939741211e+003,4.3170512695e+003,4.3175639648e+003,4.2980771484e+003,4.3092309570e+003,4.3044873047e+003,4.2839741211e+003,4.3079487305e+003,4.3080771484e+003,4.3223076172e+003,4.3273076172e+003,4.3314101563e+003,4.3197436523e+003,4.3151284180e+003,
1.3750000000e+000,4.1889741211e+003,4.2150000000e+003,4.2084614258e+003,4.1912822266e+003,4.1967949219e+003,4.2141025391e+003,4.1985898438e+003,4.2033334961e+003,4.2111538086e+003,4.2105126953e+003,4.2034614258e+003,4.2258974609e+003,4.2269228516e+003,4.2106411133e+003,
1.3828125000e+000,4.2442309570e+003,4.2737177734e+003,4.2620512695e+003,4.2424360352e+003,4.2623076172e+003,4.2729487305e+003,4.2588461914e+003,4.2619228516e+003,4.2697436523e+003,4.2701284180e+003,4.2585898438e+003,4.2810258789e+003,4.2842309570e+003,4.2638461914e+003,
1.3906250000e+000,4.2092309570e+003,4.2362822266e+003,4.2284614258e+003,4.2192309570e+003,4.2400000000e+003,4.2632050781e+003,4.2316665039e+003,4.2382050781e+003,4.2493588867e+003,4.2502563477e+003,4.2405126953e+003,4.2484614258e+003,4.2421796875e+003,4.2344873047e+003,
1.3984375000e+000,4.1569228516e+003,4.1767949219e+003,4.1788461914e+003,4.1684614258e+003,4.1773076172e+003,4.2139741211e+003,4.1820512695e+003,4.1819228516e+003,4.1933334961e+003,4.1898715820e+003,4.1865385742e+003,4.1941025391e+003,4.1870512695e+003,4.1828203125e+003,
1.4062500000e+000,4.1658974609e+003,4.1791025391e+003,4.1884614258e+003,4.1750000000e+003,4.1760258789e+003,4.2137177734e+003,4.1900000000e+003,4.1780771484e+003,4.1843588867e+003,4.1791025391e+003,4.1844873047e+003,4.1919228516e+003,4.1944873047e+003,4.1862822266e+003,
1.4140625000e+000,4.1802563477e+003,4.1953847656e+003,4.2017949219e+003,4.1889741211e+003,4.1924360352e+003,4.2230771484e+003,4.2007690430e+003,4.1898715820e+003,4.1921796875e+003,4.1905126953e+003,4.1948715820e+003,4.2034614258e+003,4.2067949219e+003,4.1988461914e+003,
1.4218750000e+000,4.1460258789e+003,4.1625639648e+003,4.1674360352e+003,4.1534614258e+003,4.1588461914e+003,4.1869228516e+003,4.1629487305e+003,4.1546152344e+003,4.1542309570e+003,4.1558974609e+003,4.1575639648e+003,4.1707690430e+003,4.1664101563e+003,4.1646152344e+003,
1.4296875000e+000,3.9793588867e+003,3.9882050781e+003,4.0012819824e+003,3.9751281738e+003,3.9815385742e+003,4.0178205566e+003,3.9935898438e+003,3.9780769043e+003,3.9783332520e+003,3.9784614258e+003,3.9792307129e+003,4.0069230957e+003,3.9812819824e+003,3.9953845215e+003,
1.4375000000e+000,3.9489743652e+003,3.9511538086e+003,3.9687180176e+003,3.9389743652e+003,3.9444870605e+003,3.9816667480e+003,3.9620512695e+003,3.9376923828e+003,3.9397436523e+003,3.9382050781e+003,3.9405129395e+003,3.9725642090e+003,3.9455129395e+003,3.9602563477e+003,
1.4453125000e+000,3.9943588867e+003,3.9921794434e+003,4.0096154785e+003,3.9844870605e+003,3.9861538086e+003,4.0179487305e+003,4.0047436523e+003,3.9739743652e+003,3.9766667480e+003,3.9758974609e+003,3.9794870605e+003,4.0128205566e+003,3.9905129395e+003,4.0012819824e+003,
1.4531250000e+000,4.1637177734e+003,4.1692309570e+003,4.1733334961e+003,4.1617949219e+003,4.1538461914e+003,4.1473076172e+003,4.1391025391e+003,4.1507690430e+003,4.1597436523e+003,4.1655126953e+003,4.1646152344e+003,4.1888461914e+003,4.1725639648e+003,4.1778203125e+003,
1.4609375000e+000,4.1266665039e+003,4.1238461914e+003,4.1398715820e+003,4.1158974609e+003,4.1070512695e+003,4.1058974609e+003,4.1006411133e+003,4.1114101563e+003,4.1223076172e+003,4.1279487305e+003,4.1270512695e+003,4.1516665039e+003,4.1348715820e+003,4.1375639648e+003,
1.4687500000e+000,4.2556411133e+003,4.2520512695e+003,4.2607690430e+003,4.2382050781e+003,4.2346152344e+003,4.2324360352e+003,4.2285898438e+003,4.2356411133e+003,4.2478203125e+003,4.2523076172e+003,4.2512822266e+003,4.2724360352e+003,4.2588461914e+003,4.2611538086e+003,
1.4765625000e+000,4.0973076172e+003,4.1003847656e+003,4.1073076172e+003,4.0830769043e+003,4.0775642090e+003,4.1010258789e+003,4.0789743652e+003,4.0948718262e+003,4.1098715820e+003,4.1073076172e+003,4.0952563477e+003,4.1257690430e+003,4.0961538086e+003,4.1098715820e+003,
1.4843750000e+000,4.0391025391e+003,4.0396154785e+003,4.0497436523e+003,4.0243588867e+003,4.0216667480e+003,4.0505129395e+003,4.0289743652e+003,4.0324357910e+003,4.0476923828e+003,4.0439743652e+003,4.0379487305e+003,4.0628205566e+003,4.0361538086e+003,4.0510256348e+003,
1.4921875000e+000,4.1988461914e+003,4.2050000000e+003,4.2032050781e+003,4.1901284180e+003,4.2046152344e+003,4.2189741211e+003,4.1935898438e+003,4.1882050781e+003,4.2096152344e+003,4.2076923828e+003,4.2073076172e+003,4.2085898438e+003,4.2064101563e+003,4.2115385742e+003,
1.5000000000e+000,3.9520512695e+003,3.9588461914e+003,3.9616667480e+003,3.9529487305e+003,3.9516667480e+003,3.9875642090e+003,3.9594870605e+003,3.9502563477e+003,3.9732050781e+003,3.9606411133e+003,3.9421794434e+003,3.9700000000e+003,3.9584614258e+003,3.9629487305e+003,
1.5078125000e+000,3.9460256348e+003,3.9497436523e+003,3.9503845215e+003,3.9453845215e+003,3.9466667480e+003,3.9789743652e+003,3.9552563477e+003,3.9307692871e+003,3.9503845215e+003,3.9370512695e+003,3.9270512695e+003,3.9535898438e+003,3.9470512695e+003,3.9505129395e+003,
1.5156250000e+000,4.0598718262e+003,4.0603845215e+003,4.0574357910e+003,4.0546154785e+003,4.0644870605e+003,4.0839743652e+003,4.0634614258e+003,4.0282050781e+003,4.0424357910e+003,4.0337180176e+003,4.0351281738e+003,4.0565385742e+003,4.0553845215e+003,4.0587180176e+003,
1.5234375000e+000,4.3879487305e+003,4.3878203125e+003,4.3817949219e+003,4.3701284180e+003,4.3979487305e+003,4.3925639648e+003,4.3701284180e+003,4.3428203125e+003,4.3437177734e+003,4.3593588867e+003,4.3680771484e+003,4.3861538086e+003,4.3774360352e+003,4.3850000000e+003,
1.5312500000e+000,4.2853847656e+003,4.2933334961e+003,4.2910258789e+003,4.2647436523e+003,4.2871796875e+003,4.2894873047e+003,4.2717949219e+003,4.2623076172e+003,4.2564101563e+003,4.2850000000e+003,4.2911538086e+003,4.3084614258e+003,4.2844873047e+003,4.2930771484e+003,
1.5390625000e+000,4.1830771484e+003,4.1871796875e+003,4.1911538086e+003,4.1651284180e+003,4.1803847656e+003,4.1837177734e+003,4.1719228516e+003,4.1616665039e+003,4.1585898438e+003,4.1773076172e+003,4.1900000000e+003,4.2057690430e+003,4.1852563477e+003,4.1939741211e+003,
1.5468750000e+000,4.0950000000e+003,4.0917949219e+003,4.1053847656e+003,4.0814101563e+003,4.0858974609e+003,4.0893588867e+003,4.0814101563e+003,4.0739743652e+003,4.0743588867e+003,4.0823076172e+003,4.0996152344e+003,4.1161538086e+003,4.0979487305e+003,4.1089741211e+003,
1.5546875000e+000,3.8703845215e+003,3.8541025391e+003,3.8847436523e+003,3.8700000000e+003,3.8451281738e+003,3.8567949219e+003,3.8519230957e+003,3.8589743652e+003,3.8655129395e+003,3.8564101563e+003,3.8662819824e+003,3.8941025391e+003,3.8703845215e+003,3.8889743652e+003,
1.5625000000e+000,3.7223076172e+003,3.7017949219e+003,3.7362819824e+003,3.7260256348e+003,3.6896154785e+003,3.7088461914e+003,3.7078205566e+003,3.7158974609e+003,3.7269230957e+003,3.7089743652e+003,3.7102563477e+003,3.7476923828e+003,3.7194870605e+003,3.7415385742e+003,
1.5703125000e+000,3.5933332520e+003,3.5671794434e+003,3.6042307129e+003,3.5958974609e+003,3.5528205566e+003,3.5797436523e+003,3.5843588867e+003,3.5867949219e+003,3.6043588867e+003,3.5760256348e+003,3.5701281738e+003,3.6174357910e+003,3.5874357910e+003,3.6117949219e+003,
1.5781250000e+000,3.5042307129e+003,3.4479487305e+003,3.4907692871e+003,3.4820512695e+003,3.4414101563e+003,3.4865385742e+003,3.4900000000e+003,3.4867949219e+003,3.5203845215e+003,3.4735898438e+003,3.4697436523e+003,3.5008974609e+003,3.4839743652e+003,3.5026923828e+003,
1.5859375000e+000,3.4935898438e+003,3.4357692871e+003,3.4797436523e+003,3.4706411133e+003,3.4456411133e+003,3.4803845215e+003,3.4824357910e+003,3.4794870605e+003,3.5119230957e+003,3.4647436523e+003,3.4602563477e+003,3.4873076172e+003,3.4720512695e+003,3.4892307129e+003,
1.5937500000e+000,3.4992307129e+003,3.4329487305e+003,3.4715385742e+003,3.4820512695e+003,3.4712819824e+003,3.5017949219e+003,3.5024357910e+003,3.4900000000e+003,3.5274357910e+003,3.4717949219e+003,3.4489743652e+003,3.4782050781e+003,3.4842307129e+003,3.4871794434e+003,
1.6015625000e+000,3.5657692871e+003,3.4957692871e+003,3.5223076172e+003,3.5447436523e+003,3.5187180176e+003,3.5700000000e+003,3.5665385742e+003,3.5514101563e+003,3.5803845215e+003,3.5262819824e+003,3.5058974609e+003,3.5374357910e+003,3.5255129395e+003,3.5412819824e+003,
1.6093750000e+000,3.6003845215e+003,3.5271794434e+003,3.5541025391e+003,3.5737180176e+003,3.5494870605e+003,3.5988461914e+003,3.5943588867e+003,3.5811538086e+003,3.6083332520e+003,3.5557692871e+003,3.5392307129e+003,3.5702563477e+003,3.5541025391e+003,3.5725642090e+003,
1.6171875000e+000,3.5950000000e+003,3.5171794434e+003,3.5556411133e+003,3.5615385742e+003,3.5332050781e+003,3.5815385742e+003,3.5817949219e+003,3.5600000000e+003,3.5838461914e+003,3.5434614258e+003,3.5300000000e+003,3.5606411133e+003,3.5574357910e+003,3.5633332520e+003,
1.6250000000e+000,3.5948718262e+003,3.5180769043e+003,3.5553845215e+003,3.5585898438e+003,3.5248718262e+003,3.5753845215e+003,3.5787180176e+003,3.5502563477e+003,3.5702563477e+003,3.5361538086e+003,3.5260256348e+003,3.5571794434e+003,3.5551281738e+003,3.5602563477e+003,
1.6328125000e+000,3.6806411133e+003,3.5992307129e+003,3.6315385742e+003,3.6311538086e+003,3.5934614258e+003,3.6388461914e+003,3.6488461914e+003,3.6155129395e+003,3.6241025391e+003,3.6029487305e+003,3.6030769043e+003,3.6389743652e+003,3.6233332520e+003,3.6393588867e+003,
1.6406250000e+000,3.7287180176e+003,3.6407692871e+003,3.6760256348e+003,3.6726923828e+003,3.6374357910e+003,3.6748718262e+003,3.6884614258e+003,3.6587180176e+003,3.6623076172e+003,3.6455129395e+003,3.6484614258e+003,3.6883332520e+003,3.6644870605e+003,3.6856411133e+003,
1.6484375000e+000,3.6814101563e+003,3.5853845215e+003,3.6316667480e+003,3.6210256348e+003,3.6006411133e+003,3.6123076172e+003,3.6361538086e+003,3.6232050781e+003,3.6291025391e+003,3.6110256348e+003,3.6015385742e+003,3.6474357910e+003,3.6237180176e+003,3.6383332520e+003,
1.6562500000e+000,3.6261538086e+003,3.5307692871e+003,3.5771794434e+003,3.5661538086e+003,3.5458974609e+003,3.5562819824e+003,3.5829487305e+003,3.5716667480e+003,3.5833332520e+003,3.5602563477e+003,3.5461538086e+003,3.5944870605e+003,3.5687180176e+003,3.5853845215e+003,
1.6640625000e+000,3.5388461914e+003,3.4361538086e+003,3.4884614258e+003,3.4851281738e+003,3.4478205566e+003,3.4632050781e+003,3.4960256348e+003,3.4798718262e+003,3.5055129395e+003,3.4717949219e+003,3.4582050781e+003,3.5078205566e+003,3.4728205566e+003,3.5024357910e+003,
1.6718750000e+000,3.5058974609e+003,3.3987180176e+003,3.4538461914e+003,3.4591025391e+003,3.4102563477e+003,3.4280769043e+003,3.4616667480e+003,3.4423076172e+003,3.4753845215e+003,3.4385898438e+003,3.4279487305e+003,3.4715385742e+003,3.4383332520e+003,3.4693588867e+003,
1.6796875000e+000,3.4169230957e+003,3.3055129395e+003,3.3546154785e+003,3.3764101563e+003,3.3198718262e+003,3.3496154785e+003,3.3705129395e+003,3.3506411133e+003,3.3958974609e+003,3.3439743652e+003,3.3337180176e+003,3.3650000000e+003,3.3480769043e+003,3.3682050781e+003,
1.6875000000e+000,3.4379487305e+003,3.3247436523e+003,3.3688461914e+003,3.3891025391e+003,3.3396154785e+003,3.3735898438e+003,3.3906411133e+003,3.3701281738e+003,3.4147436523e+003,3.3571794434e+003,3.3412819824e+003,3.3782050781e+003,3.3624357910e+003,3.3820512695e+003,
1.6953125000e+000,3.4978205566e+003,3.3846154785e+003,3.4221794434e+003,3.4405129395e+003,3.3988461914e+003,3.4351281738e+003,3.4498718262e+003,3.4285898438e+003,3.4710256348e+003,3.4129487305e+003,3.3891025391e+003,3.4311538086e+003,3.4167949219e+003,3.4358974609e+003,
1.7031250000e+000,3.7102563477e+003,3.6206411133e+003,3.6364101563e+003,3.6446154785e+003,3.6339743652e+003,3.6666667480e+003,3.6638461914e+003,3.6453845215e+003,3.6779487305e+003,3.6434614258e+003,3.6056411133e+003,3.6385898438e+003,3.6293588867e+003,3.6433332520e+003,
1.7109375000e+000,3.7778205566e+003,3.6911538086e+003,3.7008974609e+003,3.7080769043e+003,3.7075642090e+003,3.7321794434e+003,3.7285898438e+003,3.7110256348e+003,3.7417949219e+003,3.7120512695e+003,3.6735898438e+003,3.7021794434e+003,3.6950000000e+003,3.7075642090e+003,
1.7187500000e+000,3.9869230957e+003,3.9164101563e+003,3.9028205566e+003,3.9197436523e+003,3.9085898438e+003,3.9393588867e+003,3.9401281738e+003,3.9200000000e+003,3.9384614258e+003,3.9289743652e+003,3.9037180176e+003,3.9125642090e+003,3.9105129395e+003,3.9166667480e+003,
1.7265625000e+000,4.0673076172e+003,4.0070512695e+003,3.9998718262e+003,3.9976923828e+003,4.0292307129e+003,4.0265385742e+003,4.0287180176e+003,4.0026923828e+003,4.0134614258e+003,4.0255129395e+003,3.9983332520e+003,4.0075642090e+003,4.0062819824e+003,4.0089743652e+003,
1.7343750000e+000,4.0433332520e+003,3.9802563477e+003,3.9826923828e+003,3.9785898438e+003,4.0169230957e+003,4.0056411133e+003,4.0096154785e+003,3.9861538086e+003,3.9967949219e+003,4.0124357910e+003,3.9775642090e+003,3.9897436523e+003,3.9887180176e+003,3.9874357910e+003,
1.7421875000e+000,3.8956411133e+003,3.8321794434e+003,3.8461538086e+003,3.8485898438e+003,3.8528205566e+003,3.8685898438e+003,3.8837180176e+003,3.8601281738e+003,3.8734614258e+003,3.8698718262e+003,3.8346154785e+003,3.8557692871e+003,3.8471794434e+003,3.8443588867e+003,
1.7500000000e+000,3.9173076172e+003,3.8575642090e+003,3.8673076172e+003,3.8666667480e+003,3.8678205566e+003,3.8865385742e+003,3.9050000000e+003,3.8802563477e+003,3.8942307129e+003,3.8852563477e+003,3.8534614258e+003,3.8773076172e+003,3.8648718262e+003,3.8662819824e+003,
1.7578125000e+000,4.1032050781e+003,4.0466667480e+003,4.0505129395e+003,4.0398718262e+003,4.0520512695e+003,4.0483332520e+003,4.0714101563e+003,4.0501281738e+003,4.0638461914e+003,4.0693588867e+003,4.0393588867e+003,4.0588461914e+003,4.0447436523e+003,4.0511538086e+003,
1.7656250000e+000,4.2080771484e+003,4.1517949219e+003,4.1534614258e+003,4.1412822266e+003,4.1556411133e+003,4.1393588867e+003,4.1625639648e+003,4.1469228516e+003,4.1610258789e+003,4.1806411133e+003,4.1498715820e+003,4.1612822266e+003,4.1517949219e+003,4.1555126953e+003,
1.7734375000e+000,4.2906411133e+003,4.2571796875e+003,4.2356411133e+003,4.2247436523e+003,4.2369228516e+003,4.2224360352e+003,4.2364101563e+003,4.2406411133e+003,4.2566665039e+003,4.2869228516e+003,4.2548715820e+003,4.2528203125e+003,4.2561538086e+003,4.2452563477e+003,
1.7812500000e+000,4.2643588867e+003,4.2525639648e+003,4.2282050781e+003,4.2043588867e+003,4.2411538086e+003,4.2216665039e+003,4.2262822266e+003,4.2346152344e+003,4.2457690430e+003,4.2710258789e+003,4.2397436523e+003,4.2396152344e+003,4.2400000000e+003,4.2311538086e+003,
1.7890625000e+000,4.2661538086e+003,4.2539741211e+003,4.2347436523e+003,4.2117949219e+003,4.2470512695e+003,4.2303847656e+003,4.2329487305e+003,4.2402563477e+003,4.2492309570e+003,4.2775639648e+003,4.2408974609e+003,4.2419228516e+003,4.2444873047e+003,4.2356411133e+003,
1.7968750000e+000,4.2621796875e+003,4.2496152344e+003,4.2334614258e+003,4.2144873047e+003,4.2441025391e+003,4.2356411133e+003,4.2375639648e+003,4.2410258789e+003,4.2483334961e+003,4.2776923828e+003,4.2353847656e+003,4.2396152344e+003,4.2439741211e+003,4.2342309570e+003,
1.8046875000e+000,4.2539741211e+003,4.2473076172e+003,4.2255126953e+003,4.2180771484e+003,4.2414101563e+003,4.2471796875e+003,4.2515385742e+003,4.2432050781e+003,4.2505126953e+003,4.2732050781e+003,4.2302563477e+003,4.2367949219e+003,4.2411538086e+003,4.2282050781e+003,
1.8125000000e+000,4.2560258789e+003,4.2541025391e+003,4.2273076172e+003,4.2252563477e+003,4.2506411133e+003,4.2551284180e+003,4.2610258789e+003,4.2500000000e+003,4.2582050781e+003,4.2776923828e+003,4.2396152344e+003,4.2400000000e+003,4.2451284180e+003,4.2300000000e+003,
1.8203125000e+000,4.2537177734e+003,4.2551284180e+003,4.2265385742e+003,4.2278203125e+003,4.2567949219e+003,4.2562822266e+003,4.2626923828e+003,4.2521796875e+003,4.2610258789e+003,4.2793588867e+003,4.2458974609e+003,4.2384614258e+003,4.2448715820e+003,4.2288461914e+003,
1.8281250000e+000,4.2021796875e+003,4.2075639648e+003,4.1870512695e+003,4.1787177734e+003,4.2250000000e+003,4.2197436523e+003,4.2262822266e+003,4.2111538086e+003,4.2212822266e+003,4.2346152344e+003,4.1884614258e+003,4.2028203125e+003,4.1950000000e+003,4.1920512695e+003,
1.8359375000e+000,4.2332050781e+003,4.2432050781e+003,4.2176923828e+003,4.2100000000e+003,4.2578203125e+003,4.2447436523e+003,4.2535898438e+003,4.2365385742e+003,4.2462822266e+003,4.2648715820e+003,4.2192309570e+003,4.2325639648e+003,4.2211538086e+003,4.2193588867e+003,
1.8437500000e+000,4.3425639648e+003,4.3533334961e+003,4.3357690430e+003,4.3176923828e+003,4.3535898438e+003,4.3317949219e+003,4.3419228516e+003,4.3276923828e+003,4.3315385742e+003,4.3653847656e+003,4.3337177734e+003,4.3378203125e+003,4.3321796875e+003,4.3241025391e+003,
1.8515625000e+000,4.3771796875e+003,4.3979487305e+003,4.3738461914e+003,4.3430771484e+003,4.3864101563e+003,4.3619228516e+003,4.3735898438e+003,4.3610258789e+003,4.3614101563e+003,4.4066665039e+003,4.3878203125e+003,4.3901284180e+003,4.3785898438e+003,4.3702563477e+003,
1.8593750000e+000,4.3971796875e+003,4.4196152344e+003,4.3967949219e+003,4.3619228516e+003,4.4020512695e+003,4.3770512695e+003,4.3903847656e+003,4.3782050781e+003,4.3810258789e+003,4.4302563477e+003,4.4120512695e+003,4.4132050781e+003,4.3983334961e+003,4.3935898438e+003,
1.8671875000e+000,4.4105126953e+003,4.4300000000e+003,4.4220512695e+003,4.3848715820e+003,4.4148715820e+003,4.3847436523e+003,4.3930771484e+003,4.3934614258e+003,4.4053847656e+003,4.4502563477e+003,4.4279487305e+003,4.4288461914e+003,4.4238461914e+003,4.4167949219e+003,
1.8750000000e+000,4.3643588867e+003,4.3866665039e+003,4.3774360352e+003,4.3421796875e+003,4.3729487305e+003,4.3416665039e+003,4.3501284180e+003,4.3528203125e+003,4.3658974609e+003,4.4052563477e+003,4.3842309570e+003,4.3883334961e+003,4.3815385742e+003,4.3748715820e+003,
1.8828125000e+000,4.2458974609e+003,4.2782050781e+003,4.2593588867e+003,4.2258974609e+003,4.2507690430e+003,4.2334614258e+003,4.2444873047e+003,4.2456411133e+003,4.2589741211e+003,4.2902563477e+003,4.2737177734e+003,4.2788461914e+003,4.2619228516e+003,4.2633334961e+003,
1.8906250000e+000,4.1983334961e+003,4.2330771484e+003,4.2138461914e+003,4.1805126953e+003,4.2019228516e+003,4.1941025391e+003,4.2039741211e+003,4.2051284180e+003,4.2182050781e+003,4.2456411133e+003,4.2273076172e+003,4.2314101563e+003,4.2128203125e+003,4.2174360352e+003,
1.8984375000e+000,4.0624357910e+003,4.0867949219e+003,4.0901281738e+003,4.0634614258e+003,4.0956411133e+003,4.0824357910e+003,4.0914101563e+003,4.0917949219e+003,4.1047436523e+003,4.1142309570e+003,4.0793588867e+003,4.0883332520e+003,4.0838461914e+003,4.0851281738e+003,
1.9062500000e+000,4.0016667480e+003,4.0228205566e+003,4.0282050781e+003,4.0062819824e+003,4.0429487305e+003,4.0251281738e+003,4.0375642090e+003,4.0346154785e+003,4.0475642090e+003,4.0520512695e+003,4.0180769043e+003,4.0264101563e+003,4.0244870605e+003,4.0265385742e+003,
1.9140625000e+000,3.8746154785e+003,3.8910256348e+003,3.8930769043e+003,3.8752563477e+003,3.9029487305e+003,3.9032050781e+003,3.9208974609e+003,3.9106411133e+003,3.9220512695e+003,3.9194870605e+003,3.8942307129e+003,3.9020512695e+003,3.8912819824e+003,3.9016667480e+003,
1.9218750000e+000,3.7989743652e+003,3.8087180176e+003,3.8169230957e+003,3.7941025391e+003,3.8112819824e+003,3.8294870605e+003,3.8478205566e+003,3.8371794434e+003,3.8474357910e+003,3.8410256348e+003,3.8150000000e+003,3.8284614258e+003,3.8107692871e+003,3.8251281738e+003,
1.9296875000e+000,3.3606411133e+003,3.3314101563e+003,3.3819230957e+003,3.3461538086e+003,3.3529487305e+003,3.3901281738e+003,3.4126923828e+003,3.3973076172e+003,3.4194870605e+003,3.3771794434e+003,3.3393588867e+003,3.3811538086e+003,3.3610256348e+003,3.3783332520e+003,
1.9375000000e+000,3.2912819824e+003,3.2520512695e+003,3.3025642090e+003,3.2725642090e+003,3.2852563477e+003,3.3170512695e+003,3.3450000000e+003,3.3115385742e+003,3.3394870605e+003,3.2838461914e+003,3.2556411133e+003,3.3002563477e+003,3.2834614258e+003,3.3021794434e+003,
1.9453125000e+000,3.4126923828e+003,3.3687180176e+003,3.4067949219e+003,3.3834614258e+003,3.4060256348e+003,3.4284614258e+003,3.4625642090e+003,3.4064101563e+003,3.4362819824e+003,3.3789743652e+003,3.3656411133e+003,3.4062819824e+003,3.3938461914e+003,3.4135898438e+003,
1.9531250000e+000,4.8658974609e+003,4.8717949219e+003,4.8362822266e+003,4.7923076172e+003,4.8612822266e+003,4.8179487305e+003,4.8312822266e+003,4.8316665039e+003,4.8343588867e+003,4.8967949219e+003,4.8692309570e+003,4.8628203125e+003,4.8791025391e+003,4.8452563477e+003,
1.9609375000e+000,4.7738461914e+003,4.7906411133e+003,4.7593588867e+003,4.7152563477e+003,4.7819228516e+003,4.7339741211e+003,4.7451284180e+003,4.7492309570e+003,4.7501284180e+003,4.8142309570e+003,4.7869228516e+003,4.7865385742e+003,4.7969228516e+003,4.7629487305e+003,
1.9687500000e+000,4.8466665039e+003,4.8914101563e+003,4.8432050781e+003,4.8125639648e+003,4.8648715820e+003,4.8060258789e+003,4.8234614258e+003,4.8169228516e+003,4.8157690430e+003,4.8843588867e+003,4.8698715820e+003,4.8696152344e+003,4.8741025391e+003,4.8415385742e+003,
1.9765625000e+000,4.9355126953e+003,4.9898715820e+003,4.9330771484e+003,4.9011538086e+003,4.9473076172e+003,4.8920512695e+003,4.9088461914e+003,4.9144873047e+003,4.9124360352e+003,4.9874360352e+003,4.9692309570e+003,4.9632050781e+003,4.9698715820e+003,4.9315385742e+003,
1.9843750000e+000,4.8598715820e+003,4.9283334961e+003,4.8721796875e+003,4.8270512695e+003,4.8815385742e+003,4.8303847656e+003,4.8443588867e+003,4.8728203125e+003,4.8698715820e+003,4.9437177734e+003,4.9124360352e+003,4.9076923828e+003,4.9102563477e+003,4.8702563477e+003,
1.9921875000e+000,4.6432050781e+003,4.7225639648e+003,4.6780771484e+003,4.6276923828e+003,4.7114101563e+003,4.6592309570e+003,4.6732050781e+003,4.6921796875e+003,4.6848715820e+003,4.7325639648e+003,4.7126923828e+003,4.7055126953e+003,4.7053847656e+003,4.6715385742e+003,
2.0000000000e+000,4.6701284180e+003,4.7529487305e+003,4.7060258789e+003,4.6551284180e+003,4.7407690430e+003,4.6953847656e+003,4.7082050781e+003,4.7226923828e+003,4.7141025391e+003,4.7579487305e+003,4.7383334961e+003,4.7325639648e+003,4.7358974609e+003,4.6983334961e+003,
2.0078125000e+000,4.7033334961e+003,4.7951284180e+003,4.7447436523e+003,4.6934614258e+003,4.7942309570e+003,4.7503847656e+003,4.7576923828e+003,4.7714101563e+003,4.7629487305e+003,4.8070512695e+003,4.7757690430e+003,4.7708974609e+003,4.7807690430e+003,4.7367949219e+003,
2.0156250000e+000,4.6407690430e+003,4.7341025391e+003,4.6902563477e+003,4.6384614258e+003,4.7401284180e+003,4.7003847656e+003,4.7042309570e+003,4.7220512695e+003,4.7138461914e+003,4.7582050781e+003,4.7229487305e+003,4.7156411133e+003,4.7235898438e+003,4.6812822266e+003,
2.0234375000e+000,4.1593588867e+003,4.2362822266e+003,4.2242309570e+003,4.1697436523e+003,4.2258974609e+003,4.2392309570e+003,4.2470512695e+003,4.2546152344e+003,4.2539741211e+003,4.2637177734e+003,4.2407690430e+003,4.2451284180e+003,4.2333334961e+003,4.2098715820e+003,
2.0312500000e+000,4.0430769043e+003,4.1115385742e+003,4.1029487305e+003,4.0475642090e+003,4.1002563477e+003,4.1174360352e+003,4.1315385742e+003,4.1274360352e+003,4.1311538086e+003,4.1276923828e+003,4.1069228516e+003,4.1212822266e+003,4.1089741211e+003,4.0893588867e+003,
2.0390625000e+000,4.0410256348e+003,4.0969228516e+003,4.0892307129e+003,4.0323076172e+003,4.1069228516e+003,4.0975639648e+003,4.1207690430e+003,4.0967949219e+003,4.1003847656e+003,4.0951281738e+003,4.0753845215e+003,4.0984614258e+003,4.0933332520e+003,4.0783332520e+003,
2.0468750000e+000,4.1487177734e+003,4.2029487305e+003,4.1929487305e+003,4.1369228516e+003,4.2196152344e+003,4.1979487305e+003,4.2207690430e+003,4.1943588867e+003,4.1923076172e+003,4.1966665039e+003,4.1802563477e+003,4.1992309570e+003,4.1961538086e+003,4.1826923828e+003,
2.0546875000e+000,4.5244873047e+003,4.5829487305e+003,4.5619228516e+003,4.5032050781e+003,4.5791025391e+003,4.5521796875e+003,4.5694873047e+003,4.5623076172e+003,4.5450000000e+003,4.5803847656e+003,4.5700000000e+003,4.5805126953e+003,4.5706411133e+003,4.5550000000e+003,
2.0625000000e+000,4.5439741211e+003,4.6010258789e+003,4.5821796875e+003,4.5200000000e+003,4.5957690430e+003,4.5635898438e+003,4.5819228516e+003,4.5805126953e+003,4.5647436523e+003,4.6046152344e+003,4.5929487305e+003,4.6050000000e+003,4.5958974609e+003,4.5770512695e+003,
2.0703125000e+000,4.5034614258e+003,4.5588461914e+003,4.5434614258e+003,4.4808974609e+003,4.5555126953e+003,4.5178203125e+003,4.5376923828e+003,4.5392309570e+003,4.5274360352e+003,4.5691025391e+003,4.5575639648e+003,4.5683334961e+003,4.5623076172e+003,4.5408974609e+003,
2.0781250000e+000,4.4391025391e+003,4.4952563477e+003,4.4803847656e+003,4.4210258789e+003,4.4897436523e+003,4.4525639648e+003,4.4733334961e+003,4.4755126953e+003,4.4676923828e+003,4.5094873047e+003,4.5007690430e+003,4.5065385742e+003,4.5030771484e+003,4.4815385742e+003,
2.0859375000e+000,4.4405126953e+003,4.5065385742e+003,4.4766665039e+003,4.4184614258e+003,4.4820512695e+003,4.4471796875e+003,4.4669228516e+003,4.4732050781e+003,4.4782050781e+003,4.5111538086e+003,4.5051284180e+003,4.5088461914e+003,4.4997436523e+003,4.4852563477e+003,
2.0937500000e+000,4.4462822266e+003,4.5138461914e+003,4.4855126953e+003,4.4223076172e+003,4.5020512695e+003,4.4493588867e+003,4.4703847656e+003,4.4801284180e+003,4.4888461914e+003,4.5210258789e+003,4.5098715820e+003,4.5130771484e+003,4.5110258789e+003,4.4903847656e+003,
2.1015625000e+000,4.2310258789e+003,4.2941025391e+003,4.2869228516e+003,4.2180771484e+003,4.2910258789e+003,4.2547436523e+003,4.2760258789e+003,4.2926923828e+003,4.3010258789e+003,4.3215385742e+003,4.3017949219e+003,4.3024360352e+003,4.3016665039e+003,4.2834614258e+003,
2.1093750000e+000,3.9107692871e+003,3.9562819824e+003,3.9650000000e+003,3.9076923828e+003,3.9600000000e+003,3.9578205566e+003,3.9755129395e+003,3.9920512695e+003,4.0017949219e+003,3.9888461914e+003,3.9710256348e+003,3.9833332520e+003,3.9657692871e+003,3.9643588867e+003,
2.1171875000e+000,3.8402563477e+003,3.8761538086e+003,3.8833332520e+003,3.8464101563e+003,3.8757692871e+003,3.8975642090e+003,3.9255129395e+003,3.9144870605e+003,3.9255129395e+003,3.8984614258e+003,3.8766667480e+003,3.8962819824e+003,3.8775642090e+003,3.8812819824e+003,
2.1250000000e+000,3.8616667480e+003,3.8867949219e+003,3.8955129395e+003,3.8639743652e+003,3.8946154785e+003,3.9156411133e+003,3.9407692871e+003,3.9289743652e+003,3.9388461914e+003,3.9134614258e+003,3.8887180176e+003,3.9088461914e+003,3.8926923828e+003,3.8969230957e+003,
2.1328125000e+000,3.9006411133e+003,3.9119230957e+003,3.9224357910e+003,3.8910256348e+003,3.9450000000e+003,3.9482050781e+003,3.9698718262e+003,3.9510256348e+003,3.9610256348e+003,3.9366667480e+003,3.9141025391e+003,3.9334614258e+003,3.9256411133e+003,3.9279487305e+003,
2.1406250000e+000,3.9544870605e+003,3.9657692871e+003,3.9741025391e+003,3.9376923828e+003,4.0006411133e+003,3.9969230957e+003,4.0198718262e+003,3.9956411133e+003,4.0064101563e+003,3.9834614258e+003,3.9661538086e+003,3.9825642090e+003,3.9762819824e+003,3.9780769043e+003,
2.1484375000e+000,4.1876923828e+003,4.2085898438e+003,4.2014101563e+003,4.1576923828e+003,4.2047436523e+003,4.2083334961e+003,4.2312822266e+003,4.2143588867e+003,4.2165385742e+003,4.2176923828e+003,4.2052563477e+003,4.2083334961e+003,4.2017949219e+003,4.2002563477e+003,
2.1562500000e+000,4.2044873047e+003,4.2270512695e+003,4.2191025391e+003,4.1774360352e+003,4.2182050781e+003,4.2216665039e+003,4.2435898438e+003,4.2298715820e+003,4.2257690430e+003,4.2360258789e+003,4.2224360352e+003,4.2274360352e+003,4.2206411133e+003,4.2188461914e+003,
2.1640625000e+000,4.1958974609e+003,4.2197436523e+003,4.2160258789e+003,4.1762822266e+003,4.2207690430e+003,4.2096152344e+003,4.2330771484e+003,4.2132050781e+003,4.2039741211e+003,4.2212822266e+003,4.2137177734e+003,4.2251284180e+003,4.2179487305e+003,4.2200000000e+003,
2.1718750000e+000,4.2155126953e+003,4.2398715820e+003,4.2371796875e+003,4.1948715820e+003,4.2461538086e+003,4.2260258789e+003,4.2501284180e+003,4.2282050781e+003,4.2208974609e+003,4.2388461914e+003,4.2341025391e+003,4.2475639648e+003,4.2393588867e+003,4.2435898438e+003,
2.1796875000e+000,4.2870512695e+003,4.3120512695e+003,4.3114101563e+003,4.2461538086e+003,4.3124360352e+003,4.2789741211e+003,4.3020512695e+003,4.2994873047e+003,4.2985898438e+003,4.3232050781e+003,4.3156411133e+003,4.3348715820e+003,4.3197436523e+003,4.3232050781e+003,
2.1875000000e+000,4.3001284180e+003,4.3248715820e+003,4.3253847656e+003,4.2555126953e+003,4.3219228516e+003,4.2850000000e+003,4.3079487305e+003,4.3123076172e+003,4.3141025391e+003,4.3411538086e+003,4.3358974609e+003,4.3506411133e+003,4.3388461914e+003,4.3380771484e+003,
2.1953125000e+000,4.3162822266e+003,4.3421796875e+003,4.3423076172e+003,4.2741025391e+003,4.3371796875e+003,4.2958974609e+003,4.3192309570e+003,4.3285898438e+003,4.3346152344e+003,4.3621796875e+003,4.3602563477e+003,4.3673076172e+003,4.3612822266e+003,4.3551284180e+003,
2.2031250000e+000,4.3303847656e+003,4.3594873047e+003,4.3567949219e+003,4.2967949219e+003,4.3525639648e+003,4.3076923828e+003,4.3324360352e+003,4.3453847656e+003,4.3558974609e+003,4.3811538086e+003,4.3803847656e+003,4.3817949219e+003,4.3797436523e+003,4.3692309570e+003,
2.2109375000e+000,4.2870512695e+003,4.3300000000e+003,4.3214101563e+003,4.2815385742e+003,4.3198715820e+003,4.2889741211e+003,4.3144873047e+003,4.3333334961e+003,4.3423076172e+003,4.3487177734e+003,4.3305126953e+003,4.3387177734e+003,4.3369228516e+003,4.3230771484e+003,
2.2187500000e+000,4.2100000000e+003,4.2565385742e+003,4.2502563477e+003,4.1906411133e+003,4.2519228516e+003,4.2464101563e+003,4.2673076172e+003,4.2692309570e+003,4.2758974609e+003,4.2757690430e+003,4.2567949219e+003,4.2701284180e+003,4.2546152344e+003,4.2537177734e+003,
2.2265625000e+000,4.1856411133e+003,4.2351284180e+003,4.2234614258e+003,4.1648715820e+003,4.2339741211e+003,4.2260258789e+003,4.2458974609e+003,4.2469228516e+003,4.2528203125e+003,4.2476923828e+003,4.2284614258e+003,4.2420512695e+003,4.2285898438e+003,4.2279487305e+003,
2.2343750000e+000,4.1839741211e+003,4.2320512695e+003,4.2173076172e+003,4.1632050781e+003,4.2497436523e+003,4.2257690430e+003,4.2425639648e+003,4.2420512695e+003,4.2465385742e+003,4.2391025391e+003,4.2234614258e+003,4.2289741211e+003,4.2274360352e+003,4.2171796875e+003,
2.2421875000e+000,4.2014101563e+003,4.2453847656e+003,4.2343588867e+003,4.1798715820e+003,4.2652563477e+003,4.2424360352e+003,4.2574360352e+003,4.2537177734e+003,4.2575639648e+003,4.2550000000e+003,4.2398715820e+003,4.2416665039e+003,4.2446152344e+003,4.2300000000e+003,
2.2500000000e+000,4.1600000000e+003,4.1976923828e+003,4.1947436523e+003,4.1444873047e+003,4.1885898438e+003,4.1994873047e+003,4.2132050781e+003,4.2021796875e+003,4.2003847656e+003,4.2094873047e+003,4.1876923828e+003,4.1960258789e+003,4.1970512695e+003,4.1869228516e+003,
2.2578125000e+000,4.0910256348e+003,4.1257690430e+003,4.1206411133e+003,4.0828205566e+003,4.1410258789e+003,4.1141025391e+003,4.1378203125e+003,4.1214101563e+003,4.1116665039e+003,4.1166665039e+003,4.1008974609e+003,4.1279487305e+003,4.1153847656e+003,4.1192309570e+003,
2.2656250000e+000,4.1448715820e+003,4.1798715820e+003,4.1701284180e+003,4.1316665039e+003,4.1991025391e+003,4.1596152344e+003,4.1844873047e+003,4.1674360352e+003,4.1573076172e+003,4.1671796875e+003,4.1533334961e+003,4.1788461914e+003,4.1688461914e+003,4.1702563477e+003,
2.2734375000e+000,4.3326923828e+003,4.3680771484e+003,4.3641025391e+003,4.3058974609e+003,4.3578203125e+003,4.3297436523e+003,4.3516665039e+003,4.3435898438e+003,4.3391025391e+003,4.3630771484e+003,4.3597436523e+003,4.3714101563e+003,4.3573076172e+003,4.3543588867e+003,
2.2812500000e+000,4.3579487305e+003,4.3920512695e+003,4.3948715820e+003,4.3300000000e+003,4.3789741211e+003,4.3505126953e+003,4.3724360352e+003,4.3678203125e+003,4.3650000000e+003,4.3894873047e+003,4.3914101563e+003,4.3998715820e+003,4.3811538086e+003,4.3794873047e+003,
2.2890625000e+000,4.3667949219e+003,4.4039741211e+003,4.4066665039e+003,4.3406411133e+003,4.4011538086e+003,4.3537177734e+003,4.3752563477e+003,4.3801284180e+003,4.3793588867e+003,4.4023076172e+003,4.4041025391e+003,4.4094873047e+003,4.3934614258e+003,4.3898715820e+003,
2.2968750000e+000,4.3646152344e+003,4.4066665039e+003,4.4042309570e+003,4.3414101563e+003,4.4053847656e+003,4.3514101563e+003,4.3728203125e+003,4.3819228516e+003,4.3830771484e+003,4.4046152344e+003,4.4001284180e+003,4.4083334961e+003,4.3957690430e+003,4.3901284180e+003,
2.3046875000e+000,4.3817949219e+003,4.4371796875e+003,4.4278203125e+003,4.3743588867e+003,4.4228203125e+003,4.3823076172e+003,4.4037177734e+003,4.4175639648e+003,4.4252563477e+003,4.4456411133e+003,4.4247436523e+003,4.4414101563e+003,4.4244873047e+003,4.4171796875e+003,
2.3125000000e+000,4.3662822266e+003,4.4221796875e+003,4.4161538086e+003,4.3633334961e+003,4.4141025391e+003,4.3776923828e+003,4.3966665039e+003,4.4114101563e+003,4.4185898438e+003,4.4391025391e+003,4.4174360352e+003,4.4315385742e+003,4.4129487305e+003,4.4051284180e+003,
2.3203125000e+000,4.3247436523e+003,4.3793588867e+003,4.3785898438e+003,4.3250000000e+003,4.3820512695e+003,4.3479487305e+003,4.3643588867e+003,4.3787177734e+003,4.3843588867e+003,4.4029487305e+003,4.3826923828e+003,4.3932050781e+003,4.3746152344e+003,4.3673076172e+003,
2.3281250000e+000,4.2682050781e+003,4.3219228516e+003,4.3243588867e+003,4.2705126953e+003,4.3323076172e+003,4.3006411133e+003,4.3164101563e+003,4.3273076172e+003,4.3328203125e+003,4.3466665039e+003,4.3287177734e+003,4.3365385742e+003,4.3198715820e+003,4.3135898438e+003,
2.3359375000e+000,4.2601284180e+003,4.3303847656e+003,4.3062822266e+003,4.2611538086e+003,4.3158974609e+003,4.3008974609e+003,4.3205126953e+003,4.3111538086e+003,4.3284614258e+003,4.3319228516e+003,4.3094873047e+003,4.3166665039e+003,4.3147436523e+003,4.3019228516e+003,
2.3437500000e+000,4.3133334961e+003,4.3819228516e+003,4.3580771484e+003,4.3164101563e+003,4.3742309570e+003,4.3555126953e+003,4.3724360352e+003,4.3647436523e+003,4.3770512695e+003,4.3853847656e+003,4.3647436523e+003,4.3682050781e+003,4.3682050781e+003,4.3547436523e+003,
2.3515625000e+000,4.3801284180e+003,4.4480771484e+003,4.4228203125e+003,4.3856411133e+003,4.4669228516e+003,4.4229487305e+003,4.4364101563e+003,4.4353847656e+003,4.4328203125e+003,4.4514101563e+003,4.4296152344e+003,4.4305126953e+003,4.4314101563e+003,4.4224360352e+003,
2.3593750000e+000,4.4774360352e+003,4.5608974609e+003,4.5325639648e+003,4.4810258789e+003,4.5438461914e+003,4.5275639648e+003,4.5415385742e+003,4.5289741211e+003,4.5206411133e+003,4.5487177734e+003,4.5370512695e+003,4.5338461914e+003,4.5341025391e+003,4.5208974609e+003,
2.3671875000e+000,4.5414101563e+003,4.6280771484e+003,4.5988461914e+003,4.5515385742e+003,4.6124360352e+003,4.5944873047e+003,4.6034614258e+003,4.5923076172e+003,4.5783334961e+003,4.6169228516e+003,4.6070512695e+003,4.5997436523e+003,4.6017949219e+003,4.5862822266e+003,
2.3750000000e+000,4.6379487305e+003,4.7366665039e+003,4.7000000000e+003,4.6601284180e+003,4.7460258789e+003,4.6778203125e+003,4.6883334961e+003,4.6824360352e+003,4.6596152344e+003,4.7205126953e+003,4.7114101563e+003,4.7053847656e+003,4.7038461914e+003,4.6875639648e+003,
2.3828125000e+000,4.6939741211e+003,4.8016665039e+003,4.7708974609e+003,4.7142309570e+003,4.7891025391e+003,4.7150000000e+003,4.7335898438e+003,4.7334614258e+003,4.7242309570e+003,4.7839741211e+003,4.7857690430e+003,4.7720512695e+003,4.7737177734e+003,4.7544873047e+003,
2.3906250000e+000,4.7093588867e+003,4.8203847656e+003,4.7889741211e+003,4.7319228516e+003,4.7998715820e+003,4.7316665039e+003,4.7479487305e+003,4.7541025391e+003,4.7496152344e+003,4.8087177734e+003,4.8079487305e+003,4.7937177734e+003,4.7941025391e+003,4.7748715820e+003,
2.3984375000e+000,4.7125639648e+003,4.8276923828e+003,4.7935898438e+003,4.7356411133e+003,4.8037177734e+003,4.7387177734e+003,4.7524360352e+003,4.7651284180e+003,4.7639741211e+003,4.8205126953e+003,4.8133334961e+003,4.8028203125e+003,4.8016665039e+003,4.7817949219e+003,
2.4062500000e+000,4.7314101563e+003,4.8569228516e+003,4.8134614258e+003,4.7458974609e+003,4.8353847656e+003,4.7665385742e+003,4.7791025391e+003,4.8047436523e+003,4.8058974609e+003,4.8541025391e+003,4.8337177734e+003,4.8262822266e+003,4.8291025391e+003,4.8034614258e+003,
2.4140625000e+000,4.7919228516e+003,4.9211538086e+003,4.8800000000e+003,4.8147436523e+003,4.9078203125e+003,4.8507690430e+003,4.8611538086e+003,4.9008974609e+003,4.8965385742e+003,4.9438461914e+003,4.9242309570e+003,4.8897436523e+003,4.8985898438e+003,4.8693588867e+003,
2.4218750000e+000,4.7824360352e+003,4.9108974609e+003,4.8744873047e+003,4.8146152344e+003,4.9012822266e+003,4.8541025391e+003,4.8621796875e+003,4.8979487305e+003,4.8929487305e+003,4.9400000000e+003,4.9201284180e+003,4.8842309570e+003,4.8912822266e+003,4.8628203125e+003,
2.4296875000e+000,4.7700000000e+003,4.9012822266e+003,4.8650000000e+003,4.8083334961e+003,4.8938461914e+003,4.8534614258e+003,4.8593588867e+003,4.8892309570e+003,4.8848715820e+003,4.9306411133e+003,4.9080771484e+003,4.8764101563e+003,4.8816665039e+003,4.8521796875e+003,
2.4375000000e+000,4.7547436523e+003,4.9005126953e+003,4.8532050781e+003,4.7935898438e+003,4.8889741211e+003,4.8517949219e+003,4.8551284180e+003,4.8805126953e+003,4.8755126953e+003,4.9197436523e+003,4.8905126953e+003,4.8698715820e+003,4.8743588867e+003,4.8397436523e+003,
2.4453125000e+000,4.7308974609e+003,4.8830771484e+003,4.8328203125e+003,4.7685898438e+003,4.8685898438e+003,4.8303847656e+003,4.8342309570e+003,4.8608974609e+003,4.8524360352e+003,4.8958974609e+003,4.8671796875e+003,4.8492309570e+003,4.8535898438e+003,4.8193588867e+003,
2.4531250000e+000,4.6855126953e+003,4.8401284180e+003,4.7926923828e+003,4.7232050781e+003,4.8274360352e+003,4.7865385742e+003,4.7920512695e+003,4.8180771484e+003,4.8053847656e+003,4.8465385742e+003,4.8226923828e+003,4.8046152344e+003,4.8088461914e+003,4.7779487305e+003,
2.4609375000e+000,4.5274360352e+003,4.6638461914e+003,4.6361538086e+003,4.5619228516e+003,4.6398715820e+003,4.6329487305e+003,4.6387177734e+003,4.6383334961e+003,4.6233334961e+003,4.6598715820e+003,4.6475639648e+003,4.6338461914e+003,4.6323076172e+003,4.6147436523e+003,
2.4687500000e+000,4.5134614258e+003,4.6515385742e+003,4.6217949219e+003,4.5428203125e+003,4.6138461914e+003,4.6138461914e+003,4.6220512695e+003,4.6203847656e+003,4.6032050781e+003,4.6443588867e+003,4.6282050781e+003,4.6211538086e+003,4.6161538086e+003,4.6023076172e+003,
2.4765625000e+000,4.3721796875e+003,4.5019228516e+003,4.4865385742e+003,4.4041025391e+003,4.5064101563e+003,4.4660258789e+003,4.4775639648e+003,4.4625639648e+003,4.4398715820e+003,4.4771796875e+003,4.4732050781e+003,4.4762822266e+003,4.4684614258e+003,4.4615385742e+003,
2.4843750000e+000,4.3752563477e+003,4.5011538086e+003,4.4869228516e+003,4.4110258789e+003,4.5215385742e+003,4.4688461914e+003,4.4796152344e+003,4.4564101563e+003,4.4355126953e+003,4.4694873047e+003,4.4766665039e+003,4.4760258789e+003,4.4694873047e+003,4.4619228516e+003,
2.4921875000e+000,4.5688461914e+003,4.6998715820e+003,4.6653847656e+003,4.6062822266e+003,4.7083334961e+003,4.6466665039e+003,4.6570512695e+003,4.6315385742e+003,4.6184614258e+003,4.6589741211e+003,4.6806411133e+003,4.6637177734e+003,4.6679487305e+003,4.6515385742e+003,
2.5000000000e+000,4.8641025391e+003,5.0083334961e+003,4.9641025391e+003,4.8966665039e+003,4.9894873047e+003,4.9110258789e+003,4.9165385742e+003,4.9387177734e+003,4.9338461914e+003,4.9888461914e+003,4.9883334961e+003,4.9757690430e+003,4.9705126953e+003,4.9574360352e+003,
2.5078125000e+000,4.8042309570e+003,4.9474360352e+003,4.9097436523e+003,4.8307690430e+003,4.9297436523e+003,4.8594873047e+003,4.8602563477e+003,4.8917949219e+003,4.8875639648e+003,4.9369228516e+003,4.9339741211e+003,4.9174360352e+003,4.9062822266e+003,4.8978203125e+003,
2.5156250000e+000,4.6400000000e+003,4.7879487305e+003,4.7494873047e+003,4.6660258789e+003,4.7688461914e+003,4.7232050781e+003,4.7185898438e+003,4.7557690430e+003,4.7489741211e+003,4.7850000000e+003,4.7814101563e+003,4.7524360352e+003,4.7491025391e+003,4.7351284180e+003,
2.5234375000e+000,4.5834614258e+003,4.7343588867e+003,4.6920512695e+003,4.6173076172e+003,4.7164101563e+003,4.6773076172e+003,4.6739741211e+003,4.7080771484e+003,4.7000000000e+003,4.7296152344e+003,4.7243588867e+003,4.6957690430e+003,4.7005126953e+003,4.6807690430e+003,
2.5312500000e+000,4.5439741211e+003,4.6885898438e+003,4.6473076172e+003,4.5946152344e+003,4.6716665039e+003,4.6443588867e+003,4.6460258789e+003,4.6684614258e+003,4.6615385742e+003,4.6791025391e+003,4.6633334961e+003,4.6498715820e+003,4.6591025391e+003,4.6400000000e+003,
2.5390625000e+000,4.4355126953e+003,4.5682050781e+003,4.5446152344e+003,4.4838461914e+003,4.5751284180e+003,4.5474360352e+003,4.5508974609e+003,4.5624360352e+003,4.5535898438e+003,4.5614101563e+003,4.5506411133e+003,4.5402563477e+003,4.5326923828e+003,4.5310258789e+003,
2.5468750000e+000,4.4073076172e+003,4.5387177734e+003,4.5137177734e+003,4.4588461914e+003,4.5515385742e+003,4.5230771484e+003,4.5246152344e+003,4.5352563477e+003,4.5248715820e+003,4.5307690430e+003,4.5234614258e+003,4.5103847656e+003,4.5050000000e+003,4.5029487305e+003,
2.5546875000e+000,4.3923076172e+003,4.5237177734e+003,4.4953847656e+003,4.4464101563e+003,4.5311538086e+003,4.5100000000e+003,4.5097436523e+003,4.5196152344e+003,4.5088461914e+003,4.5135898438e+003,4.5084614258e+003,4.4932050781e+003,4.4915385742e+003,4.4880771484e+003,
2.5625000000e+000,4.3892309570e+003,4.5143588867e+003,4.4906411133e+003,4.4388461914e+003,4.4983334961e+003,4.4988461914e+003,4.5028203125e+003,4.5062822266e+003,4.4953847656e+003,4.5008974609e+003,4.4984614258e+003,4.4853847656e+003,4.4817949219e+003,4.4830771484e+003,
2.5703125000e+000,4.3998715820e+003,4.5169228516e+003,4.5012822266e+003,4.4466665039e+003,4.5001284180e+003,4.5005126953e+003,4.5079487305e+003,4.5078203125e+003,4.4957690430e+003,4.5048715820e+003,4.5034614258e+003,4.4934614258e+003,4.4855126953e+003,4.4910258789e+003,
2.5781250000e+000,4.4134614258e+003,4.5228203125e+003,4.5132050781e+003,4.4620512695e+003,4.5151284180e+003,4.5066665039e+003,4.5147436523e+003,4.5125639648e+003,4.4984614258e+003,4.5133334961e+003,4.5123076172e+003,4.5051284180e+003,4.4942309570e+003,4.5019228516e+003,
2.5859375000e+000,4.3711538086e+003,4.4810258789e+003,4.4678203125e+003,4.4166665039e+003,4.4767949219e+003,4.4521796875e+003,4.4551284180e+003,4.4510258789e+003,4.4282050781e+003,4.4529487305e+003,4.4628203125e+003,4.4616665039e+003,4.4575639648e+003,4.4562822266e+003,
2.5937500000e+000,4.3674360352e+003,4.4737177734e+003,4.4628203125e+003,4.4048715820e+003,4.4703847656e+003,4.4398715820e+003,4.4480771484e+003,4.4496152344e+003,4.4265385742e+003,4.4494873047e+003,4.4569228516e+003,4.4544873047e+003,4.4547436523e+003,4.4496152344e+003,
2.6015625000e+000,4.3193588867e+003,4.4133334961e+003,4.4135898438e+003,4.3601284180e+003,4.4134614258e+003,4.3798715820e+003,4.3939741211e+003,4.4169228516e+003,4.3998715820e+003,4.4097436523e+003,4.4155126953e+003,4.4148715820e+003,4.4046152344e+003,4.4037177734e+003,
2.6093750000e+000,4.2719228516e+003,4.3641025391e+003,4.3637177734e+003,4.3085898438e+003,4.3392309570e+003,4.3319228516e+003,4.3417949219e+003,4.3756411133e+003,4.3717949219e+003,4.3755126953e+003,4.3780771484e+003,4.3711538086e+003,4.3746152344e+003,4.3639741211e+003,
2.6171875000e+000,4.2455126953e+003,4.3369228516e+003,4.3352563477e+003,4.2820512695e+003,4.3176923828e+003,4.3083334961e+003,4.3196152344e+003,4.3515385742e+003,4.3492309570e+003,4.3493588867e+003,4.3466665039e+003,4.3439741211e+003,4.3529487305e+003,4.3367949219e+003,
2.6250000000e+000,4.2529487305e+003,4.3374360352e+003,4.3334614258e+003,4.2917949219e+003,4.3465385742e+003,4.3339741211e+003,4.3447436523e+003,4.3591025391e+003,4.3605126953e+003,4.3417949219e+003,4.3423076172e+003,4.3450000000e+003,4.3360258789e+003,4.3262822266e+003,
2.6328125000e+000,4.2688461914e+003,4.3488461914e+003,4.3488461914e+003,4.3103847656e+003,4.3600000000e+003,4.3538461914e+003,4.3634614258e+003,4.3746152344e+003,4.3766665039e+003,4.3558974609e+003,4.3608974609e+003,4.3583334961e+003,4.3447436523e+003,4.3378203125e+003,
2.6406250000e+000,4.2196152344e+003,4.2973076172e+003,4.3011538086e+003,4.2714101563e+003,4.3079487305e+003,4.3103847656e+003,4.3180771484e+003,4.3244873047e+003,4.3266665039e+003,4.3062822266e+003,4.3084614258e+003,4.3055126953e+003,4.3021796875e+003,4.2887177734e+003,
2.6484375000e+000,4.1653847656e+003,4.2453847656e+003,4.2461538086e+003,4.2192309570e+003,4.2570512695e+003,4.2580771484e+003,4.2655126953e+003,4.2679487305e+003,4.2697436523e+003,4.2493588867e+003,4.2438461914e+003,4.2488461914e+003,4.2516665039e+003,4.2347436523e+003,
2.6562500000e+000,4.0838461914e+003,4.1512822266e+003,4.1547436523e+003,4.1248715820e+003,4.1521796875e+003,4.1641025391e+003,4.1734614258e+003,4.1643588867e+003,4.1648715820e+003,4.1450000000e+003,4.1324360352e+003,4.1525639648e+003,4.1498715820e+003,4.1350000000e+003,
2.6640625000e+000,4.0738461914e+003,4.1311538086e+003,4.1415385742e+003,4.1150000000e+003,4.1252563477e+003,4.1453847656e+003,4.1564101563e+003,4.1453847656e+003,4.1461538086e+003,4.1271796875e+003,4.1216665039e+003,4.1383334961e+003,4.1346152344e+003,4.1191025391e+003,
2.6718750000e+000,4.0123076172e+003,4.0555129395e+003,4.0743588867e+003,4.0625642090e+003,4.0552563477e+003,4.0732050781e+003,4.0884614258e+003,4.0739743652e+003,4.0729487305e+003,4.0526923828e+003,4.0619230957e+003,4.0762819824e+003,4.0705129395e+003,4.0571794434e+003,
2.6796875000e+000,3.9697436523e+003,4.0093588867e+003,4.0293588867e+003,4.0206411133e+003,4.0196154785e+003,4.0291025391e+003,4.0448718262e+003,4.0276923828e+003,4.0247436523e+003,4.0030769043e+003,4.0161538086e+003,4.0353845215e+003,4.0241025391e+003,4.0169230957e+003,
2.6875000000e+000,3.8984614258e+003,3.9321794434e+003,3.9500000000e+003,3.9285898438e+003,3.9467949219e+003,3.9426923828e+003,3.9541025391e+003,3.9371794434e+003,3.9351281738e+003,3.9158974609e+003,3.9291025391e+003,3.9553845215e+003,3.9396154785e+003,3.9421794434e+003,
2.6953125000e+000,3.8674357910e+003,3.9001281738e+003,3.9167949219e+003,3.8970512695e+003,3.9074357910e+003,3.9035898438e+003,3.9162819824e+003,3.9039743652e+003,3.9051281738e+003,3.8846154785e+003,3.8982050781e+003,3.9214101563e+003,3.9128205566e+003,3.9115385742e+003,
2.7031250000e+000,3.8107692871e+003,3.8396154785e+003,3.8583332520e+003,3.8444870605e+003,3.8407692871e+003,3.8392307129e+003,3.8557692871e+003,3.8475642090e+003,3.8508974609e+003,3.8253845215e+003,3.8398718262e+003,3.8637180176e+003,3.8603845215e+003,3.8570512695e+003,
2.7109375000e+000,3.5233332520e+003,3.4893588867e+003,3.5511538086e+003,3.5450000000e+003,3.4920512695e+003,3.5110256348e+003,3.5420512695e+003,3.5393588867e+003,3.5474357910e+003,3.4894870605e+003,3.5220512695e+003,3.5553845215e+003,3.5244870605e+003,3.5502563477e+003,
2.7187500000e+000,3.5100000000e+003,3.4733332520e+003,3.5346154785e+003,3.5315385742e+003,3.4743588867e+003,3.4992307129e+003,3.5317949219e+003,3.5294870605e+003,3.5429487305e+003,3.4793588867e+003,3.5129487305e+003,3.5402563477e+003,3.5119230957e+003,3.5346154785e+003,
2.7265625000e+000,3.5412819824e+003,3.4989743652e+003,3.5421794434e+003,3.5650000000e+003,3.5048718262e+003,3.5314101563e+003,3.5703845215e+003,3.5648718262e+003,3.5808974609e+003,3.5056411133e+003,3.5057692871e+003,3.5456411133e+003,3.5414101563e+003,3.5514101563e+003,
2.7343750000e+000,3.5552563477e+003,3.5101281738e+003,3.5460256348e+003,3.5732050781e+003,3.5197436523e+003,3.5464101563e+003,3.5819230957e+003,3.5762819824e+003,3.5912819824e+003,3.5150000000e+003,3.5050000000e+003,3.5500000000e+003,3.5474357910e+003,3.5571794434e+003,
2.7421875000e+000,3.5676923828e+003,3.5125642090e+003,3.5488461914e+003,3.5698718262e+003,3.5321794434e+003,3.5632050781e+003,3.5897436523e+003,3.5797436523e+003,3.5969230957e+003,3.5206411133e+003,3.5156411133e+003,3.5520512695e+003,3.5405129395e+003,3.5553845215e+003,
2.7500000000e+000,3.6989743652e+003,3.6491025391e+003,3.6733332520e+003,3.6992307129e+003,3.6644870605e+003,3.6839743652e+003,3.7071794434e+003,3.6928205566e+003,3.7141025391e+003,3.6442307129e+003,3.6483332520e+003,3.6723076172e+003,3.6629487305e+003,3.6769230957e+003,
2.7578125000e+000,3.6897436523e+003,3.6408974609e+003,3.6637180176e+003,3.6851281738e+003,3.6543588867e+003,3.6732050781e+003,3.6943588867e+003,3.6802563477e+003,3.6984614258e+003,3.6320512695e+003,3.6294870605e+003,3.6652563477e+003,3.6503845215e+003,3.6656411133e+003,
2.7656250000e+000,3.6194870605e+003,3.5548718262e+003,3.5933332520e+003,3.6034614258e+003,3.5612819824e+003,3.5978205566e+003,3.6146154785e+003,3.5930769043e+003,3.6080769043e+003,3.5515385742e+003,3.5424357910e+003,3.5888461914e+003,3.5708974609e+003,3.5853845215e+003,
2.7734375000e+000,3.5964101563e+003,3.5215385742e+003,3.5682050781e+003,3.5820512695e+003,3.5233332520e+003,3.5692307129e+003,3.5858974609e+003,3.5587180176e+003,3.5738461914e+003,3.5217949219e+003,3.5146154785e+003,3.5593588867e+003,3.5437180176e+003,3.5578205566e+003,
2.7812500000e+000,3.6374357910e+003,3.5562819824e+003,3.6002563477e+003,3.6421794434e+003,3.5675642090e+003,3.5891025391e+003,3.6137180176e+003,3.5807692871e+003,3.5908974609e+003,3.5434614258e+003,3.5561538086e+003,3.6006411133e+003,3.5726923828e+003,3.6010256348e+003,
2.7890625000e+000,3.6620512695e+003,3.5828205566e+003,3.6224357910e+003,3.6628205566e+003,3.5992307129e+003,3.6085898438e+003,3.6352563477e+003,3.6038461914e+003,3.6093588867e+003,3.5658974609e+003,3.5832050781e+003,3.6273076172e+003,3.5932050781e+003,3.6260256348e+003,
2.7968750000e+000,3.6738461914e+003,3.5946154785e+003,3.6325642090e+003,3.6657692871e+003,3.6120512695e+003,3.6156411133e+003,3.6433332520e+003,3.6139743652e+003,3.6150000000e+003,3.5776923828e+003,3.5957692871e+003,3.6382050781e+003,3.6011538086e+003,3.6366667480e+003,
2.8046875000e+000,3.6664101563e+003,3.5848718262e+003,3.6246154785e+003,3.6500000000e+003,3.5993588867e+003,3.6024357910e+003,3.6310256348e+003,3.6041025391e+003,3.6023076172e+003,3.5698718262e+003,3.5851281738e+003,3.6271794434e+003,3.5901281738e+003,3.6276923828e+003,
2.8125000000e+000,3.6176923828e+003,3.5230769043e+003,3.5703845215e+003,3.6003845215e+003,3.5296154785e+003,3.5325642090e+003,3.5708974609e+003,3.5589743652e+003,3.5615385742e+003,3.5132050781e+003,3.5255129395e+003,3.5706411133e+003,3.5437180176e+003,3.5708974609e+003,
2.8203125000e+000,3.7438461914e+003,3.6420512695e+003,3.6932050781e+003,3.7210256348e+003,3.6543588867e+003,3.6511538086e+003,3.6908974609e+003,3.6901281738e+003,3.6932050781e+003,3.6528205566e+003,3.6684614258e+003,3.7008974609e+003,3.6769230957e+003,3.6982050781e+003,
2.8281250000e+000,3.7669230957e+003,3.6696154785e+003,3.7157692871e+003,3.7432050781e+003,3.6758974609e+003,3.6760256348e+003,3.7152563477e+003,3.7175642090e+003,3.7228205566e+003,3.6819230957e+003,3.6910256348e+003,3.7246154785e+003,3.7008974609e+003,3.7229487305e+003,
2.8359375000e+000,3.7579487305e+003,3.6683332520e+003,3.7030769043e+003,3.7416667480e+003,3.6626923828e+003,3.6812819824e+003,3.7142307129e+003,3.7219230957e+003,3.7317949219e+003,3.6825642090e+003,3.6770512695e+003,3.7152563477e+003,3.6873076172e+003,3.7115385742e+003,
2.8437500000e+000,3.7361538086e+003,3.6420512695e+003,3.6811538086e+003,3.7206411133e+003,3.6416667480e+003,3.6646154785e+003,3.6924357910e+003,3.6997436523e+003,3.7098718262e+003,3.6615385742e+003,3.6530769043e+003,3.6924357910e+003,3.6648718262e+003,3.6882050781e+003,
2.8515625000e+000,3.5908974609e+003,3.4864101563e+003,3.5344870605e+003,3.5820512695e+003,3.5158974609e+003,3.5325642090e+003,3.5517949219e+003,3.5464101563e+003,3.5610256348e+003,3.5097436523e+003,3.5037180176e+003,3.5405129395e+003,3.5241025391e+003,3.5401281738e+003,
2.8593750000e+000,3.5498718262e+003,3.4452563477e+003,3.4915385742e+003,3.5474357910e+003,3.4773076172e+003,3.4938461914e+003,3.5135898438e+003,3.5014101563e+003,3.5184614258e+003,3.4612819824e+003,3.4608974609e+003,3.4976923828e+003,3.4787180176e+003,3.4973076172e+003,
2.8671875000e+000,3.5612819824e+003,3.4579487305e+003,3.4970512695e+003,3.5650000000e+003,3.4746154785e+003,3.5039743652e+003,3.5258974609e+003,3.5044870605e+003,3.5260256348e+003,3.4639743652e+003,3.4660256348e+003,3.5034614258e+003,3.4775642090e+003,3.5011538086e+003,
2.8750000000e+000,3.5908974609e+003,3.4876923828e+003,3.5251281738e+003,3.5939743652e+003,3.4958974609e+003,3.5316667480e+003,3.5543588867e+003,3.5319230957e+003,3.5552563477e+003,3.4964101563e+003,3.4916667480e+003,3.5301281738e+003,3.5080769043e+003,3.5273076172e+003,
2.8828125000e+000,3.6064101563e+003,3.5019230957e+003,3.5420512695e+003,3.6096154785e+003,3.5087180176e+003,3.5462819824e+003,3.5701281738e+003,3.5462819824e+003,3.5710256348e+003,3.5162819824e+003,3.5034614258e+003,3.5446154785e+003,3.5293588867e+003,3.5421794434e+003,
2.8906250000e+000,3.6020512695e+003,3.4947436523e+003,3.5408974609e+003,3.6073076172e+003,3.5091025391e+003,3.5424357910e+003,3.5676923828e+003,3.5400000000e+003,3.5658974609e+003,3.5137180176e+003,3.4964101563e+003,3.5416667480e+003,3.5298718262e+003,3.5398718262e+003,
2.8984375000e+000,3.6117949219e+003,3.4973076172e+003,3.5424357910e+003,3.6234614258e+003,3.5383332520e+003,3.5438461914e+003,3.5711538086e+003,3.5376923828e+003,3.5567949219e+003,3.5126923828e+003,3.5105129395e+003,3.5560256348e+003,3.5198718262e+003,3.5433332520e+003,
2.9062500000e+000,3.6417949219e+003,3.5265385742e+003,3.5741025391e+003,3.6483332520e+003,3.5462819824e+003,3.5584614258e+003,3.5906411133e+003,3.5592307129e+003,3.5691025391e+003,3.5380769043e+003,3.5379487305e+003,3.5856411133e+003,3.5566667480e+003,3.5744870605e+003,
2.9140625000e+000,3.6592307129e+003,3.5465385742e+003,3.5916667480e+003,3.6667949219e+003,3.5703845215e+003,3.5735898438e+003,3.6053845215e+003,3.5791025391e+003,3.5894870605e+003,3.5582050781e+003,3.5619230957e+003,3.6076923828e+003,3.5719230957e+003,3.5956411133e+003,
2.9218750000e+000,3.6991025391e+003,3.5869230957e+003,3.6253845215e+003,3.7076923828e+003,3.6080769043e+003,3.6006411133e+003,3.6366667480e+003,3.6243588867e+003,3.6356411133e+003,3.5978205566e+003,3.6002563477e+003,3.6444870605e+003,3.6041025391e+003,3.6282050781e+003,
2.9296875000e+000,3.7228205566e+003,3.6082050781e+003,3.6456411133e+003,3.7320512695e+003,3.6256411133e+003,3.6169230957e+003,3.6556411133e+003,3.6489743652e+003,3.6612819824e+003,3.6208974609e+003,3.6174357910e+003,3.6601281738e+003,3.6269230957e+003,3.6444870605e+003,
2.9375000000e+000,3.7342307129e+003,3.6223076172e+003,3.6596154785e+003,3.7557692871e+003,3.6441025391e+003,3.6444870605e+003,3.6776923828e+003,3.6715385742e+003,3.6883332520e+003,3.6526923828e+003,3.6374357910e+003,3.6723076172e+003,3.6544870605e+003,3.6606411133e+003,
2.9453125000e+000,3.7093588867e+003,3.6078205566e+003,3.6329487305e+003,3.7319230957e+003,3.6330769043e+003,3.6401281738e+003,3.6661538086e+003,3.6565385742e+003,3.6675642090e+003,3.6310256348e+003,3.6152563477e+003,3.6503845215e+003,3.6338461914e+003,3.6362819824e+003,
2.9531250000e+000,3.7057692871e+003,3.6032050781e+003,3.6300000000e+003,3.7252563477e+003,3.6247436523e+003,3.6366667480e+003,3.6629487305e+003,3.6532050781e+003,3.6626923828e+003,3.6229487305e+003,3.6060256348e+003,3.6442307129e+003,3.6230769043e+003,3.6296154785e+003,
2.9609375000e+000,3.7115385742e+003,3.6110256348e+003,3.6378205566e+003,3.7355129395e+003,3.6205129395e+003,3.6453845215e+003,3.6735898438e+003,3.6532050781e+003,3.6710256348e+003,3.6292307129e+003,3.6143588867e+003,3.6512819824e+003,3.6226923828e+003,3.6396154785e+003,
2.9687500000e+000,3.7351281738e+003,3.6417949219e+003,3.6583332520e+003,3.7639743652e+003,3.6484614258e+003,3.6714101563e+003,3.6978205566e+003,3.6769230957e+003,3.6970512695e+003,3.6567949219e+003,3.6401281738e+003,3.6747436523e+003,3.6547436523e+003,3.6648718262e+003,
2.9765625000e+000,3.7612819824e+003,3.6739743652e+003,3.6821794434e+003,3.7923076172e+003,3.6789743652e+003,3.6998718262e+003,3.7239743652e+003,3.7046154785e+003,3.7247436523e+003,3.6860256348e+003,3.6660256348e+003,3.7001281738e+003,3.6882050781e+003,3.6915385742e+003,
2.9843750000e+000,3.7988461914e+003,3.7080769043e+003,3.7247436523e+003,3.8248718262e+003,3.7237180176e+003,3.7400000000e+003,3.7600000000e+003,3.7417949219e+003,3.7593588867e+003,3.7273076172e+003,3.7047436523e+003,3.7366667480e+003,3.7244870605e+003,3.7284614258e+003,
2.9921875000e+000,3.8423076172e+003,3.7488461914e+003,3.7750000000e+003,3.8700000000e+003,3.7943588867e+003,3.7852563477e+003,3.8005129395e+003,3.7778205566e+003,3.7988461914e+003,3.7848718262e+003,3.7621794434e+003,3.7820512695e+003,3.7716667480e+003,3.7675642090e+003,
3.0000000000e+000,3.8394870605e+003,3.7534614258e+003,3.7701281738e+003,3.8687180176e+003,3.7969230957e+003,3.7814101563e+003,3.7976923828e+003,3.7764101563e+003,3.7967949219e+003,3.7842307129e+003,3.7578205566e+003,3.7824357910e+003,3.7746154785e+003,3.7656411133e+003,
3.0078125000e+000,3.8182050781e+003,3.7388461914e+003,3.7478205566e+003,3.8455129395e+003,3.7743588867e+003,3.7578205566e+003,3.7762819824e+003,3.7580769043e+003,3.7766667480e+003,3.7619230957e+003,3.7338461914e+003,3.7644870605e+003,3.7555129395e+003,3.7478205566e+003,
3.0156250000e+000,3.7833332520e+003,3.7070512695e+003,3.7133332520e+003,3.8048718262e+003,3.7324357910e+003,3.7198718262e+003,3.7415385742e+003,3.7261538086e+003,3.7435898438e+003,3.7238461914e+003,3.6984614258e+003,3.7315385742e+003,3.7176923828e+003,3.7171794434e+003,
3.0234375000e+000,3.7365385742e+003,3.6443588867e+003,3.6666667480e+003,3.7547436523e+003,3.6579487305e+003,3.6569230957e+003,3.6885898438e+003,3.6742307129e+003,3.6980769043e+003,3.6712819824e+003,3.6561538086e+003,3.6792307129e+003,3.6588461914e+003,3.6614101563e+003,
3.0312500000e+000,3.7341025391e+003,3.6382050781e+003,3.6642307129e+003,3.7571794434e+003,3.6534614258e+003,3.6457692871e+003,3.6789743652e+003,3.6689743652e+003,3.6932050781e+003,3.6680769043e+003,3.6506411133e+003,3.6751281738e+003,3.6575642090e+003,3.6557692871e+003,
3.0390625000e+000,3.7483332520e+003,3.6516667480e+003,3.6755129395e+003,3.7670512695e+003,3.6653845215e+003,3.6479487305e+003,3.6830769043e+003,3.6758974609e+003,3.6952563477e+003,3.6638461914e+003,3.6543588867e+003,3.6808974609e+003,3.6630769043e+003,3.6714101563e+003,
3.0468750000e+000,4.3392309570e+003,4.2726923828e+003,4.2524360352e+003,4.3424360352e+003,4.2706411133e+003,4.2434614258e+003,4.2702563477e+003,4.2552563477e+003,4.2647436523e+003,4.2702563477e+003,4.2562822266e+003,4.2714101563e+003,4.2616665039e+003,4.2523076172e+003,
3.0546875000e+000,4.5088461914e+003,4.4557690430e+003,4.4266665039e+003,4.5132050781e+003,4.4533334961e+003,4.4185898438e+003,4.4383334961e+003,4.4342309570e+003,4.4400000000e+003,4.4628203125e+003,4.4400000000e+003,4.4485898438e+003,4.4444873047e+003,4.4247436523e+003,
3.0625000000e+000,4.5739741211e+003,4.5497436523e+003,4.5221796875e+003,4.5807690430e+003,4.5541025391e+003,4.5156411133e+003,4.5207690430e+003,4.5321796875e+003,4.5319228516e+003,4.5670512695e+003,4.5400000000e+003,4.5388461914e+003,4.5312822266e+003,4.5124360352e+003,
3.0703125000e+000,4.6310258789e+003,4.6206411133e+003,4.5892309570e+003,4.6392309570e+003,4.6007690430e+003,4.5806411133e+003,4.5800000000e+003,4.5898715820e+003,4.5929487305e+003,4.6387177734e+003,4.6143588867e+003,4.6034614258e+003,4.6002563477e+003,4.5765385742e+003,
3.0781250000e+000,4.5506411133e+003,4.5434614258e+003,4.5180771484e+003,4.5712822266e+003,4.5261538086e+003,4.5079487305e+003,4.5044873047e+003,4.5173076172e+003,4.5205126953e+003,4.5650000000e+003,4.5391025391e+003,4.5305126953e+003,4.5284614258e+003,4.5038461914e+003,
3.0859375000e+000,4.2411538086e+003,4.2401284180e+003,4.2207690430e+003,4.2880771484e+003,4.2534614258e+003,4.2167949219e+003,4.2207690430e+003,4.2116665039e+003,4.2235898438e+003,4.2439741211e+003,4.2308974609e+003,4.2298715820e+003,4.2194873047e+003,4.2084614258e+003,
3.0937500000e+000,4.2456411133e+003,4.2415385742e+003,4.2223076172e+003,4.2915385742e+003,4.2598715820e+003,4.2164101563e+003,4.2244873047e+003,4.2075639648e+003,4.2215385742e+003,4.2408974609e+003,4.2333334961e+003,4.2325639648e+003,4.2192309570e+003,4.2116665039e+003,
3.1015625000e+000,4.2811538086e+003,4.2725639648e+003,4.2574360352e+003,4.3237177734e+003,4.2908974609e+003,4.2456411133e+003,4.2557690430e+003,4.2380771484e+003,4.2500000000e+003,4.2733334961e+003,4.2660258789e+003,4.2682050781e+003,4.2533334961e+003,4.2466665039e+003,
3.1093750000e+000,4.3052563477e+003,4.2948715820e+003,4.2902563477e+003,4.3466665039e+003,4.3051284180e+003,4.2661538086e+003,4.2766665039e+003,4.2723076172e+003,4.2755126953e+003,4.3084614258e+003,4.2869228516e+003,4.3008974609e+003,4.2874360352e+003,4.2779487305e+003,
3.1171875000e+000,4.2762822266e+003,4.2793588867e+003,4.2621796875e+003,4.3237177734e+003,4.2711538086e+003,4.2298715820e+003,4.2535898438e+003,4.2562822266e+003,4.2629487305e+003,4.2929487305e+003,4.2800000000e+003,4.2806411133e+003,4.2712822266e+003,4.2605126953e+003,
3.1250000000e+000,4.2964101563e+003,4.2980771484e+003,4.2802563477e+003,4.3394873047e+003,4.2852563477e+003,4.2400000000e+003,4.2696152344e+003,4.2726923828e+003,4.2814101563e+003,4.3088461914e+003,4.3050000000e+003,4.2992309570e+003,4.2898715820e+003,4.2801284180e+003,
3.1328125000e+000,4.3067949219e+003,4.3047436523e+003,4.2910258789e+003,4.3467949219e+003,4.2898715820e+003,4.2428203125e+003,4.2753847656e+003,4.2821796875e+003,4.2906411133e+003,4.3158974609e+003,4.3147436523e+003,4.3092309570e+003,4.2992309570e+003,4.2901284180e+003,
3.1406250000e+000,4.2898715820e+003,4.2844873047e+003,4.2769228516e+003,4.3310258789e+003,4.2693588867e+003,4.2247436523e+003,4.2574360352e+003,4.2701284180e+003,4.2764101563e+003,4.2992309570e+003,4.2938461914e+003,4.2953847656e+003,4.2823076172e+003,4.2743588867e+003,
3.1484375000e+000,4.2187177734e+003,4.2137177734e+003,4.2141025391e+003,4.2676923828e+003,4.2035898438e+003,4.1730771484e+003,4.2032050781e+003,4.2161538086e+003,4.2208974609e+003,4.2332050781e+003,4.2266665039e+003,4.2330771484e+003,4.2110258789e+003,4.2064101563e+003,
3.1562500000e+000,4.2058974609e+003,4.2007690430e+003,4.2028203125e+003,4.2547436523e+003,4.1948715820e+003,4.1651284180e+003,4.1933334961e+003,4.2039741211e+003,4.2080771484e+003,4.2215385742e+003,4.2147436523e+003,4.2165385742e+003,4.2008974609e+003,4.1924360352e+003,
3.1640625000e+000,4.2070512695e+003,4.2119228516e+003,4.2053847656e+003,4.2703847656e+003,4.2053847656e+003,4.1920512695e+003,4.2143588867e+003,4.1971796875e+003,4.1962822266e+003,4.2117949219e+003,4.2005126953e+003,4.2064101563e+003,4.2026923828e+003,4.1906411133e+003,
3.1718750000e+000,4.7301284180e+003,4.7611538086e+003,4.7143588867e+003,4.7896152344e+003,4.7642309570e+003,4.7166665039e+003,4.7223076172e+003,4.7114101563e+003,4.7008974609e+003,4.7451284180e+003,4.7361538086e+003,4.7235898438e+003,4.7273076172e+003,4.7079487305e+003,
3.1796875000e+000,4.8424360352e+003,4.8802563477e+003,4.8307690430e+003,4.9012822266e+003,4.8873076172e+003,4.8303847656e+003,4.8316665039e+003,4.8319228516e+003,4.8188461914e+003,4.8742309570e+003,4.8550000000e+003,4.8444873047e+003,4.8451284180e+003,4.8241025391e+003,
3.1875000000e+000,4.6834614258e+003,4.7361538086e+003,4.6971796875e+003,4.7601284180e+003,4.7358974609e+003,4.6939741211e+003,4.6876923828e+003,4.6998715820e+003,4.6926923828e+003,4.7519228516e+003,4.7256411133e+003,4.7137177734e+003,4.7032050781e+003,4.6869228516e+003,
3.1953125000e+000,4.4766665039e+003,4.5269228516e+003,4.5037177734e+003,4.5533334961e+003,4.5214101563e+003,4.4950000000e+003,4.4932050781e+003,4.4946152344e+003,4.4896152344e+003,4.5364101563e+003,4.5275639648e+003,4.5141025391e+003,4.5107690430e+003,4.4911538086e+003,
3.2031250000e+000,4.4569228516e+003,4.5055126953e+003,4.4848715820e+003,4.5308974609e+003,4.5012822266e+003,4.4714101563e+003,4.4728203125e+003,4.4743588867e+003,4.4698715820e+003,4.5125639648e+003,4.5026923828e+003,4.4975639648e+003,4.4888461914e+003,4.4741025391e+003,
3.2109375000e+000,4.4470512695e+003,4.4961538086e+003,4.4737177734e+003,4.5194873047e+003,4.4932050781e+003,4.4569228516e+003,4.4605126953e+003,4.4643588867e+003,4.4624360352e+003,4.5024360352e+003,4.4917949219e+003,4.4917949219e+003,4.4737177734e+003,4.4674360352e+003,
3.2187500000e+000,4.4250000000e+003,4.4762822266e+003,4.4520512695e+003,4.4955126953e+003,4.4751284180e+003,4.4257690430e+003,4.4320512695e+003,4.4402563477e+003,4.4469228516e+003,4.4873076172e+003,4.4821796875e+003,4.4776923828e+003,4.4479487305e+003,4.4539741211e+003,
3.2265625000e+000,4.4093588867e+003,4.4603847656e+003,4.4406411133e+003,4.4775639648e+003,4.4569228516e+003,4.4053847656e+003,4.4143588867e+003,4.4229487305e+003,4.4329487305e+003,4.4746152344e+003,4.4708974609e+003,4.4630771484e+003,4.4396152344e+003,4.4412822266e+003,
3.2343750000e+000,4.3806411133e+003,4.4344873047e+003,4.4187177734e+003,4.4498715820e+003,4.4112822266e+003,4.3700000000e+003,4.3900000000e+003,4.4008974609e+003,4.4057690430e+003,4.4417949219e+003,4.4300000000e+003,4.4257690430e+003,4.4347436523e+003,4.4067949219e+003,
3.2421875000e+000,4.4094873047e+003,4.4632050781e+003,4.4452563477e+003,4.4875639648e+003,4.4442309570e+003,4.4074360352e+003,4.4296152344e+003,4.4408974609e+003,4.4302563477e+003,4.4637177734e+003,4.4639741211e+003,4.4553847656e+003,4.4473076172e+003,4.4333334961e+003,
3.2500000000e+000,4.4208974609e+003,4.4737177734e+003,4.4557690430e+003,4.4953847656e+003,4.4551284180e+003,4.4225639648e+003,4.4441025391e+003,4.4548715820e+003,4.4434614258e+003,4.4766665039e+003,4.4791025391e+003,4.4666665039e+003,4.4570512695e+003,4.4437177734e+003,
3.2578125000e+000,4.4079487305e+003,4.4608974609e+003,4.4428203125e+003,4.4789741211e+003,4.4405126953e+003,4.4146152344e+003,4.4347436523e+003,4.4461538086e+003,4.4356411133e+003,4.4658974609e+003,4.4667949219e+003,4.4532050781e+003,4.4467949219e+003,4.4297436523e+003,
3.2656250000e+000,4.3569228516e+003,4.4107690430e+003,4.3930771484e+003,4.4274360352e+003,4.3893588867e+003,4.3706411133e+003,4.3883334961e+003,4.4007690430e+003,4.3911538086e+003,4.4155126953e+003,4.4124360352e+003,4.4014101563e+003,4.4001284180e+003,4.3785898438e+003,
3.2734375000e+000,4.1298715820e+003,4.1780771484e+003,4.1651284180e+003,4.2070512695e+003,4.2035898438e+003,4.1741025391e+003,4.1837177734e+003,4.1750000000e+003,4.1689741211e+003,4.1746152344e+003,4.1619228516e+003,4.1608974609e+003,4.1737177734e+003,4.1435898438e+003,
3.2812500000e+000,4.1411538086e+003,4.1857690430e+003,4.1758974609e+003,4.2150000000e+003,4.2157690430e+003,4.1875639648e+003,4.1975639648e+003,4.1838461914e+003,4.1803847656e+003,4.1864101563e+003,4.1721796875e+003,4.1719228516e+003,4.1864101563e+003,4.1516665039e+003,
3.2890625000e+000,4.1003847656e+003,4.1435898438e+003,4.1300000000e+003,4.1719228516e+003,4.1362822266e+003,4.1502563477e+003,4.1511538086e+003,4.1412822266e+003,4.1507690430e+003,4.1487177734e+003,4.1311538086e+003,4.1423076172e+003,4.1458974609e+003,4.1143588867e+003,
3.2968750000e+000,4.1297436523e+003,4.1648715820e+003,4.1502563477e+003,4.1851284180e+003,4.1847436523e+003,4.1667949219e+003,4.1705126953e+003,4.1555126953e+003,4.1683334961e+003,4.1652563477e+003,4.1542309570e+003,4.1567949219e+003,4.1632050781e+003,4.1338461914e+003,
3.3046875000e+000,4.2033334961e+003,4.2353847656e+003,4.2223076172e+003,4.2565385742e+003,4.2635898438e+003,4.2312822266e+003,4.2378203125e+003,4.2228203125e+003,4.2352563477e+003,4.2396152344e+003,4.2302563477e+003,4.2262822266e+003,4.2382050781e+003,4.2026923828e+003,
3.3125000000e+000,4.2414101563e+003,4.2789741211e+003,4.2632050781e+003,4.3203847656e+003,4.2785898438e+003,4.2648715820e+003,4.2617949219e+003,4.2591025391e+003,4.2730771484e+003,4.2864101563e+003,4.2807690430e+003,4.2808974609e+003,4.2903847656e+003,4.2528203125e+003,
3.3203125000e+000,4.1887177734e+003,4.2251284180e+003,4.2116665039e+003,4.2702563477e+003,4.2211538086e+003,4.2105126953e+003,4.2075639648e+003,4.2035898438e+003,4.2178203125e+003,4.2270512695e+003,4.2234614258e+003,4.2329487305e+003,4.2358974609e+003,4.2048715820e+003,
3.3281250000e+000,4.1575639648e+003,4.1858974609e+003,4.1773076172e+003,4.2258974609e+003,4.1955126953e+003,4.1661538086e+003,4.1719228516e+003,4.1639741211e+003,4.1750000000e+003,4.1821796875e+003,4.1834614258e+003,4.1974360352e+003,4.1951284180e+003,4.1697436523e+003,
3.3359375000e+000,4.1912822266e+003,4.2192309570e+003,4.2101284180e+003,4.2533334961e+003,4.2312822266e+003,4.1948715820e+003,4.2048715820e+003,4.1994873047e+003,4.2076923828e+003,4.2178203125e+003,4.2215385742e+003,4.2288461914e+003,4.2256411133e+003,4.2007690430e+003,
3.3437500000e+000,4.3010258789e+003,4.3370512695e+003,4.3291025391e+003,4.3594873047e+003,4.3285898438e+003,4.3028203125e+003,4.3216665039e+003,4.3284614258e+003,4.3274360352e+003,4.3378203125e+003,4.3396152344e+003,4.3421796875e+003,4.3326923828e+003,4.3165385742e+003,
3.3515625000e+000,4.3275639648e+003,4.3637177734e+003,4.3560258789e+003,4.3820512695e+003,4.3546152344e+003,4.3261538086e+003,4.3484614258e+003,4.3562822266e+003,4.3517949219e+003,4.3606411133e+003,4.3589741211e+003,4.3656411133e+003,4.3612822266e+003,4.3426923828e+003,
3.3593750000e+000,4.3575639648e+003,4.3957690430e+003,4.3875639648e+003,4.4070512695e+003,4.3832050781e+003,4.3593588867e+003,4.3853847656e+003,4.3952563477e+003,4.3796152344e+003,4.3950000000e+003,4.3962822266e+003,4.4023076172e+003,4.4026923828e+003,4.3769228516e+003,
3.3671875000e+000,4.3517949219e+003,4.3920512695e+003,4.3848715820e+003,4.4046152344e+003,4.3774360352e+003,4.3617949219e+003,4.3852563477e+003,4.3944873047e+003,4.3779487305e+003,4.3944873047e+003,4.3987177734e+003,4.4038461914e+003,4.3982050781e+003,4.3752563477e+003,
3.3750000000e+000,4.3975639648e+003,4.4451284180e+003,4.4333334961e+003,4.4500000000e+003,4.4357690430e+003,4.4244873047e+003,4.4394873047e+003,4.4451284180e+003,4.4330771484e+003,4.4496152344e+003,4.4491025391e+003,4.4517949219e+003,4.4491025391e+003,4.4232050781e+003,
3.3828125000e+000,4.4494873047e+003,4.5012822266e+003,4.4853847656e+003,4.4985898438e+003,4.4950000000e+003,4.4823076172e+003,4.4932050781e+003,4.4975639648e+003,4.4889741211e+003,4.5070512695e+003,4.5020512695e+003,4.5002563477e+003,4.5051284180e+003,4.4728203125e+003,
3.3906250000e+000,4.4897436523e+003,4.5448715820e+003,4.5262822266e+003,4.5374360352e+003,4.5392309570e+003,4.5270512695e+003,4.5335898438e+003,4.5383334961e+003,4.5323076172e+003,4.5535898438e+003,4.5467949219e+003,4.5380771484e+003,4.5480771484e+003,4.5105126953e+003,
3.3984375000e+000,4.1811538086e+003,4.2374360352e+003,4.2253847656e+003,4.2543588867e+003,4.2638461914e+003,4.2329487305e+003,4.2250000000e+003,4.2260258789e+003,4.2312822266e+003,4.2369228516e+003,4.2317949219e+003,4.2396152344e+003,4.2292309570e+003,4.2062822266e+003,
3.4062500000e+000,4.1141025391e+003,4.1646152344e+003,4.1583334961e+003,4.1858974609e+003,4.1944873047e+003,4.1614101563e+003,4.1556411133e+003,4.1510258789e+003,4.1610258789e+003,4.1583334961e+003,4.1553847656e+003,4.1691025391e+003,4.1600000000e+003,4.1389741211e+003,
3.4140625000e+000,3.9360256348e+003,3.9647436523e+003,3.9757692871e+003,3.9937180176e+003,3.9734614258e+003,3.9742307129e+003,3.9680769043e+003,3.9516667480e+003,3.9767949219e+003,3.9674357910e+003,3.9846154785e+003,3.9794870605e+003,3.9741025391e+003,3.9637180176e+003,
3.4218750000e+000,3.9491025391e+003,3.9634614258e+003,3.9800000000e+003,3.9961538086e+003,3.9730769043e+003,3.9624357910e+003,3.9632050781e+003,3.9391025391e+003,3.9697436523e+003,3.9642307129e+003,3.9639743652e+003,3.9819230957e+003,3.9774357910e+003,3.9692307129e+003,
3.4296875000e+000,3.9801281738e+003,3.9951281738e+003,4.0057692871e+003,4.0269230957e+003,3.9979487305e+003,3.9830769043e+003,3.9869230957e+003,3.9666667480e+003,3.9982050781e+003,3.9928205566e+003,3.9846154785e+003,4.0088461914e+003,4.0071794434e+003,3.9982050781e+003,
