Time (s),AF3,F7,F3,FC5,T7,P7,O1,O2,P8,T8,FC6,F4,F8,AF4,Sampling Rate
0.0000000000e+000,3.6802563477e+003,3.4664101563e+003,3.4916667480e+003,3.5489743652e+003,3.4471794434e+003,3.4378205566e+003,3.4916667480e+003,3.4574357910e+003,3.4716667480e+003,3.4893588867e+003,3.4680769043e+003,3.5142307129e+003,3.4778205566e+003,3.5139743652e+003,128
7.8125000000e-003,3.7867949219e+003,3.5873076172e+003,3.6011538086e+003,3.6525642090e+003,3.5600000000e+003,3.5424357910e+003,3.5950000000e+003,3.5753845215e+003,3.5908974609e+003,3.6158974609e+003,3.5980769043e+003,3.6320512695e+003,3.5915385742e+003,3.6262819824e+003,
1.5625000000e-002,3.7914101563e+003,3.6155129395e+003,3.6191025391e+003,3.6629487305e+003,3.6052563477e+003,3.5635898438e+003,3.6130769043e+003,3.6138461914e+003,3.6400000000e+003,3.6589743652e+003,3.6373076172e+003,3.6562819824e+003,3.6223076172e+003,3.6411538086e+003,
2.3437500000e-002,3.7541025391e+003,3.5852563477e+003,3.5871794434e+003,3.6319230957e+003,3.5888461914e+003,3.5410256348e+003,3.5874357910e+003,3.5892307129e+003,3.6207692871e+003,3.6334614258e+003,3.6023076172e+003,3.6212819824e+003,3.5978205566e+003,3.6065385742e+003,
3.1250000000e-002,3.7335898438e+003,3.5711538086e+003,3.5692307129e+003,3.6174357910e+003,3.5834614258e+003,3.5369230957e+003,3.5775642090e+003,3.5775642090e+003,3.6123076172e+003,3.6203845215e+003,3.5785898438e+003,3.6003845215e+003,3.5848718262e+003,3.5882050781e+003,
3.9062500000e-002,3.6246154785e+003,3.4919230957e+003,3.4816667480e+003,3.5261538086e+003,3.5070512695e+003,3.4862819824e+003,3.5151281738e+003,3.5007692871e+003,3.5319230957e+003,3.5300000000e+003,3.4814101563e+003,3.5041025391e+003,3.4800000000e+003,3.4961538086e+003,
4.6875000000e-002,3.6803845215e+003,3.5532050781e+003,3.5391025391e+003,3.5826923828e+003,3.5687180176e+003,3.5482050781e+003,3.5784614258e+003,3.5571794434e+003,3.5876923828e+003,3.5892307129e+003,3.5376923828e+003,3.5562819824e+003,3.5419230957e+003,3.5501281738e+003,
5.4687500000e-002,3.9092307129e+003,3.8023076172e+003,3.7735898438e+003,3.8317949219e+003,3.8124357910e+003,3.7985898438e+003,3.8187180176e+003,3.7983332520e+003,3.8198718262e+003,3.8335898438e+003,3.7843588867e+003,3.8012819824e+003,3.7798718262e+003,3.7908974609e+003,
6.2500000000e-002,3.9317949219e+003,3.8285898438e+003,3.8008974609e+003,3.8623076172e+003,3.8393588867e+003,3.8244870605e+003,3.8414101563e+003,3.8250000000e+003,3.8451281738e+003,3.8610256348e+003,3.8151281738e+003,3.8317949219e+003,3.8037180176e+003,3.8180769043e+003,
7.0312500000e-002,3.9207692871e+003,3.8238461914e+003,3.8032050781e+003,3.8576923828e+003,3.8344870605e+003,3.8150000000e+003,3.8320512695e+003,3.8185898438e+003,3.8379487305e+003,3.8600000000e+003,3.8097436523e+003,3.8310256348e+003,3.8048718262e+003,3.8097436523e+003,
7.8125000000e-002,3.8943588867e+003,3.8078205566e+003,3.7858974609e+003,3.8250000000e+003,3.8051281738e+003,3.7905129395e+003,3.8117949219e+003,3.7832050781e+003,3.7946154785e+003,3.8265385742e+003,3.7889743652e+003,3.8144870605e+003,3.7824357910e+003,3.7952563477e+003,
8.5937500000e-002,3.8982050781e+003,3.8111538086e+003,3.7869230957e+003,3.8325642090e+003,3.7944870605e+003,3.7876923828e+003,3.8114101563e+003,3.7817949219e+003,3.7916667480e+003,3.8256411133e+003,3.7980769043e+003,3.8191025391e+003,3.7816667480e+003,3.7975642090e+003,
9.3750000000e-002,3.9232050781e+003,3.8326923828e+003,3.8133332520e+003,3.8652563477e+003,3.8052563477e+003,3.7919230957e+003,3.8255129395e+003,3.7966667480e+003,3.8023076172e+003,3.8467949219e+003,3.8246154785e+003,3.8485898438e+003,3.8097436523e+003,3.8219230957e+003,
1.0156250000e-001,3.9535898438e+003,3.8632050781e+003,3.8471794434e+003,3.8962819824e+003,3.8470512695e+003,3.8124357910e+003,3.8494870605e+003,3.8228205566e+003,3.8258974609e+003,3.8800000000e+003,3.8541025391e+003,3.8817949219e+003,3.8482050781e+003,3.8556411133e+003,
1.0937500000e-001,3.9932050781e+003,3.9044870605e+003,3.8901281738e+003,3.9350000000e+003,3.9039743652e+003,3.8441025391e+003,3.8819230957e+003,3.8588461914e+003,3.8606411133e+003,3.9244870605e+003,3.8957692871e+003,3.9239743652e+003,3.8960256348e+003,3.8994870605e+003,
1.1718750000e-001,4.0634614258e+003,3.9789743652e+003,3.9650000000e+003,4.0016667480e+003,3.9879487305e+003,3.9038461914e+003,3.9389743652e+003,3.9242307129e+003,3.9316667480e+003,4.0021794434e+003,3.9765385742e+003,3.9993588867e+003,3.9716667480e+003,3.9744870605e+003,
1.2500000000e-001,4.0858974609e+003,4.0048718262e+003,3.9888461914e+003,4.0206411133e+003,4.0032050781e+003,3.9241025391e+003,3.9582050781e+003,3.9474357910e+003,3.9605129395e+003,4.0274357910e+003,4.0039743652e+003,4.0247436523e+003,3.9932050781e+003,3.9980769043e+003,
1.3281250000e-001,4.0891025391e+003,4.0312819824e+003,3.9975642090e+003,4.0188461914e+003,4.0024357910e+003,3.9438461914e+003,3.9724357910e+003,3.9821794434e+003,3.9971794434e+003,4.0585898438e+003,4.0289743652e+003,4.0382050781e+003,4.0052563477e+003,4.0158974609e+003,
1.4062500000e-001,4.0739743652e+003,4.0262819824e+003,3.9960256348e+003,4.0223076172e+003,4.0148718262e+003,3.9632050781e+003,3.9814101563e+003,3.9920512695e+003,4.0067949219e+003,4.0601281738e+003,4.0264101563e+003,4.0216667480e+003,4.0085898438e+003,4.0052563477e+003,
1.4843750000e-001,4.1164101563e+003,4.0721794434e+003,4.0398718262e+003,4.0715385742e+003,4.0602563477e+003,4.0161538086e+003,4.0324357910e+003,4.0412819824e+003,4.0589743652e+003,4.1070512695e+003,4.0666667480e+003,4.0625642090e+003,4.0624357910e+003,4.0453845215e+003,
1.5625000000e-001,4.2087177734e+003,4.1775639648e+003,4.1374360352e+003,4.1648715820e+003,4.1615385742e+003,4.1378203125e+003,4.1539741211e+003,4.1650000000e+003,4.1788461914e+003,4.2226923828e+003,4.1653847656e+003,4.1669228516e+003,4.1703847656e+003,4.1435898438e+003,
1.6406250000e-001,4.1960258789e+003,4.1767949219e+003,4.1308974609e+003,4.1519228516e+003,4.1906411133e+003,4.1451284180e+003,4.1576923828e+003,4.1597436523e+003,4.1723076172e+003,4.2223076172e+003,4.1828203125e+003,4.1606411133e+003,4.1612822266e+003,4.1351284180e+003,
1.7187500000e-001,4.2019228516e+003,4.1869228516e+003,4.1373076172e+003,4.1638461914e+003,4.1989741211e+003,4.1560258789e+003,4.1669228516e+003,4.1644873047e+003,4.1782050781e+003,4.2292309570e+003,4.1901284180e+003,4.1685898438e+003,4.1734614258e+003,4.1434614258e+003,
1.7968750000e-001,4.1416665039e+003,4.1351284180e+003,4.0879487305e+003,4.1198715820e+003,4.1073076172e+003,4.1071796875e+003,4.1169228516e+003,4.1056411133e+003,4.1193588867e+003,4.1641025391e+003,4.1188461914e+003,4.1230771484e+003,4.1235898438e+003,4.0935898438e+003,
1.8750000000e-001,4.1485898438e+003,4.1426923828e+003,4.1064101563e+003,4.1146152344e+003,4.1570512695e+003,4.1134614258e+003,4.1282050781e+003,4.1008974609e+003,4.1103847656e+003,4.1628203125e+003,4.1343588867e+003,4.1421796875e+003,4.1261538086e+003,4.1024360352e+003,
1.9531250000e-001,4.2237177734e+003,4.2208974609e+003,4.1844873047e+003,4.1875639648e+003,4.2429487305e+003,4.1820512695e+003,4.1985898438e+003,4.1711538086e+003,4.1770512695e+003,4.2384614258e+003,4.2134614258e+003,4.2192309570e+003,4.2029487305e+003,4.1764101563e+003,
2.0312500000e-001,4.2961538086e+003,4.2988461914e+003,4.2587177734e+003,4.2634614258e+003,4.3147436523e+003,4.2469228516e+003,4.2651284180e+003,4.2437177734e+003,4.2452563477e+003,4.3144873047e+003,4.2892309570e+003,4.2928203125e+003,4.2810258789e+003,4.2487177734e+003,
2.1093750000e-001,4.2935898438e+003,4.3056411133e+003,4.2597436523e+003,4.2764101563e+003,4.2915385742e+003,4.2370512695e+003,4.2587177734e+003,4.2570512695e+003,4.2541025391e+003,4.3244873047e+003,4.2900000000e+003,4.3014101563e+003,4.2941025391e+003,4.2539741211e+003,
2.1875000000e-001,4.2114101563e+003,4.2224360352e+003,4.1812822266e+003,4.1983334961e+003,4.2006411133e+003,4.1561538086e+003,4.1800000000e+003,4.1843588867e+003,4.1835898438e+003,4.2475639648e+003,4.2098715820e+003,4.2297436523e+003,4.2156411133e+003,4.1789741211e+003,
2.2656250000e-001,4.0547436523e+003,4.0543588867e+003,4.0335898438e+003,4.0379487305e+003,4.0384614258e+003,4.0038461914e+003,4.0296154785e+003,4.0352563477e+003,4.0441025391e+003,4.0950000000e+003,4.0607692871e+003,4.0860256348e+003,4.0569230957e+003,4.0307692871e+003,
2.3437500000e-001,4.0374357910e+003,4.0333332520e+003,4.0197436523e+003,4.0183332520e+003,4.0234614258e+003,3.9874357910e+003,4.0135898438e+003,4.0184614258e+003,4.0300000000e+003,4.0782050781e+003,4.0461538086e+003,4.0675642090e+003,4.0393588867e+003,4.0133332520e+003,
2.4218750000e-001,4.1205126953e+003,4.1270512695e+003,4.1065385742e+003,4.1074360352e+003,4.1298715820e+003,4.0757692871e+003,4.1037177734e+003,4.1082050781e+003,4.1178203125e+003,4.1624360352e+003,4.1247436523e+003,4.1429487305e+003,4.1298715820e+003,4.0956411133e+003,
2.5000000000e-001,4.1407690430e+003,4.1535898438e+003,4.1255126953e+003,4.1271796875e+003,4.1525639648e+003,4.1010258789e+003,4.1270512695e+003,4.1301284180e+003,4.1406411133e+003,4.1843588867e+003,4.1461538086e+003,4.1625639648e+003,4.1506411133e+003,4.1169228516e+003,
2.5781250000e-001,4.1550000000e+003,4.1737177734e+003,4.1393588867e+003,4.1392309570e+003,4.1629487305e+003,4.1223076172e+003,4.1451284180e+003,4.1458974609e+003,4.1578203125e+003,4.2008974609e+003,4.1646152344e+003,4.1771796875e+003,4.1642309570e+003,4.1325639648e+003,
2.6562500000e-001,4.3105126953e+003,4.3534614258e+003,4.3096152344e+003,4.3114101563e+003,4.3592309570e+003,4.3144873047e+003,4.3234614258e+003,4.3301284180e+003,4.3378203125e+003,4.3843588867e+003,4.3380771484e+003,4.3491025391e+003,4.3303847656e+003,4.3044873047e+003,
2.7343750000e-001,4.2770512695e+003,4.3241025391e+003,4.2819228516e+003,4.2838461914e+003,4.3321796875e+003,4.2871796875e+003,4.2942309570e+003,4.3039741211e+003,4.3135898438e+003,4.3602563477e+003,4.3105126953e+003,4.3232050781e+003,4.3020512695e+003,4.2755126953e+003,
2.8125000000e-001,4.1501284180e+003,4.2048715820e+003,4.1625639648e+003,4.1669228516e+003,4.1974360352e+003,4.1765385742e+003,4.1824360352e+003,4.1738461914e+003,4.1857690430e+003,4.2303847656e+003,4.1869228516e+003,4.1951284180e+003,4.1852563477e+003,4.1510258789e+003,
2.8906250000e-001,4.1551284180e+003,4.2094873047e+003,4.1676923828e+003,4.1719228516e+003,4.2057690430e+003,4.1844873047e+003,4.1898715820e+003,4.1747436523e+003,4.1844873047e+003,4.2324360352e+003,4.1924360352e+003,4.1973076172e+003,4.1900000000e+003,4.1555126953e+003,
2.9687500000e-001,4.1312822266e+003,4.1774360352e+003,4.1483334961e+003,4.1524360352e+003,4.1925639648e+003,4.1574360352e+003,4.1655126953e+003,4.1443588867e+003,4.1534614258e+003,4.2060258789e+003,4.1788461914e+003,4.1821796875e+003,4.1585898438e+003,4.1364101563e+003,
3.0468750000e-001,4.0684614258e+003,4.1047436523e+003,4.0844870605e+003,4.0798718262e+003,4.1070512695e+003,4.0703845215e+003,4.0942307129e+003,4.0706411133e+003,4.0825642090e+003,4.1282050781e+003,4.0953845215e+003,4.1221796875e+003,4.1002563477e+003,4.0746154785e+003,
3.1250000000e-001,4.0855129395e+003,4.1211538086e+003,4.1029487305e+003,4.0919230957e+003,4.1121796875e+003,4.0838461914e+003,4.1091025391e+003,4.0902563477e+003,4.0997436523e+003,4.1458974609e+003,4.1101284180e+003,4.1380771484e+003,4.1205126953e+003,4.0935898438e+003,
3.2031250000e-001,4.1214101563e+003,4.1584614258e+003,4.1416665039e+003,4.1264101563e+003,4.1417949219e+003,4.1117949219e+003,4.1384614258e+003,4.1338461914e+003,4.1443588867e+003,4.1883334961e+003,4.1637177734e+003,4.1815385742e+003,4.1555126953e+003,4.1360258789e+003,
3.2812500000e-001,4.1334614258e+003,4.1738461914e+003,4.1541025391e+003,4.1388461914e+003,4.1634614258e+003,4.1205126953e+003,4.1473076172e+003,4.1498715820e+003,4.1643588867e+003,4.2071796875e+003,4.1874360352e+003,4.1982050781e+003,4.1678203125e+003,4.1500000000e+003,
3.3593750000e-001,4.0730769043e+003,4.1164101563e+003,4.0991025391e+003,4.0724357910e+003,4.1103847656e+003,4.0634614258e+003,4.0856411133e+003,4.0907692871e+003,4.1093588867e+003,4.1591025391e+003,4.1232050781e+003,4.1332050781e+003,4.1151284180e+003,4.0874357910e+003,
3.4375000000e-001,4.0271794434e+003,4.0673076172e+003,4.0546154785e+003,4.0260256348e+003,4.0555129395e+003,4.0232050781e+003,4.0432050781e+003,4.0434614258e+003,4.0614101563e+003,4.1087177734e+003,4.0717949219e+003,4.0846154785e+003,4.0669230957e+003,4.0416667480e+003,
3.5156250000e-001,3.9885898438e+003,4.0267949219e+003,4.0157692871e+003,3.9915385742e+003,4.0153845215e+003,3.9921794434e+003,4.0101281738e+003,4.0056411133e+003,4.0239743652e+003,4.0647436523e+003,4.0338461914e+003,4.0462819824e+003,4.0233332520e+003,4.0046154785e+003,
3.5937500000e-001,3.9728205566e+003,4.0125642090e+003,3.9984614258e+003,3.9844870605e+003,4.0093588867e+003,3.9851281738e+003,4.0008974609e+003,3.9924357910e+003,4.0120512695e+003,4.0458974609e+003,4.0229487305e+003,4.0325642090e+003,4.0030769043e+003,3.9903845215e+003,
3.6718750000e-001,4.1579487305e+003,4.2052563477e+003,4.1817949219e+003,4.1765385742e+003,4.2205126953e+003,4.1885898438e+003,4.1941025391e+003,4.1791025391e+003,4.2033334961e+003,4.2453847656e+003,4.2028203125e+003,4.2047436523e+003,4.2010258789e+003,4.1656411133e+003,
3.7500000000e-001,4.1814101563e+003,4.2257690430e+003,4.2051284180e+003,4.1942309570e+003,4.2391025391e+003,4.2117949219e+003,4.2157690430e+003,4.2030771484e+003,4.2288461914e+003,4.2725639648e+003,4.2307690430e+003,4.2282050781e+003,4.2226923828e+003,4.1896152344e+003,
3.8281250000e-001,4.2317949219e+003,4.2876923828e+003,4.2535898438e+003,4.2579487305e+003,4.3116665039e+003,4.2688461914e+003,4.2691025391e+003,4.2505126953e+003,4.2764101563e+003,4.3128203125e+003,4.2967949219e+003,4.2875639648e+003,4.2624360352e+003,4.2508974609e+003,
3.9062500000e-001,4.6093588867e+003,4.6938461914e+003,4.6347436523e+003,4.6324360352e+003,4.6820512695e+003,4.6448715820e+003,4.6429487305e+003,4.6135898438e+003,4.6265385742e+003,4.6993588867e+003,4.6660258789e+003,4.6646152344e+003,4.6656411133e+003,4.6296152344e+003,
3.9843750000e-001,4.7325639648e+003,4.8242309570e+003,4.7632050781e+003,4.7446152344e+003,4.8078203125e+003,4.7653847656e+003,4.7642309570e+003,4.7375639648e+003,4.7456411133e+003,4.8338461914e+003,4.8016665039e+003,4.7961538086e+003,4.7962822266e+003,4.7570512695e+003,
4.0625000000e-001,4.8517949219e+003,4.9685898438e+003,4.9069228516e+003,4.8710258789e+003,4.9711538086e+003,4.8880771484e+003,4.8834614258e+003,4.8780771484e+003,4.8734614258e+003,4.9865385742e+003,4.9716665039e+003,4.9426923828e+003,4.9362822266e+003,4.8998715820e+003,
4.1406250000e-001,4.7780771484e+003,4.9056411133e+003,4.8511538086e+003,4.7987177734e+003,4.8856411133e+003,4.8143588867e+003,4.8201284180e+003,4.8270512695e+003,4.8215385742e+003,4.9239741211e+003,4.9029487305e+003,4.8875639648e+003,4.8798715820e+003,4.8397436523e+003,
4.2187500000e-001,4.7723076172e+003,4.9021796875e+003,4.8460258789e+003,4.7888461914e+003,4.8752563477e+003,4.8060258789e+003,4.8156411133e+003,4.8284614258e+003,4.8265385742e+003,4.9256411133e+003,4.9055126953e+003,4.8900000000e+003,4.8791025391e+003,4.8385898438e+003,
4.2968750000e-001,4.7329487305e+003,4.8732050781e+003,4.8200000000e+003,4.7687177734e+003,4.8561538086e+003,4.7826923828e+003,4.7869228516e+003,4.8147436523e+003,4.8193588867e+003,4.9088461914e+003,4.8882050781e+003,4.8688461914e+003,4.8601284180e+003,4.8157690430e+003,
4.3750000000e-001,4.7223076172e+003,4.8664101563e+003,4.8143588867e+003,4.7643588867e+003,4.8538461914e+003,4.7815385742e+003,4.7812822266e+003,4.8102563477e+003,4.8138461914e+003,4.9005126953e+003,4.8775639648e+003,4.8579487305e+003,4.8538461914e+003,4.8079487305e+003,
4.4531250000e-001,4.7396152344e+003,4.8946152344e+003,4.8302563477e+003,4.7839741211e+003,4.8894873047e+003,4.8133334961e+003,4.8056411133e+003,4.8339741211e+003,4.8366665039e+003,4.9237177734e+003,4.9017949219e+003,4.8741025391e+003,4.8725639648e+003,4.8285898438e+003,
4.5312500000e-001,4.7466665039e+003,4.9078203125e+003,4.8362822266e+003,4.7933334961e+003,4.9061538086e+003,4.8278203125e+003,4.8173076172e+003,4.8435898438e+003,4.8467949219e+003,4.9356411133e+003,4.9158974609e+003,4.8835898438e+003,4.8802563477e+003,4.8384614258e+003,
4.6093750000e-001,4.7139741211e+003,4.8852563477e+003,4.8160258789e+003,4.7793588867e+003,4.8717949219e+003,4.8198715820e+003,4.8055126953e+003,4.8202563477e+003,4.8235898438e+003,4.9085898438e+003,4.8839741211e+003,4.8546152344e+003,4.8502563477e+003,4.8115385742e+003,
4.6875000000e-001,4.7041025391e+003,4.8760258789e+003,4.8102563477e+003,4.7701284180e+003,4.8584614258e+003,4.8161538086e+003,4.8015385742e+003,4.8130771484e+003,4.8156411133e+003,4.8975639648e+003,4.8697436523e+003,4.8447436523e+003,4.8397436523e+003,4.8016665039e+003,
4.7656250000e-001,4.6901284180e+003,4.8626923828e+003,4.7994873047e+003,4.7535898438e+003,4.8470512695e+003,4.8074360352e+003,4.7924360352e+003,4.8016665039e+003,4.8028203125e+003,4.8828203125e+003,4.8530771484e+003,4.8323076172e+003,4.8262822266e+003,4.7880771484e+003,
4.8437500000e-001,4.6647436523e+003,4.8380771484e+003,4.7765385742e+003,4.7261538086e+003,4.8305126953e+003,4.7862822266e+003,4.7710258789e+003,4.7782050781e+003,4.7780771484e+003,4.8576923828e+003,4.8266665039e+003,4.8083334961e+003,4.8033334961e+003,4.7637177734e+003,
4.9218750000e-001,4.5085898438e+003,4.6789741211e+003,4.6251284180e+003,4.5791025391e+003,4.6951284180e+003,4.6434614258e+003,4.6270512695e+003,4.6211538086e+003,4.6238461914e+003,4.7015385742e+003,4.6702563477e+003,4.6497436523e+003,4.6579487305e+003,4.6134614258e+003,
5.0000000000e-001,4.4884614258e+003,4.6537177734e+003,4.6071796875e+003,4.5528203125e+003,4.6660258789e+003,4.6233334961e+003,4.6089741211e+003,4.5971796875e+003,4.6010258789e+003,4.6766665039e+003,4.6520512695e+003,4.6337177734e+003,4.6317949219e+003,4.5958974609e+003,
5.0781250000e-001,4.5088461914e+003,4.6650000000e+003,4.6251284180e+003,4.5558974609e+003,4.6585898438e+003,4.6242309570e+003,4.6198715820e+003,4.6016665039e+003,4.6064101563e+003,4.6807690430e+003,4.6747436523e+003,4.6608974609e+003,4.6428203125e+003,4.6150000000e+003,
5.1562500000e-001,4.3380771484e+003,4.4765385742e+003,4.4574360352e+003,4.3867949219e+003,4.4732050781e+003,4.4347436523e+003,4.4307690430e+003,4.4270512695e+003,4.4343588867e+003,4.4926923828e+003,4.4812822266e+003,4.4898715820e+003,4.4665385742e+003,4.4408974609e+003,
5.2343750000e-001,4.2565385742e+003,4.3870512695e+003,4.3773076172e+003,4.3019228516e+003,4.3888461914e+003,4.3505126953e+003,4.3491025391e+003,4.3470512695e+003,4.3579487305e+003,4.4071796875e+003,4.3955126953e+003,4.4078203125e+003,4.3793588867e+003,4.3598715820e+003,
5.3125000000e-001,4.1320512695e+003,4.2484614258e+003,4.2448715820e+003,4.1773076172e+003,4.2374360352e+003,4.2152563477e+003,4.2267949219e+003,4.2321796875e+003,4.2437177734e+003,4.2806411133e+003,4.2742309570e+003,4.2750000000e+003,4.2524360352e+003,4.2360258789e+003,
5.3906250000e-001,4.1533334961e+003,4.2648715820e+003,4.2508974609e+003,4.1929487305e+003,4.2656411133e+003,4.2244873047e+003,4.2337177734e+003,4.2498715820e+003,4.2547436523e+003,4.2917949219e+003,4.2821796875e+003,4.2797436523e+003,4.2671796875e+003,4.2492309570e+003,
5.4687500000e-001,4.1646152344e+003,4.2789741211e+003,4.2592309570e+003,4.1997436523e+003,4.2848715820e+003,4.2387177734e+003,4.2458974609e+003,4.2610258789e+003,4.2666665039e+003,4.3015385742e+003,4.2862822266e+003,4.2880771484e+003,4.2780771484e+003,4.2587177734e+003,
5.5468750000e-001,4.1701284180e+003,4.2869228516e+003,4.2643588867e+003,4.2039741211e+003,4.2919228516e+003,4.2498715820e+003,4.2565385742e+003,4.2669228516e+003,4.2742309570e+003,4.3052563477e+003,4.2867949219e+003,4.2928203125e+003,4.2832050781e+003,4.2634614258e+003,
5.6250000000e-001,4.1580771484e+003,4.2733334961e+003,4.2552563477e+003,4.2008974609e+003,4.2746152344e+003,4.2511538086e+003,4.2558974609e+003,4.2552563477e+003,4.2658974609e+003,4.2900000000e+003,4.2753847656e+003,4.2796152344e+003,4.2651284180e+003,4.2485898438e+003,
5.7031250000e-001,4.1238461914e+003,4.2303847656e+003,4.2144873047e+003,4.1820512695e+003,4.2503847656e+003,4.2301284180e+003,4.2274360352e+003,4.2151284180e+003,4.2323076172e+003,4.2555126953e+003,4.2373076172e+003,4.2288461914e+003,4.2247436523e+003,4.2017949219e+003,
5.7812500000e-001,4.1594873047e+003,4.2674360352e+003,4.2439741211e+003,4.2150000000e+003,4.2835898438e+003,4.2662822266e+003,4.2619228516e+003,4.2451284180e+003,4.2660258789e+003,4.2908974609e+003,4.2658974609e+003,4.2579487305e+003,4.2628203125e+003,4.2341025391e+003,
5.8593750000e-001,4.2135898438e+003,4.3250000000e+003,4.2923076172e+003,4.2624360352e+003,4.3330771484e+003,4.3189741211e+003,4.3124360352e+003,4.2938461914e+003,4.3183334961e+003,4.3464101563e+003,4.3144873047e+003,4.3084614258e+003,4.3192309570e+003,4.2862822266e+003,
5.9375000000e-001,4.2276923828e+003,4.3411538086e+003,4.3046152344e+003,4.2660258789e+003,4.3469228516e+003,4.3300000000e+003,4.3200000000e+003,4.3034614258e+003,4.3305126953e+003,4.3646152344e+003,4.3287177734e+003,4.3280771484e+003,4.3298715820e+003,4.3016665039e+003,
6.0156250000e-001,4.1616665039e+003,4.2710258789e+003,4.2425639648e+003,4.2007690430e+003,4.2828203125e+003,4.2635898438e+003,4.2537177734e+003,4.2342309570e+003,4.2596152344e+003,4.2937177734e+003,4.2630771484e+003,4.2647436523e+003,4.2573076172e+003,4.2365385742e+003,
6.0937500000e-001,4.1012822266e+003,4.2044873047e+003,4.1843588867e+003,4.1421796875e+003,4.2192309570e+003,4.2016665039e+003,4.1921796875e+003,4.1648715820e+003,4.1878203125e+003,4.2214101563e+003,4.1974360352e+003,4.2002563477e+003,4.1891025391e+003,4.1742309570e+003,
6.1718750000e-001,4.3674360352e+003,4.4829487305e+003,4.4456411133e+003,4.4080771484e+003,4.4888461914e+003,4.4444873047e+003,4.4382050781e+003,4.4162822266e+003,4.4310258789e+003,4.4897436523e+003,4.4733334961e+003,4.4717949219e+003,4.4616665039e+003,4.4458974609e+003,
6.2500000000e-001,4.2257690430e+003,4.3385898438e+003,4.3142309570e+003,4.2738461914e+003,4.3534614258e+003,4.3014101563e+003,4.3003847656e+003,4.2903847656e+003,4.3020512695e+003,4.3539741211e+003,4.3475639648e+003,4.3455126953e+003,4.3182050781e+003,4.3121796875e+003,
6.3281250000e-001,3.8079487305e+003,3.8848718262e+003,3.9044870605e+003,3.8639743652e+003,3.8907692871e+003,3.8741025391e+003,3.8898718262e+003,3.8816667480e+003,3.8989743652e+003,3.9108974609e+003,3.9103845215e+003,3.9189743652e+003,3.8920512695e+003,3.8962819824e+003,
6.4062500000e-001,3.8121794434e+003,3.8742307129e+003,3.8855129395e+003,3.8625642090e+003,3.8793588867e+003,3.8603845215e+003,3.8821794434e+003,3.8878205566e+003,3.9053845215e+003,3.9112819824e+003,3.8857692871e+003,3.9096154785e+003,3.9007692871e+003,3.8958974609e+003,
6.4843750000e-001,3.7928205566e+003,3.8491025391e+003,3.8619230957e+003,3.8407692871e+003,3.8617949219e+003,3.8414101563e+003,3.8605129395e+003,3.8710256348e+003,3.8855129395e+003,3.8880769043e+003,3.8638461914e+003,3.8888461914e+003,3.8719230957e+003,3.8714101563e+003,
6.5625000000e-001,3.7537180176e+003,3.7960256348e+003,3.8157692871e+003,3.7830769043e+003,3.8073076172e+003,3.8184614258e+003,3.8302563477e+003,3.8187180176e+003,3.8369230957e+003,3.8214101563e+003,3.8080769043e+003,3.8320512695e+003,3.7983332520e+003,3.8114101563e+003,
6.6406250000e-001,3.7775642090e+003,3.8220512695e+003,3.8344870605e+003,3.8042307129e+003,3.8242307129e+003,3.8452563477e+003,3.8567949219e+003,3.8375642090e+003,3.8579487305e+003,3.8425642090e+003,3.8275642090e+003,3.8470512695e+003,3.8229487305e+003,3.8301281738e+003,
6.7187500000e-001,3.8446154785e+003,3.8966667480e+003,3.8924357910e+003,3.8778205566e+003,3.8929487305e+003,3.9134614258e+003,3.9239743652e+003,3.8998718262e+003,3.9182050781e+003,3.9119230957e+003,3.8914101563e+003,3.9039743652e+003,3.8944870605e+003,3.8907692871e+003,
6.7968750000e-001,3.8971794434e+003,3.9496154785e+003,3.9411538086e+003,3.9315385742e+003,3.9561538086e+003,3.9643588867e+003,3.9733332520e+003,3.9471794434e+003,3.9643588867e+003,3.9638461914e+003,3.9424357910e+003,3.9543588867e+003,3.9425642090e+003,3.9405129395e+003,
6.8750000000e-001,4.0770512695e+003,4.1212822266e+003,4.1116665039e+003,4.0965385742e+003,4.1591025391e+003,4.1383334961e+003,4.1380771484e+003,4.1098715820e+003,4.1317949219e+003,4.1442309570e+003,4.1225639648e+003,4.1275639648e+003,4.1092309570e+003,4.1093588867e+003,
6.9531250000e-001,4.0701281738e+003,4.1107690430e+003,4.1053847656e+003,4.0915385742e+003,4.1456411133e+003,4.1335898438e+003,4.1296152344e+003,4.1026923828e+003,4.1258974609e+003,4.1378203125e+003,4.1119228516e+003,4.1197436523e+003,4.1037177734e+003,4.0994873047e+003,
7.0312500000e-001,3.9689743652e+003,4.0032050781e+003,4.0097436523e+003,4.0053845215e+003,4.0323076172e+003,4.0380769043e+003,4.0315385742e+003,4.0025642090e+003,4.0288461914e+003,4.0326923828e+003,3.9946154785e+003,4.0175642090e+003,4.0053845215e+003,3.9953845215e+003,
7.1093750000e-001,3.9220512695e+003,3.9548718262e+003,3.9650000000e+003,3.9634614258e+003,3.9851281738e+003,3.9906411133e+003,3.9858974609e+003,3.9553845215e+003,3.9841025391e+003,3.9841025391e+003,3.9450000000e+003,3.9708974609e+003,3.9570512695e+003,3.9491025391e+003,
7.1875000000e-001,3.8335898438e+003,3.8569230957e+003,3.8750000000e+003,3.8687180176e+003,3.8791025391e+003,3.8801281738e+003,3.8858974609e+003,3.8532050781e+003,3.8826923828e+003,3.8855129395e+003,3.8717949219e+003,3.8885898438e+003,3.8534614258e+003,3.8641025391e+003,
7.2656250000e-001,3.8093588867e+003,3.8269230957e+003,3.8478205566e+003,3.8430769043e+003,3.8457692871e+003,3.8451281738e+003,3.8516667480e+003,3.8185898438e+003,3.8473076172e+003,3.8541025391e+003,3.8432050781e+003,3.8623076172e+003,3.8271794434e+003,3.8382050781e+003,
7.3437500000e-001,3.7908974609e+003,3.8048718262e+003,3.8257692871e+003,3.8251281738e+003,3.8202563477e+003,3.8165385742e+003,3.8230769043e+003,3.7911538086e+003,3.8193588867e+003,3.8300000000e+003,3.8153845215e+003,3.8394870605e+003,3.8094870605e+003,3.8174357910e+003,
7.4218750000e-001,3.7447436523e+003,3.7457692871e+003,3.7716667480e+003,3.7765385742e+003,3.7257692871e+003,3.7297436523e+003,3.7597436523e+003,3.7514101563e+003,3.7753845215e+003,3.7732050781e+003,3.7652563477e+003,3.7943588867e+003,3.7520512695e+003,3.7685898438e+003,
7.5000000000e-001,3.7429487305e+003,3.7398718262e+003,3.7666667480e+003,3.7720512695e+003,3.7355129395e+003,3.7246154785e+003,3.7526923828e+003,3.7488461914e+003,3.7758974609e+003,3.7706411133e+003,3.7611538086e+003,3.7855129395e+003,3.7502563477e+003,3.7623076172e+003,
7.5781250000e-001,3.8329487305e+003,3.8212819824e+003,3.8508974609e+003,3.8523076172e+003,3.8430769043e+003,3.8132050781e+003,3.8297436523e+003,3.8361538086e+003,3.8620512695e+003,3.8607692871e+003,3.8378205566e+003,3.8557692871e+003,3.8392307129e+003,3.8393588867e+003,
7.6562500000e-001,3.7591025391e+003,3.7496154785e+003,3.7687180176e+003,3.8007692871e+003,3.7620512695e+003,3.7648718262e+003,3.7730769043e+003,3.7646154785e+003,3.7900000000e+003,3.7766667480e+003,3.7523076172e+003,3.7826923828e+003,3.7519230957e+003,3.7570512695e+003,
7.7343750000e-001,3.8135898438e+003,3.8100000000e+003,3.8185898438e+003,3.8632050781e+003,3.8255129395e+003,3.8293588867e+003,3.8360256348e+003,3.8106411133e+003,3.8370512695e+003,3.8202563477e+003,3.7974357910e+003,3.8298718262e+003,3.8033332520e+003,3.8051281738e+003,
7.8125000000e-001,4.5869228516e+003,4.6196152344e+003,4.5775639648e+003,4.6292309570e+003,4.6330771484e+003,4.6080771484e+003,4.6029487305e+003,4.5729487305e+003,4.5807690430e+003,4.6200000000e+003,4.5856411133e+003,4.5855126953e+003,4.5937177734e+003,4.5692309570e+003,
7.8906250000e-001,4.8200000000e+003,4.8912822266e+003,4.8358974609e+003,4.8665385742e+003,4.9041025391e+003,4.8608974609e+003,4.8411538086e+003,4.8382050781e+003,4.8446152344e+003,4.9221796875e+003,4.8884614258e+003,4.8612822266e+003,4.8528203125e+003,4.8306411133e+003,
7.9687500000e-001,4.7650000000e+003,4.8480771484e+003,4.7920512695e+003,4.8182050781e+003,4.8498715820e+003,4.8165385742e+003,4.7961538086e+003,4.7891025391e+003,4.7982050781e+003,4.8710258789e+003,4.8389741211e+003,4.8124360352e+003,4.8089741211e+003,4.7814101563e+003,
8.0468750000e-001,4.7469228516e+003,4.8410258789e+003,4.7829487305e+003,4.8070512695e+003,4.8324360352e+003,4.8073076172e+003,4.7878203125e+003,4.7761538086e+003,4.7844873047e+003,4.8550000000e+003,4.8198715820e+003,4.7970512695e+003,4.8043588867e+003,4.7675639648e+003,
8.1250000000e-001,4.8056411133e+003,4.9137177734e+003,4.8543588867e+003,4.8780771484e+003,4.9158974609e+003,4.8743588867e+003,4.8550000000e+003,4.8446152344e+003,4.8465385742e+003,4.9278203125e+003,4.8815385742e+003,4.8682050781e+003,4.8823076172e+003,4.8383334961e+003,
8.2031250000e-001,4.8307690430e+003,4.9475639648e+003,4.8865385742e+003,4.9215385742e+003,4.9611538086e+003,4.8961538086e+003,4.8730771484e+003,4.8660258789e+003,4.8729487305e+003,4.9592309570e+003,4.9334614258e+003,4.9126923828e+003,4.9069228516e+003,4.8765385742e+003,
8.2812500000e-001,4.8194873047e+003,4.9417949219e+003,4.8812822266e+003,4.9152563477e+003,4.9358974609e+003,4.8842309570e+003,4.8630771484e+003,4.8578203125e+003,4.8634614258e+003,4.9493588867e+003,4.9288461914e+003,4.9058974609e+003,4.9015385742e+003,4.8688461914e+003,
8.3593750000e-001,4.7803847656e+003,4.9064101563e+003,4.8524360352e+003,4.8773076172e+003,4.8843588867e+003,4.8450000000e+003,4.8274360352e+003,4.8265385742e+003,4.8279487305e+003,4.9151284180e+003,4.8944873047e+003,4.8729487305e+003,4.8714101563e+003,4.8355126953e+003,
8.4375000000e-001,4.5935898438e+003,4.7139741211e+003,4.6852563477e+003,4.6846152344e+003,4.7019228516e+003,4.6578203125e+003,4.6482050781e+003,4.6562822266e+003,4.6526923828e+003,4.7347436523e+003,4.7125639648e+003,4.6996152344e+003,4.6946152344e+003,4.6608974609e+003,
8.5156250000e-001,4.4873076172e+003,4.6011538086e+003,4.5803847656e+003,4.5769228516e+003,4.6039741211e+003,4.5501284180e+003,4.5446152344e+003,4.5534614258e+003,4.5530771484e+003,4.6234614258e+003,4.6047436523e+003,4.5961538086e+003,4.5850000000e+003,4.5573076172e+003,
8.5937500000e-001,4.4088461914e+003,4.5178203125e+003,4.4985898438e+003,4.5007690430e+003,4.5265385742e+003,4.4702563477e+003,4.4694873047e+003,4.4774360352e+003,4.4814101563e+003,4.5371796875e+003,4.5223076172e+003,4.5185898438e+003,4.5008974609e+003,4.4800000000e+003,
8.6718750000e-001,4.3711538086e+003,4.4720512695e+003,4.4564101563e+003,4.4558974609e+003,4.4702563477e+003,4.4458974609e+003,4.4475639648e+003,4.4608974609e+003,4.4537177734e+003,4.4993588867e+003,4.4796152344e+003,4.4779487305e+003,4.4569228516e+003,4.4453847656e+003,
8.7500000000e-001,4.3493588867e+003,4.4469228516e+003,4.4355126953e+003,4.4347436523e+003,4.4503847656e+003,4.4291025391e+003,4.4275639648e+003,4.4403847656e+003,4.4350000000e+003,4.4758974609e+003,4.4571796875e+003,4.4535898438e+003,4.4374360352e+003,4.4232050781e+003,
8.8281250000e-001,4.2651284180e+003,4.3660258789e+003,4.3556411133e+003,4.3564101563e+003,4.3691025391e+003,4.3657690430e+003,4.3621796875e+003,4.3624360352e+003,4.3660258789e+003,4.3874360352e+003,4.3682050781e+003,4.3642309570e+003,4.3650000000e+003,4.3385898438e+003,
8.9062500000e-001,4.2511538086e+003,4.3538461914e+003,4.3330771484e+003,4.3303847656e+003,4.3817949219e+003,4.3620512695e+003,4.3538461914e+003,4.3432050781e+003,4.3416665039e+003,4.3675639648e+003,4.3516665039e+003,4.3453847656e+003,4.3382050781e+003,4.3185898438e+003,
8.9843750000e-001,4.2623076172e+003,4.3633334961e+003,4.3419228516e+003,4.3434614258e+003,4.3946152344e+003,4.3723076172e+003,4.3633334961e+003,4.3501284180e+003,4.3521796875e+003,4.3750000000e+003,4.3637177734e+003,4.3567949219e+003,4.3447436523e+003,4.3274360352e+003,
9.0625000000e-001,4.2464101563e+003,4.3344873047e+003,4.3317949219e+003,4.3361538086e+003,4.3588461914e+003,4.3630771484e+003,4.3493588867e+003,4.3341025391e+003,4.3453847656e+003,4.3608974609e+003,4.3387177734e+003,4.3494873047e+003,4.3394873047e+003,4.3106411133e+003,
9.1406250000e-001,4.2197436523e+003,4.3047436523e+003,4.3062822266e+003,4.3123076172e+003,4.3258974609e+003,4.3389741211e+003,4.3242309570e+003,4.3075639648e+003,4.3152563477e+003,4.3321796875e+003,4.3060258789e+003,4.3241025391e+003,4.3184614258e+003,4.2847436523e+003,
9.2187500000e-001,4.1770512695e+003,4.2662822266e+003,4.2584614258e+003,4.2724360352e+003,4.2810258789e+003,4.2912822266e+003,4.2793588867e+003,4.2588461914e+003,4.2603847656e+003,4.2821796875e+003,4.2620512695e+003,4.2801284180e+003,4.2785898438e+003,4.2429487305e+003,
9.2968750000e-001,4.1575639648e+003,4.2492309570e+003,4.2369228516e+003,4.2507690430e+003,4.2626923828e+003,4.2662822266e+003,4.2576923828e+003,4.2342309570e+003,4.2366665039e+003,4.2596152344e+003,4.2458974609e+003,4.2614101563e+003,4.2552563477e+003,4.2228203125e+003,
9.3750000000e-001,4.1410258789e+003,4.2308974609e+003,4.2202563477e+003,4.2298715820e+003,4.2461538086e+003,4.2441025391e+003,4.2387177734e+003,4.2115385742e+003,4.2164101563e+003,4.2388461914e+003,4.2294873047e+003,4.2460258789e+003,4.2316665039e+003,4.2039741211e+003,
9.4531250000e-001,4.1379487305e+003,4.2225639648e+003,4.2169228516e+003,4.2220512695e+003,4.2410258789e+003,4.2350000000e+003,4.2315385742e+003,4.2015385742e+003,4.2093588867e+003,4.2294873047e+003,4.2211538086e+003,4.2420512695e+003,4.2207690430e+003,4.1969228516e+003,
9.5312500000e-001,4.1552563477e+003,4.2310258789e+003,4.2314101563e+003,4.2347436523e+003,4.2412822266e+003,4.2260258789e+003,4.2256411133e+003,4.2223076172e+003,4.2276923828e+003,4.2443588867e+003,4.2296152344e+003,4.2570512695e+003,4.2400000000e+003,4.2125639648e+003,
9.6093750000e-001,4.1076923828e+003,4.1793588867e+003,4.1861538086e+003,4.1856411133e+003,4.1908974609e+003,4.1746152344e+003,4.1776923828e+003,4.1800000000e+003,4.1851284180e+003,4.1971796875e+003,4.1843588867e+003,4.2150000000e+003,4.1896152344e+003,4.1679487305e+003,
9.6875000000e-001,3.9919230957e+003,4.0530769043e+003,4.0656411133e+003,4.0643588867e+003,4.0526923828e+003,4.0487180176e+003,4.0612819824e+003,4.0676923828e+003,4.0803845215e+003,4.0732050781e+003,4.0624357910e+003,4.0925642090e+003,4.0603845215e+003,4.0471794434e+003,
9.7656250000e-001,3.8251281738e+003,3.8785898438e+003,3.8926923828e+003,3.9012819824e+003,3.8716667480e+003,3.8905129395e+003,3.8993588867e+003,3.9037180176e+003,3.9112819824e+003,3.9043588867e+003,3.8852563477e+003,3.9139743652e+003,3.8985898438e+003,3.8752563477e+003,
9.8437500000e-001,3.7717949219e+003,3.8188461914e+003,3.8339743652e+003,3.8517949219e+003,3.8247436523e+003,3.8421794434e+003,3.8488461914e+003,3.8487180176e+003,3.8562819824e+003,3.8444870605e+003,3.8223076172e+003,3.8564101563e+003,3.8414101563e+003,3.8184614258e+003,
9.9218750000e-001,3.8864101563e+003,3.9279487305e+003,3.9314101563e+003,3.9633332520e+003,3.9556411133e+003,3.9519230957e+003,3.9621794434e+003,3.9500000000e+003,3.9638461914e+003,3.9397436523e+003,3.9244870605e+003,3.9560256348e+003,3.9297436523e+003,3.9210256348e+003,
1.0000000000e+000,3.9538461914e+003,3.9956411133e+003,3.9975642090e+003,4.0251281738e+003,4.0211538086e+003,4.0150000000e+003,4.0252563477e+003,4.0141025391e+003,4.0274357910e+003,4.0102563477e+003,3.9926923828e+003,4.0192307129e+003,3.9948718262e+003,3.9857692871e+003,
1.0078125000e+000,3.8720512695e+003,3.8991025391e+003,3.9167949219e+003,3.9470512695e+003,3.9087180176e+003,3.9426923828e+003,3.9405129395e+003,3.9285898438e+003,3.9432050781e+003,3.9330769043e+003,3.9023076172e+003,3.9269230957e+003,3.9175642090e+003,3.8966667480e+003,
1.0156250000e+000,3.8034614258e+003,3.8257692871e+003,3.8474357910e+003,3.8787180176e+003,3.8334614258e+003,3.8776923828e+003,3.8737180176e+003,3.8556411133e+003,3.8746154785e+003,3.8550000000e+003,3.8278205566e+003,3.8570512695e+003,3.8446154785e+003,3.8264101563e+003,
1.0234375000e+000,3.7612819824e+003,3.7796154785e+003,3.7994870605e+003,3.8225642090e+003,3.7974357910e+003,3.8267949219e+003,3.8262819824e+003,3.7967949219e+003,3.8219230957e+003,3.7929487305e+003,3.7726923828e+003,3.8123076172e+003,3.7867949219e+003,3.7785898438e+003,
1.0312500000e+000,3.7714101563e+003,3.7873076172e+003,3.8056411133e+003,3.8260256348e+003,3.8141025391e+003,3.8288461914e+003,3.8300000000e+003,3.7985898438e+003,3.8241025391e+003,3.7983332520e+003,3.7760256348e+003,3.8202563477e+003,3.7903845215e+003,3.7852563477e+003,
1.0390625000e+000,3.7194870605e+003,3.7289743652e+003,3.7497436523e+003,3.7762819824e+003,3.7494870605e+003,3.7682050781e+003,3.7680769043e+003,3.7360256348e+003,3.7607692871e+003,3.7364101563e+003,3.7182050781e+003,3.7617949219e+003,3.7323076172e+003,3.7316667480e+003,
1.0468750000e+000,3.7143588867e+003,3.7212819824e+003,3.7423076172e+003,3.7675642090e+003,3.7338461914e+003,3.7593588867e+003,3.7601281738e+003,3.7280769043e+003,3.7514101563e+003,3.7246154785e+003,3.7169230957e+003,3.7533332520e+003,3.7247436523e+003,3.7243588867e+003,
1.0546875000e+000,3.8001281738e+003,3.7934614258e+003,3.8188461914e+003,3.8366667480e+003,3.8069230957e+003,3.8266667480e+003,3.8316667480e+003,3.8064101563e+003,3.8247436523e+003,3.8028205566e+003,3.8025642090e+003,3.8333332520e+003,3.8044870605e+003,3.8017949219e+003,
1.0625000000e+000,3.8437180176e+003,3.8288461914e+003,3.8592307129e+003,3.8750000000e+003,3.8434614258e+003,3.8597436523e+003,3.8674357910e+003,3.8474357910e+003,3.8657692871e+003,3.8489743652e+003,3.8407692871e+003,3.8765385742e+003,3.8465385742e+003,3.8435898438e+003,
1.0703125000e+000,3.8397436523e+003,3.8198718262e+003,3.8547436523e+003,3.8702563477e+003,3.8291025391e+003,3.8487180176e+003,3.8585898438e+003,3.8441025391e+003,3.8653845215e+003,3.8514101563e+003,3.8329487305e+003,3.8743588867e+003,3.8420512695e+003,3.8410256348e+003,
1.0781250000e+000,3.2507692871e+003,3.2138461914e+003,3.2600000000e+003,3.2792307129e+003,3.2312819824e+003,3.2594870605e+003,3.2832050781e+003,3.2742307129e+003,3.3032050781e+003,3.2505129395e+003,3.2347436523e+003,3.2939743652e+003,3.2528205566e+003,3.2598718262e+003,
1.0859375000e+000,3.2408974609e+003,3.1905129395e+003,3.2417949219e+003,3.2617949219e+003,3.2134614258e+003,3.2428205566e+003,3.2688461914e+003,3.2562819824e+003,3.2853845215e+003,3.2270512695e+003,3.2102563477e+003,3.2728205566e+003,3.2334614258e+003,3.2443588867e+003,
1.0937500000e+000,3.2958974609e+003,3.2284614258e+003,3.2755129395e+003,3.3096154785e+003,3.2547436523e+003,3.2853845215e+003,3.3070512695e+003,3.2957692871e+003,3.3311538086e+003,3.2616667480e+003,3.2508974609e+003,3.3008974609e+003,3.2633332520e+003,3.2773076172e+003,
1.1015625000e+000,3.2658974609e+003,3.1966667480e+003,3.2420512695e+003,3.2801281738e+003,3.2253845215e+003,3.2553845215e+003,3.2764101563e+003,3.2619230957e+003,3.2964101563e+003,3.2248718262e+003,3.2123076172e+003,3.2621794434e+003,3.2306411133e+003,3.2388461914e+003,
1.1093750000e+000,3.1962819824e+003,3.1184614258e+003,3.1657692871e+003,3.2047436523e+003,3.1450000000e+003,3.1874357910e+003,3.2096154785e+003,3.1832050781e+003,3.2139743652e+003,3.1402563477e+003,3.1139743652e+003,3.1734614258e+003,3.1515385742e+003,3.1567949219e+003,
1.1171875000e+000,3.1901281738e+003,3.0952563477e+003,3.1344870605e+003,3.1817949219e+003,3.1253845215e+003,3.1750000000e+003,3.1898718262e+003,3.1523076172e+003,3.1901281738e+003,3.1171794434e+003,3.0976923828e+003,3.1529487305e+003,3.1265385742e+003,3.1396154785e+003,
1.1250000000e+000,3.2278205566e+003,3.1285898438e+003,3.1630769043e+003,3.2174357910e+003,3.1656411133e+003,3.2060256348e+003,3.2174357910e+003,3.1779487305e+003,3.2173076172e+003,3.1505129395e+003,3.1316667480e+003,3.1823076172e+003,3.1637180176e+003,3.1707692871e+003,
1.1328125000e+000,3.2367949219e+003,3.1229487305e+003,3.1669230957e+003,3.2202563477e+003,3.1343588867e+003,3.1920512695e+003,3.2046154785e+003,3.1575642090e+003,3.2041025391e+003,3.1453845215e+003,3.1216667480e+003,3.1784614258e+003,3.1476923828e+003,3.1655129395e+003,
1.1406250000e+000,3.2092307129e+003,3.0885898438e+003,3.1407692871e+003,3.1885898438e+003,3.0919230957e+003,3.1570512695e+003,3.1719230957e+003,3.1228205566e+003,3.1717949219e+003,3.1102563477e+003,3.0873076172e+003,3.1488461914e+003,3.1123076172e+003,3.1325642090e+003,
1.1484375000e+000,3.1810256348e+003,3.0476923828e+003,3.1083332520e+003,3.1532050781e+003,3.0625642090e+003,3.1206411133e+003,3.1370512695e+003,3.0844870605e+003,3.1324357910e+003,3.0685898438e+003,3.0467949219e+003,3.1147436523e+003,3.0788461914e+003,3.0944870605e+003,
1.1562500000e+000,3.1719230957e+003,3.0337180176e+003,3.0952563477e+003,3.1394870605e+003,3.0589743652e+003,3.1079487305e+003,3.1256411133e+003,3.0721794434e+003,3.1180769043e+003,3.0546154785e+003,3.0339743652e+003,3.1039743652e+003,3.0651281738e+003,3.0826923828e+003,
1.1640625000e+000,3.1226923828e+003,2.9708974609e+003,3.0361538086e+003,3.0657692871e+003,2.9948718262e+003,3.0270512695e+003,3.0555129395e+003,3.0120512695e+003,3.0635898438e+003,2.9962819824e+003,2.9823076172e+003,3.0543588867e+003,2.9989743652e+003,3.0292307129e+003,
1.1718750000e+000,3.1224357910e+003,2.9662819824e+003,3.0317949219e+003,3.0598718262e+003,2.9858974609e+003,3.0152563477e+003,3.0473076172e+003,3.0101281738e+003,3.0633332520e+003,2.9944870605e+003,2.9787180176e+003,3.0521794434e+003,3.0019230957e+003,3.0279487305e+003,
1.1796875000e+000,3.1626923828e+003,2.9997436523e+003,3.0630769043e+003,3.0941025391e+003,3.0120512695e+003,3.0447436523e+003,3.0805129395e+003,3.0539743652e+003,3.0992307129e+003,3.0293588867e+003,3.0080769043e+003,3.0851281738e+003,3.0476923828e+003,3.0639743652e+003,
1.1875000000e+000,3.1876923828e+003,3.0224357910e+003,3.0856411133e+003,3.1153845215e+003,3.0280769043e+003,3.0687180176e+003,3.1051281738e+003,3.0828205566e+003,3.1211538086e+003,3.0526923828e+003,3.0294870605e+003,3.1061538086e+003,3.0697436523e+003,3.0847436523e+003,
1.1953125000e+000,3.2026923828e+003,3.0356411133e+003,3.1005129395e+003,3.1265385742e+003,3.0348718262e+003,3.0837180176e+003,3.1205129395e+003,3.1023076172e+003,3.1346154785e+003,3.0689743652e+003,3.0435898438e+003,3.1187180176e+003,3.0803845215e+003,3.0953845215e+003,
1.2031250000e+000,3.2182050781e+003,3.0516667480e+003,3.1035898438e+003,3.1508974609e+003,3.0815385742e+003,3.1085898438e+003,3.1366667480e+003,3.1147436523e+003,3.1443588867e+003,3.0870512695e+003,3.0644870605e+003,3.1333332520e+003,3.0906411133e+003,3.1071794434e+003,
1.2109375000e+000,3.2420512695e+003,3.0780769043e+003,3.1224357910e+003,3.1729487305e+003,3.0991025391e+003,3.1365385742e+003,3.1617949219e+003,3.1358974609e+003,3.1675642090e+003,3.1102563477e+003,3.0892307129e+003,3.1525642090e+003,3.1105129395e+003,3.1289743652e+003,
1.2187500000e+000,3.2848718262e+003,3.1241025391e+003,3.1667949219e+003,3.1997436523e+003,3.1461538086e+003,3.1907692871e+003,3.2123076172e+003,3.1752563477e+003,3.2091025391e+003,3.1580769043e+003,3.1280769043e+003,3.1861538086e+003,3.1567949219e+003,3.1643588867e+003,
1.2265625000e+000,3.3053845215e+003,3.1465385742e+003,3.1866667480e+003,3.2167949219e+003,3.1808974609e+003,3.2112819824e+003,3.2317949219e+003,3.1925642090e+003,3.2275642090e+003,3.1800000000e+003,3.1460256348e+003,3.2057692871e+003,3.1780769043e+003,3.1843588867e+003,
1.2343750000e+000,3.3566667480e+003,3.1969230957e+003,3.2366667480e+003,3.2651281738e+003,3.2344870605e+003,3.2585898438e+003,3.2775642090e+003,3.2362819824e+003,3.2747436523e+003,3.2297436523e+003,3.1947436523e+003,3.2597436523e+003,3.2208974609e+003,3.2366667480e+003,
1.2421875000e+000,3.4079487305e+003,3.2452563477e+003,3.2830769043e+003,3.3125642090e+003,3.2702563477e+003,3.2966667480e+003,3.3050000000e+003,3.2655129395e+003,3.3088461914e+003,3.2789743652e+003,3.2451281738e+003,3.3032050781e+003,3.2747436523e+003,3.2764101563e+003,
1.2500000000e+000,3.3873076172e+003,3.2275642090e+003,3.2607692871e+003,3.2965385742e+003,3.2501281738e+003,3.2707692871e+003,3.2782050781e+003,3.2391025391e+003,3.2838461914e+003,3.2620512695e+003,3.2280769043e+003,3.2828205566e+003,3.2539743652e+003,3.2557692871e+003,
1.2578125000e+000,3.3528205566e+003,3.1862819824e+003,3.2338461914e+003,3.2523076172e+003,3.1935898438e+003,3.2248718262e+003,3.2360256348e+003,3.1934614258e+003,3.2423076172e+003,3.2230769043e+003,3.1921794434e+003,3.2567949219e+003,3.2193588867e+003,3.2276923828e+003,
1.2656250000e+000,3.3625642090e+003,3.1924357910e+003,3.2447436523e+003,3.2512819824e+003,3.2052563477e+003,3.2303845215e+003,3.2428205566e+003,3.2017949219e+003,3.2524357910e+003,3.2285898438e+003,3.2000000000e+003,3.2680769043e+003,3.2324357910e+003,3.2364101563e+003,
1.2734375000e+000,3.3975642090e+003,3.2235898438e+003,3.2741025391e+003,3.2758974609e+003,3.2403845215e+003,3.2508974609e+003,3.2691025391e+003,3.2282050781e+003,3.2806411133e+003,3.2535898438e+003,3.2328205566e+003,3.3028205566e+003,3.2647436523e+003,3.2674357910e+003,
1.2812500000e+000,3.4628205566e+003,3.2905129395e+003,3.3339743652e+003,3.3415385742e+003,3.2966667480e+003,3.3071794434e+003,3.3291025391e+003,3.2875642090e+003,3.3387180176e+003,3.3167949219e+003,3.2983332520e+003,3.3664101563e+003,3.3257692871e+003,3.3315385742e+003,
1.2890625000e+000,3.8901281738e+003,3.7402563477e+003,3.7548718262e+003,3.7658974609e+003,3.7289743652e+003,3.7220512695e+003,3.7498718262e+003,3.7255129395e+003,3.7635898438e+003,3.7747436523e+003,3.7437180176e+003,3.7953845215e+003,3.7689743652e+003,3.7589743652e+003,
1.2968750000e+000,4.0275642090e+003,3.8873076172e+003,3.8952563477e+003,3.9021794434e+003,3.8870512695e+003,3.8620512695e+003,3.8915385742e+003,3.8739743652e+003,3.9056411133e+003,3.9230769043e+003,3.8892307129e+003,3.9358974609e+003,3.9155129395e+003,3.8971794434e+003,
1.3046875000e+000,4.2729487305e+003,4.1562822266e+003,4.1462822266e+003,4.1507690430e+003,4.1696152344e+003,4.1238461914e+003,4.1528203125e+003,4.1397436523e+003,4.1553847656e+003,4.1821796875e+003,4.1508974609e+003,4.1867949219e+003,4.1671796875e+003,4.1455126953e+003,
1.3125000000e+000,4.4020512695e+003,4.3021796875e+003,4.2791025391e+003,4.2832050781e+003,4.3102563477e+003,4.2682050781e+003,4.2908974609e+003,4.2800000000e+003,4.2860258789e+003,4.3237177734e+003,4.2914101563e+003,4.3214101563e+003,4.3000000000e+003,4.2779487305e+003,
1.3203125000e+000,4.5226923828e+003,4.4424360352e+003,4.4073076172e+003,4.4076923828e+003,4.4423076172e+003,4.4074360352e+003,4.4201284180e+003,4.4142309570e+003,4.4107690430e+003,4.4639741211e+003,4.4265385742e+003,4.4515385742e+003,4.4297436523e+003,4.4042309570e+003,
1.3281250000e+000,4.6128203125e+003,4.5514101563e+003,4.5092309570e+003,4.5023076172e+003,4.5475639648e+003,4.5160258789e+003,4.5185898438e+003,4.5189741211e+003,4.5089741211e+003,4.5767949219e+003,4.5328203125e+003,4.5535898438e+003,4.5332050781e+003,4.5016665039e+003,
1.3359375000e+000,4.7257690430e+003,4.7141025391e+003,4.6617949219e+003,4.6403847656e+003,4.7303847656e+003,4.6823076172e+003,4.6735898438e+003,4.6738461914e+003,4.6665385742e+003,4.7376923828e+003,4.6950000000e+003,4.6906411133e+003,4.6853847656e+003,4.6396152344e+003,
1.3437500000e+000,5.0596152344e+003,5.1132050781e+003,5.0302563477e+003,4.9953847656e+003,5.1033334961e+003,5.0635898438e+003,5.0415385742e+003,5.0432050781e+003,5.0329487305e+003,5.1361538086e+003,5.0715385742e+003,5.0594873047e+003,5.0712822266e+003,5.0056411133e+003,
1.3515625000e+000,5.0857690430e+003,5.1503847656e+003,5.0662822266e+003,5.0279487305e+003,5.1398715820e+003,5.0952563477e+003,5.0700000000e+003,5.0744873047e+003,5.0653847656e+003,5.1750000000e+003,5.1115385742e+003,5.0933334961e+003,5.1084614258e+003,5.0385898438e+003,
1.3593750000e+000,5.0898715820e+003,5.1717949219e+003,5.0878203125e+003,5.0442309570e+003,5.1687177734e+003,5.1065385742e+003,5.0788461914e+003,5.0829487305e+003,5.0773076172e+003,5.1885898438e+003,5.1398715820e+003,5.1152563477e+003,5.1255126953e+003,5.0591025391e+003,
1.3671875000e+000,5.1501284180e+003,5.2703847656e+003,5.1848715820e+003,5.1275639648e+003,5.2623076172e+003,5.1829487305e+003,5.1529487305e+003,5.1679487305e+003,5.1667949219e+003,5.2861538086e+003,5.2416665039e+003,5.2205126953e+003,5.2191025391e+003,5.1623076172e+003,
1.3750000000e+000,5.1310258789e+003,5.2560258789e+003,5.1748715820e+003,5.1156411133e+003,5.2420512695e+003,5.1633334961e+003,5.1333334961e+003,5.1500000000e+003,5.1496152344e+003,5.2725639648e+003,5.2316665039e+003,5.2051284180e+003,5.2053847656e+003,5.1494873047e+003,
1.3828125000e+000,5.0355126953e+003,5.1747436523e+003,5.1017949219e+003,5.0314101563e+003,5.1517949219e+003,5.0775639648e+003,5.0507690430e+003,5.0667949219e+003,5.0688461914e+003,5.1952563477e+003,5.1602563477e+003,5.1355126953e+003,5.1324360352e+003,5.0773076172e+003,
1.3906250000e+000,4.9960258789e+003,5.1398715820e+003,5.0716665039e+003,4.9946152344e+003,5.1142309570e+003,5.0434614258e+003,5.0226923828e+003,5.0417949219e+003,5.0401284180e+003,5.1626923828e+003,5.1257690430e+003,5.1106411133e+003,5.1021796875e+003,5.0487177734e+003,
1.3984375000e+000,4.9258974609e+003,5.0738461914e+003,5.0147436523e+003,4.9369228516e+003,5.0494873047e+003,4.9791025391e+003,4.9706411133e+003,4.9998715820e+003,4.9860258789e+003,5.0965385742e+003,5.0578203125e+003,5.0541025391e+003,5.0397436523e+003,4.9920512695e+003,
1.4062500000e+000,4.9085898438e+003,5.0553847656e+003,4.9993588867e+003,4.9269228516e+003,5.0367949219e+003,4.9655126953e+003,4.9596152344e+003,4.9921796875e+003,4.9744873047e+003,5.0791025391e+003,5.0420512695e+003,5.0357690430e+003,5.0210258789e+003,4.9760258789e+003,
1.4140625000e+000,4.9161538086e+003,5.0610258789e+003,5.0156411133e+003,4.9430771484e+003,5.0415385742e+003,5.0048715820e+003,4.9974360352e+003,5.0282050781e+003,5.0070512695e+003,5.1056411133e+003,5.0696152344e+003,5.0507690430e+003,5.0274360352e+003,4.9879487305e+003,
1.4218750000e+000,4.9052563477e+003,5.0550000000e+003,5.0094873047e+003,4.9393588867e+003,5.0311538086e+003,5.0069228516e+003,4.9973076172e+003,5.0292309570e+003,5.0070512695e+003,5.1055126953e+003,5.0628203125e+003,5.0434614258e+003,5.0234614258e+003,4.9807690430e+003,
1.4296875000e+000,4.8669228516e+003,5.0312822266e+003,4.9766665039e+003,4.9260258789e+003,5.0235898438e+003,4.9893588867e+003,4.9744873047e+003,5.0038461914e+003,4.9834614258e+003,5.0747436523e+003,5.0293588867e+003,5.0056411133e+003,4.9998715820e+003,4.9487177734e+003,
1.4375000000e+000,4.8875639648e+003,5.0587177734e+003,4.9980771484e+003,4.9532050781e+003,5.0673076172e+003,5.0173076172e+003,5.0008974609e+003,5.0223076172e+003,5.0037177734e+003,5.0901284180e+003,5.0533334961e+003,5.0260258789e+003,5.0220512695e+003,4.9712822266e+003,
1.4453125000e+000,4.9648715820e+003,5.1426923828e+003,5.0748715820e+003,5.0271796875e+003,5.1619228516e+003,5.0991025391e+003,5.0816665039e+003,5.0935898438e+003,5.0750000000e+003,5.1610258789e+003,5.1334614258e+003,5.1029487305e+003,5.0975639648e+003,5.0491025391e+003,
1.4531250000e+000,5.0167949219e+003,5.2230771484e+003,5.1502563477e+003,5.0750000000e+003,5.2194873047e+003,5.1782050781e+003,5.1376923828e+003,5.1678203125e+003,5.1474360352e+003,5.2591025391e+003,5.2053847656e+003,5.1766665039e+003,5.1815385742e+003,5.1270512695e+003,
1.4609375000e+000,4.8171796875e+003,5.0175639648e+003,4.9610258789e+003,4.8817949219e+003,5.0192309570e+003,4.9839741211e+003,4.9434614258e+003,4.9655126953e+003,4.9517949219e+003,5.0488461914e+003,5.0056411133e+003,4.9798715820e+003,4.9807690430e+003,4.9306411133e+003,
1.4687500000e+000,4.5973076172e+003,4.7852563477e+003,4.7408974609e+003,4.6638461914e+003,4.7774360352e+003,4.7512822266e+003,4.7248715820e+003,4.7161538086e+003,4.7129487305e+003,4.7874360352e+003,4.7651284180e+003,4.7583334961e+003,4.7346152344e+003,4.7084614258e+003,
1.4765625000e+000,4.5961538086e+003,4.7820512695e+003,4.7367949219e+003,4.6621796875e+003,4.7651284180e+003,4.7433334961e+003,4.7175639648e+003,4.7114101563e+003,4.7078203125e+003,4.7856411133e+003,4.7630771484e+003,4.7600000000e+003,4.7298715820e+003,4.7117949219e+003,
1.4843750000e+000,4.4617949219e+003,4.6365385742e+003,4.6030771484e+003,4.5219228516e+003,4.6116665039e+003,4.5967949219e+003,4.5698715820e+003,4.5760258789e+003,4.5760258789e+003,4.6501284180e+003,4.6383334961e+003,4.6279487305e+003,4.5985898438e+003,4.5866665039e+003,
1.4921875000e+000,4.3479487305e+003,4.5144873047e+003,4.4905126953e+003,4.4020512695e+003,4.4901284180e+003,4.4766665039e+003,4.4520512695e+003,4.4605126953e+003,4.4647436523e+003,4.5292309570e+003,4.5247436523e+003,4.5111538086e+003,4.4864101563e+003,4.4721796875e+003,
1.5000000000e+000,4.1538461914e+003,4.2914101563e+003,4.2851284180e+003,4.1907690430e+003,4.2817949219e+003,4.2592309570e+003,4.2498715820e+003,4.2558974609e+003,4.2683334961e+003,4.3078203125e+003,4.3017949219e+003,4.3035898438e+003,4.2783334961e+003,4.2652563477e+003,
1.5078125000e+000,4.1273076172e+003,4.2550000000e+003,4.2520512695e+003,4.1646152344e+003,4.2517949219e+003,4.2243588867e+003,4.2187177734e+003,4.2296152344e+003,4.2403847656e+003,4.2778203125e+003,4.2687177734e+003,4.2725639648e+003,4.2433334961e+003,4.2364101563e+003,
1.5156250000e+000,3.9116667480e+003,4.0193588867e+003,4.0280769043e+003,3.9687180176e+003,4.0183332520e+003,4.0001281738e+003,4.0050000000e+003,4.0284614258e+003,4.0302563477e+003,4.0483332520e+003,4.0324357910e+003,4.0420512695e+003,4.0111538086e+003,4.0148718262e+003,
1.5234375000e+000,3.8573076172e+003,3.9625642090e+003,3.9723076172e+003,3.9160256348e+003,3.9588461914e+003,3.9494870605e+003,3.9573076172e+003,3.9769230957e+003,3.9796154785e+003,3.9870512695e+003,3.9692307129e+003,3.9829487305e+003,3.9544870605e+003,3.9575642090e+003,
1.5312500000e+000,3.8821794434e+003,3.9844870605e+003,3.9911538086e+003,3.9329487305e+003,3.9812819824e+003,3.9839743652e+003,3.9916667480e+003,4.0028205566e+003,4.0083332520e+003,4.0070512695e+003,3.9857692871e+003,4.0006411133e+003,3.9735898438e+003,3.9758974609e+003,
1.5390625000e+000,3.9246154785e+003,4.0238461914e+003,4.0292307129e+003,3.9708974609e+003,4.0261538086e+003,4.0284614258e+003,4.0332050781e+003,4.0428205566e+003,4.0470512695e+003,4.0478205566e+003,4.0247436523e+003,4.0388461914e+003,4.0103845215e+003,4.0144870605e+003,
1.5468750000e+000,3.9628205566e+003,4.0578205566e+003,4.0621794434e+003,4.0060256348e+003,4.0662819824e+003,4.0653845215e+003,4.0667949219e+003,4.0750000000e+003,4.0770512695e+003,4.0806411133e+003,4.0579487305e+003,4.0706411133e+003,4.0414101563e+003,4.0479487305e+003,
1.5546875000e+000,4.0628205566e+003,4.1425639648e+003,4.1432050781e+003,4.0955129395e+003,4.1400000000e+003,4.1656411133e+003,4.1532050781e+003,4.1451284180e+003,4.1487177734e+003,4.1608974609e+003,4.1348715820e+003,4.1405126953e+003,4.1261538086e+003,4.1288461914e+003,
1.5625000000e+000,4.0903845215e+003,4.1721796875e+003,4.1685898438e+003,4.1265385742e+003,4.1770512695e+003,4.1948715820e+003,4.1812822266e+003,4.1688461914e+003,4.1732050781e+003,4.1880771484e+003,4.1571796875e+003,4.1664101563e+003,4.1521796875e+003,4.1548715820e+003,
1.5703125000e+000,4.1996152344e+003,4.2934614258e+003,4.2716665039e+003,4.2388461914e+003,4.3112822266e+003,4.3030771484e+003,4.2878203125e+003,4.2707690430e+003,4.2780771484e+003,4.2983334961e+003,4.2807690430e+003,4.2779487305e+003,4.2628203125e+003,4.2633334961e+003,
1.5781250000e+000,4.1760258789e+003,4.2644873047e+003,4.2524360352e+003,4.2039741211e+003,4.2611538086e+003,4.2670512695e+003,4.2506411133e+003,4.2365385742e+003,4.2437177734e+003,4.2757690430e+003,4.2534614258e+003,4.2473076172e+003,4.2446152344e+003,4.2385898438e+003,
1.5859375000e+000,4.1805126953e+003,4.2670512695e+003,4.2543588867e+003,4.2053847656e+003,4.2664101563e+003,4.2648715820e+003,4.2491025391e+003,4.2332050781e+003,4.2423076172e+003,4.2770512695e+003,4.2558974609e+003,4.2480771484e+003,4.2493588867e+003,4.2419228516e+003,
1.5937500000e+000,4.2610258789e+003,4.3489741211e+003,4.3346152344e+003,4.2821796875e+003,4.3571796875e+003,4.3307690430e+003,4.3230771484e+003,4.3060258789e+003,4.3166665039e+003,4.3541025391e+003,4.3483334961e+003,4.3402563477e+003,4.3320512695e+003,4.3308974609e+003,
1.6015625000e+000,4.2726923828e+003,4.3601284180e+003,4.3500000000e+003,4.2952563477e+003,4.3629487305e+003,4.3387177734e+003,4.3333334961e+003,4.3241025391e+003,4.3321796875e+003,4.3696152344e+003,4.3610258789e+003,4.3558974609e+003,4.3471796875e+003,4.3446152344e+003,
1.6093750000e+000,4.2385898438e+003,4.3215385742e+003,4.3184614258e+003,4.2626923828e+003,4.3160258789e+003,4.2993588867e+003,4.2957690430e+003,4.3083334961e+003,4.3103847656e+003,4.3417949219e+003,4.3243588867e+003,4.3253847656e+003,4.3191025391e+003,4.3110258789e+003,
1.6171875000e+000,4.2115385742e+003,4.2926923828e+003,4.2901284180e+003,4.2337177734e+003,4.2843588867e+003,4.2710258789e+003,4.2682050781e+003,4.2862822266e+003,4.2878203125e+003,4.3132050781e+003,4.2970512695e+003,4.3005126953e+003,4.2920512695e+003,4.2839741211e+003,
1.6250000000e+000,4.1769228516e+003,4.2707690430e+003,4.2541025391e+003,4.1970512695e+003,4.2444873047e+003,4.2415385742e+003,4.2355126953e+003,4.2528203125e+003,4.2611538086e+003,4.2806411133e+003,4.2705126953e+003,4.2710258789e+003,4.2639741211e+003,4.2496152344e+003,
1.6328125000e+000,4.1219228516e+003,4.2193588867e+003,4.2020512695e+003,4.1448715820e+003,4.1937177734e+003,4.1921796875e+003,4.1819228516e+003,4.2041025391e+003,4.2125639648e+003,4.2314101563e+003,4.2165385742e+003,4.2185898438e+003,4.2135898438e+003,4.1962822266e+003,
1.6406250000e+000,3.7655129395e+003,3.8338461914e+003,3.8465385742e+003,3.7850000000e+003,3.8512819824e+003,3.8537180176e+003,3.8434614258e+003,3.8628205566e+003,3.8691025391e+003,3.8546154785e+003,3.8334614258e+003,3.8553845215e+003,3.8429487305e+003,3.8343588867e+003,
1.6484375000e+000,3.6992307129e+003,3.7570512695e+003,3.7734614258e+003,3.7182050781e+003,3.7834614258e+003,3.7930769043e+003,3.7860256348e+003,3.7926923828e+003,3.8020512695e+003,3.7765385742e+003,3.7571794434e+003,3.7805129395e+003,3.7676923828e+003,3.7615385742e+003,
1.6562500000e+000,3.6798718262e+003,3.7335898438e+003,3.7470512695e+003,3.7015385742e+003,3.7582050781e+003,3.7793588867e+003,3.7741025391e+003,3.7680769043e+003,3.7812819824e+003,3.7514101563e+003,3.7326923828e+003,3.7550000000e+003,3.7417949219e+003,3.7369230957e+003,
1.6640625000e+000,3.6764101563e+003,3.7302563477e+003,3.7380769043e+003,3.7011538086e+003,3.7466667480e+003,3.7798718262e+003,3.7748718262e+003,3.7602563477e+003,3.7764101563e+003,3.7470512695e+003,3.7274357910e+003,3.7494870605e+003,3.7347436523e+003,3.7308974609e+003,
1.6718750000e+000,3.5441025391e+003,3.5805129395e+003,3.5858974609e+003,3.5583332520e+003,3.6021794434e+003,3.6326923828e+003,3.6262819824e+003,3.6085898438e+003,3.6266667480e+003,3.5892307129e+003,3.5661538086e+003,3.5975642090e+003,3.5941025391e+003,3.5865385742e+003,
1.6796875000e+000,3.5688461914e+003,3.5867949219e+003,3.5975642090e+003,3.5806411133e+003,3.6146154785e+003,3.6435898438e+003,3.6382050781e+003,3.5985898438e+003,3.6244870605e+003,3.5897436523e+003,3.5824357910e+003,3.6128205566e+003,3.5916667480e+003,3.5964101563e+003,
1.6875000000e+000,3.5911538086e+003,3.6065385742e+003,3.6150000000e+003,3.5979487305e+003,3.6311538086e+003,3.6573076172e+003,3.6519230957e+003,3.6112819824e+003,3.6369230957e+003,3.6084614258e+003,3.6044870605e+003,3.6351281738e+003,3.6085898438e+003,3.6161538086e+003,
1.6953125000e+000,3.5970512695e+003,3.5966667480e+003,3.6102563477e+003,3.5893588867e+003,3.5951281738e+003,3.6258974609e+003,3.6270512695e+003,3.5882050781e+003,3.6089743652e+003,3.5939743652e+003,3.5842307129e+003,3.6329487305e+003,3.6046154785e+003,3.6165385742e+003,
1.7031250000e+000,3.6867949219e+003,3.6782050781e+003,3.6866667480e+003,3.6682050781e+003,3.6820512695e+003,3.6962819824e+003,3.6991025391e+003,3.6685898438e+003,3.6885898438e+003,3.6708974609e+003,3.6694870605e+003,3.7083332520e+003,3.6829487305e+003,3.6912819824e+003,
1.7109375000e+000,3.7165385742e+003,3.7080769043e+003,3.7148718262e+003,3.6956411133e+003,3.7180769043e+003,3.7233332520e+003,3.7280769043e+003,3.7060256348e+003,3.7239743652e+003,3.7061538086e+003,3.7079487305e+003,3.7371794434e+003,3.7147436523e+003,3.7200000000e+003,
1.7187500000e+000,3.7307692871e+003,3.7207692871e+003,3.7289743652e+003,3.7097436523e+003,3.7328205566e+003,3.7338461914e+003,3.7430769043e+003,3.7288461914e+003,3.7446154785e+003,3.7269230957e+003,3.7278205566e+003,3.7512819824e+003,3.7326923828e+003,3.7353845215e+003,
1.7265625000e+000,3.7269230957e+003,3.7083332520e+003,3.7242307129e+003,3.7101281738e+003,3.7147436523e+003,3.7216667480e+003,3.7403845215e+003,3.7384614258e+003,3.7514101563e+003,3.7326923828e+003,3.7196154785e+003,3.7458974609e+003,3.7341025391e+003,3.7335898438e+003,
1.7343750000e+000,3.6950000000e+003,3.6723076172e+003,3.6850000000e+003,3.6767949219e+003,3.6702563477e+003,3.6929487305e+003,3.7080769043e+003,3.7164101563e+003,3.7293588867e+003,3.7008974609e+003,3.6835898438e+003,3.7138461914e+003,3.6983332520e+003,3.6975642090e+003,
1.7421875000e+000,3.7023076172e+003,3.6839743652e+003,3.6896154785e+003,3.6833332520e+003,3.6780769043e+003,3.7028205566e+003,3.7151281738e+003,3.7258974609e+003,3.7389743652e+003,3.7085898438e+003,3.6943588867e+003,3.7219230957e+003,3.7039743652e+003,3.7051281738e+003,
1.7500000000e+000,3.7198718262e+003,3.7056411133e+003,3.7046154785e+003,3.7014101563e+003,3.6976923828e+003,3.7219230957e+003,3.7317949219e+003,3.7450000000e+003,3.7580769043e+003,3.7279487305e+003,3.7147436523e+003,3.7393588867e+003,3.7202563477e+003,3.7233332520e+003,
1.7578125000e+000,3.7802563477e+003,3.7694870605e+003,3.7598718262e+003,3.7641025391e+003,3.7717949219e+003,3.7855129395e+003,3.7915385742e+003,3.7991025391e+003,3.8124357910e+003,3.7878205566e+003,3.7735898438e+003,3.7943588867e+003,3.7778205566e+003,3.7800000000e+003,
1.7656250000e+000,3.8469230957e+003,3.8382050781e+003,3.8230769043e+003,3.8285898438e+003,3.8494870605e+003,3.8541025391e+003,3.8580769043e+003,3.8560256348e+003,3.8693588867e+003,3.8500000000e+003,3.8356411133e+003,3.8543588867e+003,3.8419230957e+003,3.8398718262e+003,
1.7734375000e+000,3.9546154785e+003,3.9498718262e+003,3.9270512695e+003,3.9305129395e+003,3.9667949219e+003,3.9629487305e+003,3.9639743652e+003,3.9525642090e+003,3.9655129395e+003,3.9535898438e+003,3.9380769043e+003,3.9532050781e+003,3.9464101563e+003,3.9388461914e+003,
1.7812500000e+000,4.4921796875e+003,4.5179487305e+003,4.4769228516e+003,4.4708974609e+003,4.5088461914e+003,4.5135898438e+003,4.4965385742e+003,4.4906411133e+003,4.5002563477e+003,4.5237177734e+003,4.4941025391e+003,4.4938461914e+003,4.4951284180e+003,4.4752563477e+003,
1.7890625000e+000,4.5101284180e+003,4.5450000000e+003,4.4998715820e+003,4.4991025391e+003,4.5388461914e+003,4.5369228516e+003,4.5179487305e+003,4.5094873047e+003,4.5188461914e+003,4.5532050781e+003,4.5233334961e+003,4.5205126953e+003,4.5206411133e+003,4.5001284180e+003,
1.7968750000e+000,4.3393588867e+003,4.3960258789e+003,4.3546152344e+003,4.3471796875e+003,4.4047436523e+003,4.3896152344e+003,4.3702563477e+003,4.3537177734e+003,4.3537177734e+003,4.4008974609e+003,4.3757690430e+003,4.3841025391e+003,4.3669228516e+003,4.3514101563e+003,
1.8046875000e+000,4.2083334961e+003,4.2576923828e+003,4.2335898438e+003,4.2176923828e+003,4.2575639648e+003,4.2557690430e+003,4.2448715820e+003,4.2276923828e+003,4.2175639648e+003,4.2584614258e+003,4.2525639648e+003,4.2589741211e+003,4.2335898438e+003,4.2255126953e+003,
1.8125000000e+000,4.1869228516e+003,4.2347436523e+003,4.2094873047e+003,4.1966665039e+003,4.2266665039e+003,4.2334614258e+003,4.2246152344e+003,4.2107690430e+003,4.1980771484e+003,4.2394873047e+003,4.2338461914e+003,4.2401284180e+003,4.2141025391e+003,4.2047436523e+003,
1.8203125000e+000,4.0548718262e+003,4.0846154785e+003,4.0789743652e+003,4.0471794434e+003,4.0744870605e+003,4.0857692871e+003,4.0894870605e+003,4.0887180176e+003,4.0714101563e+003,4.1002563477e+003,4.0826923828e+003,4.1098715820e+003,4.0824357910e+003,4.0747436523e+003,
1.8281250000e+000,4.0026923828e+003,4.0207692871e+003,4.0200000000e+003,3.9953845215e+003,4.0069230957e+003,3.9998718262e+003,4.0166667480e+003,4.0321794434e+003,4.0253845215e+003,4.0394870605e+003,4.0274357910e+003,4.0442307129e+003,4.0153845215e+003,4.0188461914e+003,
1.8359375000e+000,3.9955129395e+003,4.0143588867e+003,4.0100000000e+003,3.9917949219e+003,3.9975642090e+003,3.9937180176e+003,4.0093588867e+003,4.0255129395e+003,4.0230769043e+003,4.0324357910e+003,4.0253845215e+003,4.0360256348e+003,4.0061538086e+003,4.0128205566e+003,
1.8437500000e+000,4.2816665039e+003,4.3123076172e+003,4.2916665039e+003,4.2688461914e+003,4.2978203125e+003,4.2964101563e+003,4.2988461914e+003,4.3064101563e+003,4.3061538086e+003,4.3119228516e+003,4.3020512695e+003,4.3176923828e+003,4.2947436523e+003,4.2944873047e+003,
1.8515625000e+000,4.5093588867e+003,4.5505126953e+003,4.5167949219e+003,4.4938461914e+003,4.5415385742e+003,4.5244873047e+003,4.5228203125e+003,4.5300000000e+003,4.5258974609e+003,4.5430771484e+003,4.5274360352e+003,4.5426923828e+003,4.5276923828e+003,4.5180771484e+003,
1.8593750000e+000,4.9560258789e+003,5.0300000000e+003,4.9589741211e+003,4.9428203125e+003,5.0287177734e+003,4.9757690430e+003,4.9629487305e+003,4.9779487305e+003,4.9644873047e+003,5.0216665039e+003,4.9944873047e+003,4.9879487305e+003,4.9993588867e+003,4.9634614258e+003,
1.8671875000e+000,5.0819228516e+003,5.1737177734e+003,5.0878203125e+003,5.0689741211e+003,5.1703847656e+003,5.1112822266e+003,5.0908974609e+003,5.1116665039e+003,5.0939741211e+003,5.1697436523e+003,5.1375639648e+003,5.1184614258e+003,5.1403847656e+003,5.0939741211e+003,
1.8750000000e+000,5.1378203125e+003,5.2607690430e+003,5.1794873047e+003,5.1274360352e+003,5.2452563477e+003,5.2043588867e+003,5.1724360352e+003,5.1866665039e+003,5.1626923828e+003,5.2555126953e+003,5.2283334961e+003,5.2039741211e+003,5.2066665039e+003,5.1671796875e+003,
1.8828125000e+000,5.1741025391e+003,5.3039741211e+003,5.2261538086e+003,5.1733334961e+003,5.2875639648e+003,5.2487177734e+003,5.2173076172e+003,5.2262822266e+003,5.2002563477e+003,5.2943588867e+003,5.2732050781e+003,5.2482050781e+003,5.2425639648e+003,5.2056411133e+003,
1.8906250000e+000,5.2278203125e+003,5.3661538086e+003,5.2873076172e+003,5.2393588867e+003,5.3492309570e+003,5.3094873047e+003,5.2778203125e+003,5.2846152344e+003,5.2547436523e+003,5.3534614258e+003,5.3353847656e+003,5.3075639648e+003,5.3021796875e+003,5.2624360352e+003,
1.8984375000e+000,5.2703847656e+003,5.4175639648e+003,5.3361538086e+003,5.2930771484e+003,5.4000000000e+003,5.3587177734e+003,5.3257690430e+003,5.3326923828e+003,5.2979487305e+003,5.4034614258e+003,5.3851284180e+003,5.3547436523e+003,5.3566665039e+003,5.3108974609e+003,
1.9062500000e+000,5.2514101563e+003,5.4234614258e+003,5.3423076172e+003,5.2912822266e+003,5.4033334961e+003,5.3611538086e+003,5.3225639648e+003,5.3256411133e+003,5.2920512695e+003,5.4087177734e+003,5.3951284180e+003,5.3684614258e+003,5.3716665039e+003,5.3257690430e+003,
1.9140625000e+000,5.2461538086e+003,5.4228203125e+003,5.3428203125e+003,5.2912822266e+003,5.4001284180e+003,5.3611538086e+003,5.3221796875e+003,5.3242309570e+003,5.2925639648e+003,5.4094873047e+003,5.4002563477e+003,5.3735898438e+003,5.3674360352e+003,5.3252563477e+003,
1.9218750000e+000,5.2579487305e+003,5.4502563477e+003,5.3741025391e+003,5.3153847656e+003,5.4097436523e+003,5.3725639648e+003,5.3403847656e+003,5.3542309570e+003,5.3129487305e+003,5.4357690430e+003,5.4342309570e+003,5.4050000000e+003,5.4014101563e+003,5.3561538086e+003,
1.9296875000e+000,5.2508974609e+003,5.4552563477e+003,5.3828203125e+003,5.3137177734e+003,5.4382050781e+003,5.3596152344e+003,5.3403847656e+003,5.3815385742e+003,5.3397436523e+003,5.4529487305e+003,5.4635898438e+003,5.4244873047e+003,5.4196152344e+003,5.3735898438e+003,
1.9375000000e+000,5.2350000000e+003,5.4432050781e+003,5.3730771484e+003,5.3053847656e+003,5.4293588867e+003,5.3489741211e+003,5.3320512695e+003,5.3812822266e+003,5.3410258789e+003,5.4503847656e+003,5.4553847656e+003,5.4201284180e+003,5.4114101563e+003,5.3669228516e+003,
1.9453125000e+000,5.0451284180e+003,5.2630771484e+003,5.2010258789e+003,5.1284614258e+003,5.2353847656e+003,5.1856411133e+003,5.1628203125e+003,5.2373076172e+003,5.2000000000e+003,5.2948715820e+003,5.2721796875e+003,5.2443588867e+003,5.2520512695e+003,5.1978203125e+003,
1.9531250000e+000,4.6301284180e+003,4.8333334961e+003,4.8038461914e+003,4.7294873047e+003,4.8192309570e+003,4.8011538086e+003,4.7835898438e+003,4.8373076172e+003,4.8062822266e+003,4.8605126953e+003,4.8534614258e+003,4.8346152344e+003,4.8207690430e+003,4.7814101563e+003,
1.9609375000e+000,4.5356411133e+003,4.7337177734e+003,4.7091025391e+003,4.6416665039e+003,4.7220512695e+003,4.7170512695e+003,4.7010258789e+003,4.7398715820e+003,4.7144873047e+003,4.7578203125e+003,4.7538461914e+003,4.7388461914e+003,4.7176923828e+003,4.6861538086e+003,
1.9687500000e+000,4.4805126953e+003,4.6756411133e+003,4.6500000000e+003,4.5896152344e+003,4.6638461914e+003,4.6703847656e+003,4.6534614258e+003,4.6807690430e+003,4.6605126953e+003,4.6976923828e+003,4.6923076172e+003,4.6796152344e+003,4.6570512695e+003,4.6310258789e+003,
1.9765625000e+000,4.4352563477e+003,4.6223076172e+003,4.5935898438e+003,4.5385898438e+003,4.6217949219e+003,4.6294873047e+003,4.6100000000e+003,4.6233334961e+003,4.6061538086e+003,4.6388461914e+003,4.6256411133e+003,4.6150000000e+003,4.5993588867e+003,4.5792309570e+003,
1.9843750000e+000,4.4355126953e+003,4.6166665039e+003,4.5891025391e+003,4.5351284180e+003,4.6266665039e+003,4.6267949219e+003,4.6079487305e+003,4.6152563477e+003,4.5966665039e+003,4.6273076172e+003,4.6114101563e+003,4.6024360352e+003,4.5911538086e+003,4.5706411133e+003,
1.9921875000e+000,4.5142309570e+003,4.6883334961e+003,4.6602563477e+003,4.6155126953e+003,4.6944873047e+003,4.6983334961e+003,4.6817949219e+003,4.6794873047e+003,4.6592309570e+003,4.6871796875e+003,4.6712822266e+003,4.6657690430e+003,4.6584614258e+003,4.6326923828e+003,
2.0000000000e+000,4.5752563477e+003,4.7492309570e+003,4.7180771484e+003,4.6791025391e+003,4.7396152344e+003,4.7564101563e+003,4.7394873047e+003,4.7360258789e+003,4.7161538086e+003,4.7457690430e+003,4.7341025391e+003,4.7265385742e+003,4.7175639648e+003,4.6908974609e+003,
2.0078125000e+000,4.5862822266e+003,4.7651284180e+003,4.7223076172e+003,4.6867949219e+003,4.7567949219e+003,4.7685898438e+003,4.7426923828e+003,4.7420512695e+003,4.7220512695e+003,4.7605126953e+003,4.7608974609e+003,4.7415385742e+003,4.7282050781e+003,4.7039741211e+003,
2.0156250000e+000,4.5360258789e+003,4.7157690430e+003,4.6721796875e+003,4.6343588867e+003,4.7269228516e+003,4.7217949219e+003,4.6941025391e+003,4.6912822266e+003,4.6700000000e+003,4.7094873047e+003,4.7050000000e+003,4.6908974609e+003,4.6805126953e+003,4.6537177734e+003,
2.0234375000e+000,4.4924360352e+003,4.6708974609e+003,4.6298715820e+003,4.5883334961e+003,4.6958974609e+003,4.6788461914e+003,4.6519228516e+003,4.6455126953e+003,4.6228203125e+003,4.6623076172e+003,4.6515385742e+003,4.6457690430e+003,4.6388461914e+003,4.6093588867e+003,
2.0312500000e+000,4.5276923828e+003,4.6773076172e+003,4.6578203125e+003,4.6005126953e+003,4.6569228516e+003,4.6557690430e+003,4.6464101563e+003,4.6479487305e+003,4.6219228516e+003,4.6656411133e+003,4.6847436523e+003,4.6669228516e+003,4.6521796875e+003,4.6346152344e+003,
2.0390625000e+000,4.5088461914e+003,4.6533334961e+003,4.6391025391e+003,4.5771796875e+003,4.6342309570e+003,4.6294873047e+003,4.6238461914e+003,4.6315385742e+003,4.6048715820e+003,4.6489741211e+003,4.6692309570e+003,4.6534614258e+003,4.6365385742e+003,4.6207690430e+003,
2.0468750000e+000,4.4585898438e+003,4.5997436523e+003,4.5834614258e+003,4.5108974609e+003,4.5834614258e+003,4.5653847656e+003,4.5612822266e+003,4.5888461914e+003,4.5700000000e+003,4.6007690430e+003,4.6035898438e+003,4.5976923828e+003,4.5901284180e+003,4.5729487305e+003,
2.0546875000e+000,4.5866665039e+003,4.7265385742e+003,4.7038461914e+003,4.6287177734e+003,4.6885898438e+003,4.6792309570e+003,4.6787177734e+003,4.7112822266e+003,4.6988461914e+003,4.7241025391e+003,4.7201284180e+003,4.7167949219e+003,4.7056411133e+003,4.6915385742e+003,
2.0625000000e+000,4.6270512695e+003,4.7662822266e+003,4.7446152344e+003,4.6661538086e+003,4.7326923828e+003,4.7205126953e+003,4.7191025391e+003,4.7538461914e+003,4.7403847656e+003,4.7684614258e+003,4.7689741211e+003,4.7603847656e+003,4.7446152344e+003,4.7350000000e+003,
2.0703125000e+000,4.5894873047e+003,4.7292309570e+003,4.7128203125e+003,4.6308974609e+003,4.7303847656e+003,4.7100000000e+003,4.6975639648e+003,4.7265385742e+003,4.7047436523e+003,4.7329487305e+003,4.7447436523e+003,4.7211538086e+003,4.7037177734e+003,4.7025639648e+003,
2.0781250000e+000,4.5747436523e+003,4.7178203125e+003,4.6976923828e+003,4.6179487305e+003,4.7166665039e+003,4.7051284180e+003,4.6920512695e+003,4.7138461914e+003,4.6898715820e+003,4.7155126953e+003,4.7187177734e+003,4.7021796875e+003,4.6932050781e+003,4.6843588867e+003,
2.0859375000e+000,4.5807690430e+003,4.7325639648e+003,4.6991025391e+003,4.6250000000e+003,4.7188461914e+003,4.7274360352e+003,4.7138461914e+003,4.7273076172e+003,4.7038461914e+003,4.7269228516e+003,4.7102563477e+003,4.7074360352e+003,4.7117949219e+003,4.6866665039e+003,
2.0937500000e+000,4.5735898438e+003,4.7271796875e+003,4.6912822266e+003,4.6176923828e+003,4.7174360352e+003,4.7283334961e+003,4.7125639648e+003,4.7237177734e+003,4.7033334961e+003,4.7257690430e+003,4.7084614258e+003,4.7035898438e+003,4.7061538086e+003,4.6807690430e+003,
2.1015625000e+000,4.5410258789e+003,4.6839741211e+003,4.6626923828e+003,4.5789741211e+003,4.7001284180e+003,4.7048715820e+003,4.6802563477e+003,4.6765385742e+003,4.6624360352e+003,4.6879487305e+003,4.6842309570e+003,4.6610258789e+003,4.6620512695e+003,4.6428203125e+003,
2.1093750000e+000,4.5465385742e+003,4.6848715820e+003,4.6684614258e+003,4.5853847656e+003,4.7003847656e+003,4.7070512695e+003,4.6814101563e+003,4.6747436523e+003,4.6592309570e+003,4.6858974609e+003,4.6843588867e+003,4.6608974609e+003,4.6651284180e+003,4.6451284180e+003,
2.1171875000e+000,4.5214101563e+003,4.6544873047e+003,4.6426923828e+003,4.5675639648e+003,4.6635898438e+003,4.6744873047e+003,4.6525639648e+003,4.6420512695e+003,4.6246152344e+003,4.6470512695e+003,4.6533334961e+003,4.6396152344e+003,4.6330771484e+003,4.6229487305e+003,
2.1250000000e+000,4.4897436523e+003,4.6223076172e+003,4.6105126953e+003,4.5358974609e+003,4.6291025391e+003,4.6387177734e+003,4.6208974609e+003,4.6064101563e+003,4.5907690430e+003,4.6102563477e+003,4.6198715820e+003,4.6124360352e+003,4.5975639648e+003,4.5950000000e+003,
2.1328125000e+000,4.3924360352e+003,4.5225639648e+003,4.5087177734e+003,4.4188461914e+003,4.5173076172e+003,4.5225639648e+003,4.5076923828e+003,4.4924360352e+003,4.4785898438e+003,4.5030771484e+003,4.5035898438e+003,4.5084614258e+003,4.5001284180e+003,4.4967949219e+003,
2.1406250000e+000,4.3383334961e+003,4.4605126953e+003,4.4525639648e+003,4.3610258789e+003,4.4476923828e+003,4.4587177734e+003,4.4435898438e+003,4.4319228516e+003,4.4156411133e+003,4.4384614258e+003,4.4434614258e+003,4.4501284180e+003,4.4400000000e+003,4.4393588867e+003,
2.1484375000e+000,4.2794873047e+003,4.3896152344e+003,4.3914101563e+003,4.3017949219e+003,4.3692309570e+003,4.3867949219e+003,4.3748715820e+003,4.3656411133e+003,4.3478203125e+003,4.3642309570e+003,4.3823076172e+003,4.3873076172e+003,4.3697436523e+003,4.3765385742e+003,
2.1562500000e+000,4.1767949219e+003,4.2671796875e+003,4.2806411133e+003,4.1991025391e+003,4.2488461914e+003,4.2447436523e+003,4.2479487305e+003,4.2691025391e+003,4.2666665039e+003,4.2700000000e+003,4.2641025391e+003,4.2829487305e+003,4.2730771484e+003,4.2744873047e+003,
2.1640625000e+000,4.1024360352e+003,4.1856411133e+003,4.2028203125e+003,4.1221796875e+003,4.1735898438e+003,4.1701284180e+003,4.1697436523e+003,4.1978203125e+003,4.1998715820e+003,4.1950000000e+003,4.1844873047e+003,4.2102563477e+003,4.1902563477e+003,4.2010258789e+003,
2.1718750000e+000,3.8693588867e+003,3.9297436523e+003,3.9578205566e+003,3.8853845215e+003,3.9282050781e+003,3.9387180176e+003,3.9423076172e+003,3.9547436523e+003,3.9678205566e+003,3.9306411133e+003,3.9506411133e+003,3.9541025391e+003,3.9260256348e+003,3.9542307129e+003,
2.1796875000e+000,3.8694870605e+003,3.9285898438e+003,3.9447436523e+003,3.8897436523e+003,3.9210256348e+003,3.9506411133e+003,3.9524357910e+003,3.9548718262e+003,3.9598718262e+003,3.9184614258e+003,3.9246154785e+003,3.9314101563e+003,3.9294870605e+003,3.9373076172e+003,
2.1875000000e+000,3.8401281738e+003,3.8903845215e+003,3.9098718262e+003,3.8605129395e+003,3.8905129395e+003,3.9230769043e+003,3.9210256348e+003,3.9273076172e+003,3.9316667480e+003,3.8848718262e+003,3.8798718262e+003,3.8993588867e+003,3.8906411133e+003,3.9010256348e+003,
2.1953125000e+000,3.7137180176e+003,3.7303845215e+003,3.7715385742e+003,3.7197436523e+003,3.7606411133e+003,3.7946154785e+003,3.7950000000e+003,3.7746154785e+003,3.7896154785e+003,3.7247436523e+003,3.7224357910e+003,3.7556411133e+003,3.7270512695e+003,3.7564101563e+003,
2.2031250000e+000,3.7735898438e+003,3.7894870605e+003,3.8237180176e+003,3.7730769043e+003,3.8142307129e+003,3.8505129395e+003,3.8534614258e+003,3.8217949219e+003,3.8361538086e+003,3.7782050781e+003,3.7860256348e+003,3.8067949219e+003,3.7846154785e+003,3.8124357910e+003,
2.2109375000e+000,3.9780769043e+003,4.0038461914e+003,4.0129487305e+003,3.9750000000e+003,4.0108974609e+003,4.0471794434e+003,4.0485898438e+003,4.0155129395e+003,4.0184614258e+003,3.9853845215e+003,4.0026923828e+003,4.0024357910e+003,3.9935898438e+003,4.0098718262e+003,
2.2187500000e+000,4.0416667480e+003,4.0693588867e+003,4.0724357910e+003,4.0410256348e+003,4.0785898438e+003,4.1096152344e+003,4.1064101563e+003,4.0771794434e+003,4.0753845215e+003,4.0506411133e+003,4.0635898438e+003,4.0646154785e+003,4.0570512695e+003,4.0692307129e+003,
2.2265625000e+000,4.0088461914e+003,4.0203845215e+003,4.0347436523e+003,4.0044870605e+003,4.0521794434e+003,4.0707692871e+003,4.0635898438e+003,4.0288461914e+003,4.0328205566e+003,4.0103845215e+003,4.0014101563e+003,4.0302563477e+003,4.0137180176e+003,4.0323076172e+003,
2.2343750000e+000,3.9912819824e+003,3.9993588867e+003,4.0178205566e+003,3.9821794434e+003,4.0266667480e+003,4.0437180176e+003,4.0430769043e+003,4.0061538086e+003,4.0108974609e+003,3.9888461914e+003,3.9823076172e+003,4.0144870605e+003,3.9939743652e+003,4.0178205566e+003,
2.2421875000e+000,4.0698718262e+003,4.0834614258e+003,4.0982050781e+003,4.0484614258e+003,4.0929487305e+003,4.0976923828e+003,4.1084614258e+003,4.0742307129e+003,4.0741025391e+003,4.0608974609e+003,4.0751281738e+003,4.0912819824e+003,4.0715385742e+003,4.0967949219e+003,
2.2500000000e+000,4.1687177734e+003,4.1876923828e+003,4.1942309570e+003,4.1397436523e+003,4.1898715820e+003,4.1875639648e+003,4.1980771484e+003,4.1673076172e+003,4.1655126953e+003,4.1600000000e+003,4.1834614258e+003,4.1858974609e+003,4.1726923828e+003,4.1926923828e+003,
2.2578125000e+000,4.4423076172e+003,4.4664101563e+003,4.4606411133e+003,4.3988461914e+003,4.4521796875e+003,4.4450000000e+003,4.4489741211e+003,4.4444873047e+003,4.4412822266e+003,4.4570512695e+003,4.4726923828e+003,4.4701284180e+003,4.4625639648e+003,4.4752563477e+003,
2.2656250000e+000,4.4733334961e+003,4.4987177734e+003,4.4966665039e+003,4.4301284180e+003,4.4832050781e+003,4.4701284180e+003,4.4758974609e+003,4.4867949219e+003,4.4806411133e+003,4.4985898438e+003,4.5089741211e+003,4.5128203125e+003,4.4964101563e+003,4.5120512695e+003,
2.2734375000e+000,4.4879487305e+003,4.5170512695e+003,4.5173076172e+003,4.4464101563e+003,4.5020512695e+003,4.4808974609e+003,4.4897436523e+003,4.5139741211e+003,4.5044873047e+003,4.5214101563e+003,4.5303847656e+003,4.5361538086e+003,4.5121796875e+003,4.5288461914e+003,
2.2812500000e+000,4.5047436523e+003,4.5393588867e+003,4.5383334961e+003,4.4656411133e+003,4.5235898438e+003,4.4984614258e+003,4.5093588867e+003,4.5419228516e+003,4.5297436523e+003,4.5435898438e+003,4.5542309570e+003,4.5562822266e+003,4.5308974609e+003,4.5447436523e+003,
2.2890625000e+000,4.6721796875e+003,4.7303847656e+003,4.7051284180e+003,4.6370512695e+003,4.6916665039e+003,4.6941025391e+003,4.6916665039e+003,4.7255126953e+003,4.7137177734e+003,4.7324360352e+003,4.7315385742e+003,4.7150000000e+003,4.7239741211e+003,4.7098715820e+003,
2.2968750000e+000,4.5826923828e+003,4.6532050781e+003,4.6379487305e+003,4.5619228516e+003,4.6706411133e+003,4.6391025391e+003,4.6289741211e+003,4.6612822266e+003,4.6474360352e+003,4.6621796875e+003,4.6546152344e+003,4.6539741211e+003,4.6438461914e+003,4.6366665039e+003,
2.3046875000e+000,4.5212822266e+003,4.5876923828e+003,4.5798715820e+003,4.5079487305e+003,4.6126923828e+003,4.5888461914e+003,4.5766665039e+003,4.6008974609e+003,4.5905126953e+003,4.5979487305e+003,4.5948715820e+003,4.5944873047e+003,4.5792309570e+003,4.5765385742e+003,
2.3125000000e+000,4.4465385742e+003,4.5148715820e+003,4.5073076172e+003,4.4411538086e+003,4.5305126953e+003,4.5317949219e+003,4.5138461914e+003,4.5201284180e+003,4.5170512695e+003,4.5143588867e+003,4.5230771484e+003,4.5152563477e+003,4.5021796875e+003,4.4979487305e+003,
2.3203125000e+000,4.4751284180e+003,4.5489741211e+003,4.5375639648e+003,4.4612822266e+003,4.5632050781e+003,4.5674360352e+003,4.5475639648e+003,4.5370512695e+003,4.5300000000e+003,4.5371796875e+003,4.5417949219e+003,4.5470512695e+003,4.5461538086e+003,4.5329487305e+003,
2.3281250000e+000,4.4844873047e+003,4.5555126953e+003,4.5462822266e+003,4.4726923828e+003,4.5739741211e+003,4.5761538086e+003,4.5591025391e+003,4.5448715820e+003,4.5367949219e+003,4.5466665039e+003,4.5466665039e+003,4.5597436523e+003,4.5561538086e+003,4.5419228516e+003,
2.3359375000e+000,4.4200000000e+003,4.4838461914e+003,4.4787177734e+003,4.4065385742e+003,4.4924360352e+003,4.5047436523e+003,4.4925639648e+003,4.4743588867e+003,4.4634614258e+003,4.4752563477e+003,4.4794873047e+003,4.4980771484e+003,4.4884614258e+003,4.4719228516e+003,
2.3437500000e+000,4.3617949219e+003,4.4211538086e+003,4.4185898438e+003,4.3437177734e+003,4.4191025391e+003,4.4403847656e+003,4.4293588867e+003,4.4117949219e+003,4.3989741211e+003,4.4107690430e+003,4.4223076172e+003,4.4383334961e+003,4.4278203125e+003,4.4115385742e+003,
2.3515625000e+000,4.3947436523e+003,4.4446152344e+003,4.4473076172e+003,4.3715385742e+003,4.4446152344e+003,4.4487177734e+003,4.4475639648e+003,4.4300000000e+003,4.4114101563e+003,4.4294873047e+003,4.4543588867e+003,4.4687177734e+003,4.4480771484e+003,4.4439741211e+003,
2.3593750000e+000,4.4815385742e+003,4.5350000000e+003,4.5325639648e+003,4.4592309570e+003,4.5398715820e+003,4.5260258789e+003,4.5300000000e+003,4.5158974609e+003,4.4965385742e+003,4.5197436523e+003,4.5406411133e+003,4.5569228516e+003,4.5383334961e+003,4.5311538086e+003,
2.3671875000e+000,4.5270512695e+003,4.5905126953e+003,4.5773076172e+003,4.5044873047e+003,4.5714101563e+003,4.5566665039e+003,4.5650000000e+003,4.5789741211e+003,4.5598715820e+003,4.5893588867e+003,4.5964101563e+003,4.6114101563e+003,4.6057690430e+003,4.5823076172e+003,
2.3750000000e+000,4.4310258789e+003,4.4924360352e+003,4.4833334961e+003,4.4093588867e+003,4.4533334961e+003,4.4579487305e+003,4.4664101563e+003,4.4976923828e+003,4.4793588867e+003,4.5037177734e+003,4.5089741211e+003,4.5223076172e+003,4.5150000000e+003,4.4912822266e+003,
2.3828125000e+000,4.1425639648e+003,4.1714101563e+003,4.1976923828e+003,4.1228203125e+003,4.1564101563e+003,4.1697436523e+003,4.1846152344e+003,4.2238461914e+003,4.2155126953e+003,4.1967949219e+003,4.2182050781e+003,4.2305126953e+003,4.1983334961e+003,4.2029487305e+003,
2.3906250000e+000,4.1505126953e+003,4.1735898438e+003,4.2044873047e+003,4.1278203125e+003,4.1838461914e+003,4.1779487305e+003,4.1937177734e+003,4.2310258789e+003,4.2244873047e+003,4.1987177734e+003,4.2182050781e+003,4.2321796875e+003,4.2019228516e+003,4.2073076172e+003,
2.3984375000e+000,4.1616665039e+003,4.1841025391e+003,4.2152563477e+003,4.1379487305e+003,4.2088461914e+003,4.1911538086e+003,4.2053847656e+003,4.2447436523e+003,4.2362822266e+003,4.2091025391e+003,4.2224360352e+003,4.2407690430e+003,4.2158974609e+003,4.2167949219e+003,
2.4062500000e+000,4.1370512695e+003,4.1610258789e+003,4.1903847656e+003,4.1164101563e+003,4.1851284180e+003,4.1714101563e+003,4.1820512695e+003,4.2237177734e+003,4.2115385742e+003,4.1842309570e+003,4.1915385742e+003,4.2158974609e+003,4.1961538086e+003,4.1914101563e+003,
2.4140625000e+000,4.0211538086e+003,4.0448718262e+003,4.0541025391e+003,4.0157692871e+003,4.0507692871e+003,4.0798718262e+003,4.0814101563e+003,4.0855129395e+003,4.0823076172e+003,4.0421794434e+003,4.0488461914e+003,4.0716667480e+003,4.0598718262e+003,4.0537180176e+003,
2.4218750000e+000,4.2429487305e+003,4.2700000000e+003,4.2720512695e+003,4.2179487305e+003,4.2819228516e+003,4.2966665039e+003,4.2938461914e+003,4.2820512695e+003,4.2738461914e+003,4.2538461914e+003,4.2641025391e+003,4.2841025391e+003,4.2653847656e+003,4.2651284180e+003,
2.4296875000e+000,4.2270512695e+003,4.2520512695e+003,4.2564101563e+003,4.2016665039e+003,4.2608974609e+003,4.2817949219e+003,4.2764101563e+003,4.2621796875e+003,4.2564101563e+003,4.2373076172e+003,4.2480771484e+003,4.2679487305e+003,4.2493588867e+003,4.2483334961e+003,
2.4375000000e+000,4.1275639648e+003,4.1456411133e+003,4.1598715820e+003,4.0947436523e+003,4.1580771484e+003,4.1883334961e+003,4.1811538086e+003,4.1548715820e+003,4.1597436523e+003,4.1335898438e+003,4.1479487305e+003,4.1678203125e+003,4.1473076172e+003,4.1492309570e+003,
2.4453125000e+000,4.1193588867e+003,4.1310258789e+003,4.1432050781e+003,4.0807692871e+003,4.1278203125e+003,4.1635898438e+003,4.1638461914e+003,4.1283334961e+003,4.1321796875e+003,4.1073076172e+003,4.1357690430e+003,4.1541025391e+003,4.1283334961e+003,4.1384614258e+003,
2.4531250000e+000,4.1116665039e+003,4.1196152344e+003,4.1366665039e+003,4.0680769043e+003,4.1083334961e+003,4.1485898438e+003,4.1507690430e+003,4.1160258789e+003,4.1187177734e+003,4.0962822266e+003,4.1180771484e+003,4.1439741211e+003,4.1192309570e+003,4.1306411133e+003,
2.4609375000e+000,4.0705129395e+003,4.0721794434e+003,4.0998715820e+003,4.0069230957e+003,4.0653845215e+003,4.0953845215e+003,4.1002563477e+003,4.0755129395e+003,4.0744870605e+003,4.0591025391e+003,4.0682050781e+003,4.1037177734e+003,4.0841025391e+003,4.0946154785e+003,
2.4687500000e+000,4.0523076172e+003,4.0525642090e+003,4.0814101563e+003,3.9835898438e+003,4.0519230957e+003,4.0703845215e+003,4.0775642090e+003,4.0617949219e+003,4.0569230957e+003,4.0439743652e+003,4.0551281738e+003,4.0896154785e+003,4.0698718262e+003,4.0805129395e+003,
2.4765625000e+000,4.0770512695e+003,4.0705129395e+003,4.0908974609e+003,4.0156411133e+003,4.0628205566e+003,4.0660256348e+003,4.0858974609e+003,4.0864101563e+003,4.0794870605e+003,4.0617949219e+003,4.0939743652e+003,4.1125639648e+003,4.0835898438e+003,4.1061538086e+003,
2.4843750000e+000,4.1029487305e+003,4.0934614258e+003,4.1128203125e+003,4.0433332520e+003,4.0855129395e+003,4.0853845215e+003,4.1065385742e+003,4.1116665039e+003,4.1075639648e+003,4.0882050781e+003,4.1211538086e+003,4.1337177734e+003,4.1042309570e+003,4.1292309570e+003,
2.4921875000e+000,4.1220512695e+003,4.1101284180e+003,4.1337177734e+003,4.0710256348e+003,4.1115385742e+003,4.1033334961e+003,4.1221796875e+003,4.1389741211e+003,4.1357690430e+003,4.1165385742e+003,4.1380771484e+003,4.1491025391e+003,4.1244873047e+003,4.1434614258e+003,
2.5000000000e+000,4.1197436523e+003,4.1100000000e+003,4.1329487305e+003,4.0765385742e+003,4.1114101563e+003,4.1024360352e+003,4.1214101563e+003,4.1421796875e+003,4.1373076172e+003,4.1182050781e+003,4.1301284180e+003,4.1458974609e+003,4.1269228516e+003,4.1387177734e+003,
2.5078125000e+000,4.1080771484e+003,4.1079487305e+003,4.1144873047e+003,4.0776923828e+003,4.1006411133e+003,4.0974360352e+003,4.1137177734e+003,4.1384614258e+003,4.1392309570e+003,4.1096152344e+003,4.1121796875e+003,4.1284614258e+003,4.1200000000e+003,4.1260258789e+003,
2.5156250000e+000,4.0806411133e+003,4.0784614258e+003,4.0864101563e+003,4.0489743652e+003,4.0762819824e+003,4.0778205566e+003,4.0888461914e+003,4.1110258789e+003,4.1148715820e+003,4.0797436523e+003,4.0906411133e+003,4.1015385742e+003,4.0878205566e+003,4.1007690430e+003,
2.5234375000e+000,4.0500000000e+003,4.0448718262e+003,4.0562819824e+003,4.0164101563e+003,4.0453845215e+003,4.0564101563e+003,4.0624357910e+003,4.0787180176e+003,4.0838461914e+003,4.0458974609e+003,4.0642307129e+003,4.0712819824e+003,4.0526923828e+003,4.0708974609e+003,
2.5312500000e+000,4.0338461914e+003,4.0278205566e+003,4.0403845215e+003,3.9991025391e+003,4.0242307129e+003,4.0478205566e+003,4.0508974609e+003,4.0598718262e+003,4.0647436523e+003,4.0276923828e+003,4.0467949219e+003,4.0537180176e+003,4.0355129395e+003,4.0525642090e+003,
2.5390625000e+000,4.0011538086e+003,3.9989743652e+003,4.0089743652e+003,3.9824357910e+003,4.0050000000e+003,4.0256411133e+003,4.0279487305e+003,4.0210256348e+003,4.0257692871e+003,3.9941025391e+003,3.9947436523e+003,4.0157692871e+003,4.0035898438e+003,4.0115385742e+003,
2.5468750000e+000,3.9632050781e+003,3.9541025391e+003,3.9710256348e+003,3.9494870605e+003,3.9785898438e+003,3.9896154785e+003,3.9906411133e+003,3.9773076172e+003,3.9839743652e+003,3.9484614258e+003,3.9562819824e+003,3.9765385742e+003,3.9585898438e+003,3.9735898438e+003,
2.5546875000e+000,3.9244870605e+003,3.9116667480e+003,3.9252563477e+003,3.9048718262e+003,3.9307692871e+003,3.9542307129e+003,3.9574357910e+003,3.9223076172e+003,3.9315385742e+003,3.8987180176e+003,3.9106411133e+003,3.9270512695e+003,3.9188461914e+003,3.9303845215e+003,
2.5625000000e+000,3.8834614258e+003,3.8562819824e+003,3.8834614258e+003,3.8521794434e+003,3.8551281738e+003,3.8985898438e+003,3.9056411133e+003,3.8650000000e+003,3.8774357910e+003,3.8446154785e+003,3.8647436523e+003,3.8857692871e+003,3.8714101563e+003,3.8879487305e+003,
2.5703125000e+000,3.8661538086e+003,3.8285898438e+003,3.8612819824e+003,3.8369230957e+003,3.8351281738e+003,3.8724357910e+003,3.8814101563e+003,3.8430769043e+003,3.8553845215e+003,3.8201281738e+003,3.8400000000e+003,3.8646154785e+003,3.8473076172e+003,3.8679487305e+003,
2.5781250000e+000,3.7615385742e+003,3.7164101563e+003,3.7485898438e+003,3.7460256348e+003,3.7330769043e+003,3.7514101563e+003,3.7711538086e+003,3.7457692871e+003,3.7511538086e+003,3.7214101563e+003,3.7284614258e+003,3.7633332520e+003,3.7457692871e+003,3.7693588867e+003,
2.5859375000e+000,3.7148718262e+003,3.6637180176e+003,3.6951281738e+003,3.6892307129e+003,3.6438461914e+003,3.6892307129e+003,3.7082050781e+003,3.7026923828e+003,3.7079487305e+003,3.6716667480e+003,3.6976923828e+003,3.7198718262e+003,3.6938461914e+003,3.7220512695e+003,
2.5937500000e+000,3.7471794434e+003,3.6907692871e+003,3.7230769043e+003,3.7187180176e+003,3.6705129395e+003,3.7128205566e+003,3.7323076172e+003,3.7338461914e+003,3.7400000000e+003,3.7023076172e+003,3.7219230957e+003,3.7452563477e+003,3.7266667480e+003,3.7491025391e+003,
2.6015625000e+000,3.7897436523e+003,3.7273076172e+003,3.7560256348e+003,3.7748718262e+003,3.7375642090e+003,3.7367949219e+003,3.7592307129e+003,3.7787180176e+003,3.7861538086e+003,3.7501281738e+003,3.7394870605e+003,3.7685898438e+003,3.7748718262e+003,3.7823076172e+003,
2.6093750000e+000,3.7703845215e+003,3.7087180176e+003,3.7346154785e+003,3.7548718262e+003,3.7189743652e+003,3.7191025391e+003,3.7403845215e+003,3.7584614258e+003,3.7678205566e+003,3.7283332520e+003,3.7223076172e+003,3.7487180176e+003,3.7500000000e+003,3.7608974609e+003,
2.6171875000e+000,3.7616667480e+003,3.6992307129e+003,3.7237180176e+003,3.7279487305e+003,3.7041025391e+003,3.7198718262e+003,3.7364101563e+003,3.7407692871e+003,3.7550000000e+003,3.7085898438e+003,3.7138461914e+003,3.7371794434e+003,3.7260256348e+003,3.7462819824e+003,
2.6250000000e+000,3.7951281738e+003,3.7314101563e+003,3.7560256348e+003,3.7555129395e+003,3.7388461914e+003,3.7575642090e+003,3.7721794434e+003,3.7683332520e+003,3.7843588867e+003,3.7384614258e+003,3.7412819824e+003,3.7639743652e+003,3.7562819824e+003,3.7769230957e+003,
2.6328125000e+000,4.0576923828e+003,4.0017949219e+003,4.0098718262e+003,4.0388461914e+003,4.0112819824e+003,4.0308974609e+003,4.0393588867e+003,4.0171794434e+003,4.0334614258e+003,4.0025642090e+003,4.0008974609e+003,4.0112819824e+003,4.0167949219e+003,4.0316667480e+003,
2.6406250000e+000,4.1878203125e+003,4.1416665039e+003,4.1374360352e+003,4.1714101563e+003,4.1471796875e+003,4.1650000000e+003,4.1689741211e+003,4.1452563477e+003,4.1593588867e+003,4.1371796875e+003,4.1394873047e+003,4.1443588867e+003,4.1444873047e+003,4.1589741211e+003,
2.6484375000e+000,4.3056411133e+003,4.2711538086e+003,4.2564101563e+003,4.2860258789e+003,4.2761538086e+003,4.2876923828e+003,4.2866665039e+003,4.2648715820e+003,4.2756411133e+003,4.2641025391e+003,4.2669228516e+003,4.2682050781e+003,4.2646152344e+003,4.2760258789e+003,
2.6562500000e+000,4.3757690430e+003,4.3508974609e+003,4.3323076172e+003,4.3517949219e+003,4.3598715820e+003,4.3638461914e+003,4.3596152344e+003,4.3410258789e+003,4.3475639648e+003,4.3460258789e+003,4.3441025391e+003,4.3450000000e+003,4.3432050781e+003,4.3484614258e+003,
2.6640625000e+000,4.2711538086e+003,4.2547436523e+003,4.2493588867e+003,4.2564101563e+003,4.2667949219e+003,4.2806411133e+003,4.2824360352e+003,4.2496152344e+003,4.2448715820e+003,4.2438461914e+003,4.2367949219e+003,4.2532050781e+003,4.2460258789e+003,4.2543588867e+003,
2.6718750000e+000,4.2874360352e+003,4.2748715820e+003,4.2657690430e+003,4.2753847656e+003,4.2834614258e+003,4.2974360352e+003,4.2987177734e+003,4.2635898438e+003,4.2580771484e+003,4.2587177734e+003,4.2600000000e+003,4.2726923828e+003,4.2583334961e+003,4.2700000000e+003,
2.6796875000e+000,4.4566665039e+003,4.4478203125e+003,4.4342309570e+003,4.4483334961e+003,4.4442309570e+003,4.4479487305e+003,4.4615385742e+003,4.4291025391e+003,4.4174360352e+003,4.4382050781e+003,4.4479487305e+003,4.4508974609e+003,4.4444873047e+003,4.4411538086e+003,
2.6875000000e+000,4.7364101563e+003,4.7446152344e+003,4.7211538086e+003,4.7076923828e+003,4.7360258789e+003,4.7137177734e+003,4.7275639648e+003,4.7258974609e+003,4.7093588867e+003,4.7534614258e+003,4.7523076172e+003,4.7411538086e+003,4.7471796875e+003,4.7326923828e+003,
2.6953125000e+000,4.7575639648e+003,4.7705126953e+003,4.7514101563e+003,4.7265385742e+003,4.7683334961e+003,4.7358974609e+003,4.7446152344e+003,4.7589741211e+003,4.7420512695e+003,4.7880771484e+003,4.7843588867e+003,4.7721796875e+003,4.7746152344e+003,4.7612822266e+003,
2.7031250000e+000,4.6157690430e+003,4.6403847656e+003,4.6201284180e+003,4.6058974609e+003,4.6302563477e+003,4.6012822266e+003,4.6080771484e+003,4.6466665039e+003,4.6319228516e+003,4.6633334961e+003,4.6553847656e+003,4.6474360352e+003,4.6460258789e+003,4.6326923828e+003,
2.7109375000e+000,4.3238461914e+003,4.3553847656e+003,4.3439741211e+003,4.3214101563e+003,4.3394873047e+003,4.3324360352e+003,4.3333334961e+003,4.3721796875e+003,4.3629487305e+003,4.3826923828e+003,4.3687177734e+003,4.3644873047e+003,4.3621796875e+003,4.3571796875e+003,
2.7187500000e+000,4.2220512695e+003,4.2475639648e+003,4.2467949219e+003,4.2188461914e+003,4.2364101563e+003,4.2355126953e+003,4.2338461914e+003,4.2684614258e+003,4.2617949219e+003,4.2733334961e+003,4.2624360352e+003,4.2623076172e+003,4.2579487305e+003,4.2573076172e+003,
2.7265625000e+000,4.0303845215e+003,4.0350000000e+003,4.0396154785e+003,4.0293588867e+003,4.0291025391e+003,4.0455129395e+003,4.0446154785e+003,4.0574357910e+003,4.0611538086e+003,4.0441025391e+003,4.0455129395e+003,4.0553845215e+003,4.0394870605e+003,4.0497436523e+003,
2.7343750000e+000,3.9687180176e+003,3.9687180176e+003,3.9764101563e+003,3.9696154785e+003,3.9678205566e+003,3.9853845215e+003,3.9869230957e+003,3.9894870605e+003,3.9975642090e+003,3.9737180176e+003,3.9743588867e+003,3.9876923828e+003,3.9712819824e+003,3.9839743652e+003,
2.7421875000e+000,3.8725642090e+003,3.8646154785e+003,3.8825642090e+003,3.8743588867e+003,3.8684614258e+003,3.8941025391e+003,3.8992307129e+003,3.8794870605e+003,3.8956411133e+003,3.8642307129e+003,3.8606411133e+003,3.8778205566e+003,3.8696154785e+003,3.8808974609e+003,
2.7500000000e+000,3.8701281738e+003,3.8582050781e+003,3.8765385742e+003,3.8710256348e+003,3.8585898438e+003,3.8930769043e+003,3.8979487305e+003,3.8711538086e+003,3.8865385742e+003,3.8558974609e+003,3.8524357910e+003,3.8694870605e+003,3.8624357910e+003,3.8737180176e+003,
2.7578125000e+000,3.9270512695e+003,3.9011538086e+003,3.9161538086e+003,3.9226923828e+003,3.9164101563e+003,3.9517949219e+003,3.9553845215e+003,3.9224357910e+003,3.9253845215e+003,3.8975642090e+003,3.8971794434e+003,3.9182050781e+003,3.8991025391e+003,3.9188461914e+003,
2.7656250000e+000,3.9098718262e+003,3.8791025391e+003,3.8987180176e+003,3.9035898438e+003,3.9039743652e+003,3.9334614258e+003,3.9396154785e+003,3.9030769043e+003,3.9062819824e+003,3.8764101563e+003,3.8726923828e+003,3.8996154785e+003,3.8791025391e+003,3.9002563477e+003,
2.7734375000e+000,3.8819230957e+003,3.8474357910e+003,3.8724357910e+003,3.8743588867e+003,3.8723076172e+003,3.9012819824e+003,3.9115385742e+003,3.8702563477e+003,3.8753845215e+003,3.8450000000e+003,3.8371794434e+003,3.8703845215e+003,3.8497436523e+003,3.8717949219e+003,
2.7812500000e+000,3.8602563477e+003,3.8234614258e+003,3.8525642090e+003,3.8520512695e+003,3.8374357910e+003,3.8717949219e+003,3.8864101563e+003,3.8412819824e+003,3.8478205566e+003,3.8201281738e+003,3.8110256348e+003,3.8480769043e+003,3.8269230957e+003,3.8500000000e+003,
2.7890625000e+000,3.7832050781e+003,3.7294870605e+003,3.7626923828e+003,3.7684614258e+003,3.7329487305e+003,3.7571794434e+003,3.7746154785e+003,3.7397436523e+003,3.7489743652e+003,3.7305129395e+003,3.7461538086e+003,3.7688461914e+003,3.7506411133e+003,3.7711538086e+003,
2.7968750000e+000,3.7392307129e+003,3.6812819824e+003,3.7142307129e+003,3.7188461914e+003,3.6921794434e+003,3.7041025391e+003,3.7241025391e+003,3.6932050781e+003,3.7030769043e+003,3.6800000000e+003,3.6996154785e+003,3.7237180176e+003,3.7048718262e+003,3.7275642090e+003,
2.8046875000e+000,3.7150000000e+003,3.6464101563e+003,3.6848718262e+003,3.6826923828e+003,3.6367949219e+003,3.6528205566e+003,3.6829487305e+003,3.6687180176e+003,3.6765385742e+003,3.6455129395e+003,3.6648718262e+003,3.6952563477e+003,3.6737180176e+003,3.7033332520e+003,
2.8125000000e+000,3.7289743652e+003,3.6474357910e+003,3.6891025391e+003,3.6950000000e+003,3.6417949219e+003,3.6587180176e+003,3.6833332520e+003,3.6941025391e+003,3.7074357910e+003,3.6687180176e+003,3.6706411133e+003,3.6978205566e+003,3.6805129395e+003,3.7024357910e+003,
2.8203125000e+000,3.7153845215e+003,3.6325642090e+003,3.6700000000e+003,3.6753845215e+003,3.6320512695e+003,3.6410256348e+003,3.6639743652e+003,3.6785898438e+003,3.6946154785e+003,3.6526923828e+003,3.6498718262e+003,3.6776923828e+003,3.6623076172e+003,3.6833332520e+003,
2.8281250000e+000,3.6489743652e+003,3.5602563477e+003,3.5957692871e+003,3.6080769043e+003,3.5426923828e+003,3.5708974609e+003,3.5902563477e+003,3.6034614258e+003,3.6210256348e+003,3.5715385742e+003,3.5725642090e+003,3.5953845215e+003,3.5825642090e+003,3.6125642090e+003,
2.8359375000e+000,3.5712819824e+003,3.4719230957e+003,3.5143588867e+003,3.5403845215e+003,3.4716667480e+003,3.5111538086e+003,3.5269230957e+003,3.5107692871e+003,3.5305129395e+003,3.4757692871e+003,3.4712819824e+003,3.5015385742e+003,3.4857692871e+003,3.5191025391e+003,
2.8437500000e+000,3.5751281738e+003,3.4750000000e+003,3.5126923828e+003,3.5367949219e+003,3.4914101563e+003,3.5188461914e+003,3.5316667480e+003,3.5091025391e+003,3.5294870605e+003,3.4792307129e+003,3.4678205566e+003,3.4973076172e+003,3.4871794434e+003,3.5150000000e+003,
2.8515625000e+000,3.5688461914e+003,3.4573076172e+003,3.5014101563e+003,3.5320512695e+003,3.4929487305e+003,3.5200000000e+003,3.5338461914e+003,3.4924357910e+003,3.5176923828e+003,3.4635898438e+003,3.4630769043e+003,3.4891025391e+003,3.4737180176e+003,3.5037180176e+003,
2.8593750000e+000,3.5806411133e+003,3.4667949219e+003,3.5117949219e+003,3.5544870605e+003,3.4925642090e+003,3.5314101563e+003,3.5474357910e+003,3.4993588867e+003,3.5247436523e+003,3.4669230957e+003,3.4730769043e+003,3.4996154785e+003,3.4816667480e+003,3.5144870605e+003,
2.8671875000e+000,3.6316667480e+003,3.5224357910e+003,3.5530769043e+003,3.6134614258e+003,3.5339743652e+003,3.5767949219e+003,3.5957692871e+003,3.5411538086e+003,3.5626923828e+003,3.5124357910e+003,3.5088461914e+003,3.5417949219e+003,3.5319230957e+003,3.5591025391e+003,
2.8750000000e+000,3.6415385742e+003,3.5325642090e+003,3.5588461914e+003,3.6164101563e+003,3.5464101563e+003,3.5819230957e+003,3.6024357910e+003,3.5457692871e+003,3.5653845215e+003,3.5228205566e+003,3.5107692871e+003,3.5480769043e+003,3.5416667480e+003,3.5658974609e+003,
2.8828125000e+000,3.6885898438e+003,3.5662819824e+003,3.6042307129e+003,3.6357692871e+003,3.5870512695e+003,3.6092307129e+003,3.6329487305e+003,3.5708974609e+003,3.5883332520e+003,3.5580769043e+003,3.5630769043e+003,3.5914101563e+003,3.5725642090e+003,3.6061538086e+003,
2.8906250000e+000,3.7512819824e+003,3.6303845215e+003,3.6650000000e+003,3.6967949219e+003,3.6439743652e+003,3.6662819824e+003,3.6903845215e+003,3.6302563477e+003,3.6462819824e+003,3.6196154785e+003,3.6311538086e+003,3.6550000000e+003,3.6353845215e+003,3.6688461914e+003,
2.8984375000e+000,3.8219230957e+003,3.7062819824e+003,3.7319230957e+003,3.7680769043e+003,3.7105129395e+003,3.7317949219e+003,3.7560256348e+003,3.7006411133e+003,3.7150000000e+003,3.6937180176e+003,3.7035898438e+003,3.7271794434e+003,3.7115385742e+003,3.7412819824e+003,
2.9062500000e+000,3.8801281738e+003,3.7706411133e+003,3.7860256348e+003,3.8260256348e+003,3.7671794434e+003,3.7844870605e+003,3.8078205566e+003,3.7602563477e+003,3.7726923828e+003,3.7584614258e+003,3.7616667480e+003,3.7870512695e+003,3.7766667480e+003,3.8019230957e+003,
2.9140625000e+000,3.9334614258e+003,3.8184614258e+003,3.8441025391e+003,3.8757692871e+003,3.7994870605e+003,3.8087180176e+003,3.8275642090e+003,3.8217949219e+003,3.8315385742e+003,3.8244870605e+003,3.8357692871e+003,3.8551281738e+003,3.8282050781e+003,3.8610256348e+003,
2.9218750000e+000,3.9260256348e+003,3.8101281738e+003,3.8398718262e+003,3.8744870605e+003,3.7811538086e+003,3.7992307129e+003,3.8200000000e+003,3.8241025391e+003,3.8353845215e+003,3.8226923828e+003,3.8316667480e+003,3.8535898438e+003,3.8267949219e+003,3.8574357910e+003,
2.9296875000e+000,3.7755129395e+003,3.6734614258e+003,3.6902563477e+003,3.7339743652e+003,3.6620512695e+003,3.6675642090e+003,3.6878205566e+003,3.7110256348e+003,3.7274357910e+003,3.7051281738e+003,3.6875642090e+003,3.7112819824e+003,3.7089743652e+003,3.7184614258e+003,
2.9375000000e+000,3.5892307129e+003,3.4792307129e+003,3.5065385742e+003,3.5342307129e+003,3.5044870605e+003,3.5003845215e+003,3.5206411133e+003,3.5315385742e+003,3.5519230957e+003,3.5078205566e+003,3.4967949219e+003,3.5200000000e+003,3.5093588867e+003,3.5273076172e+003,
2.9453125000e+000,3.5726923828e+003,3.4576923828e+003,3.4878205566e+003,3.5188461914e+003,3.4815385742e+003,3.4880769043e+003,3.5101281738e+003,3.5160256348e+003,3.5394870605e+003,3.4876923828e+003,3.4720512695e+003,3.5023076172e+003,3.4894870605e+003,3.5079487305e+003,
2.9531250000e+000,3.4851281738e+003,3.3543588867e+003,3.3978205566e+003,3.4482050781e+003,3.3803845215e+003,3.4219230957e+003,3.4411538086e+003,3.4344870605e+003,3.4558974609e+003,3.3929487305e+003,3.3716667480e+003,3.4139743652e+003,3.3989743652e+003,3.4202563477e+003,
2.9609375000e+000,3.4988461914e+003,3.3625642090e+003,3.4039743652e+003,3.4403845215e+003,3.3862819824e+003,3.4325642090e+003,3.4530769043e+003,3.4251281738e+003,3.4494870605e+003,3.3862819824e+003,3.3866667480e+003,3.4150000000e+003,3.4016667480e+003,3.4242307129e+003,
2.9687500000e+000,3.4976923828e+003,3.3606411133e+003,3.4028205566e+003,3.4308974609e+003,3.3810256348e+003,3.4280769043e+003,3.4493588867e+003,3.4182050781e+003,3.4430769043e+003,3.3842307129e+003,3.3807692871e+003,3.4148718262e+003,3.4020512695e+003,3.4208974609e+003,
2.9765625000e+000,3.4602563477e+003,3.3208974609e+003,3.3661538086e+003,3.3910256348e+003,3.3375642090e+003,3.3897436523e+003,3.4094870605e+003,3.3764101563e+003,3.3998718262e+003,3.3467949219e+003,3.3358974609e+003,3.3794870605e+003,3.3669230957e+003,3.3820512695e+003,
2.9843750000e+000,3.2975642090e+003,3.1497436523e+003,3.1978205566e+003,3.2389743652e+003,3.1551281738e+003,3.2305129395e+003,3.2451281738e+003,3.2043588867e+003,3.2270512695e+003,3.1766667480e+003,3.1546154785e+003,3.2141025391e+003,3.2024357910e+003,3.2147436523e+003,
2.9921875000e+000,3.2088461914e+003,3.0553845215e+003,3.1025642090e+003,3.1557692871e+003,3.0576923828e+003,3.1419230957e+003,3.1571794434e+003,3.1082050781e+003,3.1342307129e+003,3.0773076172e+003,3.0569230957e+003,3.1206411133e+003,3.1076923828e+003,3.1225642090e+003,
3.0000000000e+000,3.1271794434e+003,2.9580769043e+003,3.0089743652e+003,3.0688461914e+003,2.9758974609e+003,3.0474357910e+003,3.0701281738e+003,3.0025642090e+003,3.0365385742e+003,2.9661538086e+003,2.9642307129e+003,3.0279487305e+003,3.0082050781e+003,3.0324357910e+003,
3.0078125000e+000,3.1603845215e+003,2.9829487305e+003,3.0375642090e+003,3.0935898438e+003,3.0152563477e+003,3.0679487305e+003,3.0934614258e+003,3.0223076172e+003,3.0579487305e+003,2.9887180176e+003,2.9974357910e+003,3.0553845215e+003,3.0352563477e+003,3.0612819824e+003,
3.0156250000e+000,3.3706411133e+003,3.1838461914e+003,3.2339743652e+003,3.2896154785e+003,3.2165385742e+003,3.2367949219e+003,3.2626923828e+003,3.2161538086e+003,3.2455129395e+003,3.2002563477e+003,3.2007692871e+003,3.2564101563e+003,3.2489743652e+003,3.2611538086e+003,
3.0234375000e+000,3.3957692871e+003,3.2069230957e+003,3.2571794434e+003,3.3123076172e+003,3.2274357910e+003,3.2488461914e+003,3.2762819824e+003,3.2425642090e+003,3.2697436523e+003,3.2260256348e+003,3.2165385742e+003,3.2821794434e+003,3.2724357910e+003,3.2830769043e+003,
3.0312500000e+000,3.3874357910e+003,3.1938461914e+003,3.2487180176e+003,3.3011538086e+003,3.2052563477e+003,3.2289743652e+003,3.2583332520e+003,3.2366667480e+003,3.2633332520e+003,3.2153845215e+003,3.2023076172e+003,3.2755129395e+003,3.2571794434e+003,3.2716667480e+003,
3.0390625000e+000,3.1297436523e+003,2.9288461914e+003,2.9884614258e+003,3.0641025391e+003,2.9374357910e+003,2.9824357910e+003,3.0108974609e+003,3.0132050781e+003,3.0438461914e+003,2.9741025391e+003,2.9675642090e+003,3.0237180176e+003,2.9979487305e+003,3.0143588867e+003,
3.0468750000e+000,3.0925642090e+003,2.8933332520e+003,2.9478205566e+003,3.0307692871e+003,2.9038461914e+003,2.9475642090e+003,2.9792307129e+003,2.9794870605e+003,3.0110256348e+003,2.9402563477e+003,2.9179487305e+003,2.9829487305e+003,2.9642307129e+003,2.9756411133e+003,
3.0546875000e+000,3.0126923828e+003,2.7974357910e+003,2.8602563477e+003,2.9667949219e+003,2.8176923828e+003,2.8680769043e+003,2.9014101563e+003,2.8883332520e+003,2.9237180176e+003,2.8379487305e+003,2.8115385742e+003,2.8875642090e+003,2.8607692871e+003,2.8816667480e+003,
3.0625000000e+000,3.0007692871e+003,2.7817949219e+003,2.8461538086e+003,2.9603845215e+003,2.8041025391e+003,2.8601281738e+003,2.8906411133e+003,2.8698718262e+003,2.9070512695e+003,2.8171794434e+003,2.7996154785e+003,2.8683332520e+003,2.8428205566e+003,2.8641025391e+003,
3.0703125000e+000,3.0082050781e+003,2.7901281738e+003,2.8448718262e+003,2.9662819824e+003,2.8128205566e+003,2.8751281738e+003,2.9015385742e+003,2.8700000000e+003,2.9114101563e+003,2.8203845215e+003,2.8026923828e+003,2.8647436523e+003,2.8497436523e+003,2.8637180176e+003,
3.0781250000e+000,2.9456411133e+003,2.7108974609e+003,2.7746154785e+003,2.8779487305e+003,2.7288461914e+003,2.8034614258e+003,2.8311538086e+003,2.7896154785e+003,2.8350000000e+003,2.7494870605e+003,2.7220512695e+003,2.7952563477e+003,2.7620512695e+003,2.7926923828e+003,
3.0859375000e+000,2.9361538086e+003,2.6979487305e+003,2.7642307129e+003,2.8646154785e+003,2.7230769043e+003,2.7912819824e+003,2.8178205566e+003,2.7711538086e+003,2.8162819824e+003,2.7326923828e+003,2.7084614258e+003,2.7792307129e+003,2.7512819824e+003,2.7797436523e+003,
3.0937500000e+000,2.9707692871e+003,2.7338461914e+003,2.7937180176e+003,2.8903845215e+003,2.7724357910e+003,2.8191025391e+003,2.8451281738e+003,2.7906411133e+003,2.8317949219e+003,2.7548718262e+003,2.7355129395e+003,2.8076923828e+003,2.7878205566e+003,2.8091025391e+003,
3.1015625000e+000,2.9997436523e+003,2.7653845215e+003,2.8179487305e+003,2.9142307129e+003,2.8042307129e+003,2.8429487305e+003,2.8700000000e+003,2.8137180176e+003,2.8543588867e+003,2.7810256348e+003,2.7626923828e+003,2.8370512695e+003,2.8151281738e+003,2.8358974609e+003,
3.1093750000e+000,3.0378205566e+003,2.8010256348e+003,2.8487180176e+003,2.9333332520e+003,2.8294870605e+003,2.8685898438e+003,2.8980769043e+003,2.8380769043e+003,2.8846154785e+003,2.8201281738e+003,2.7950000000e+003,2.8716667480e+003,2.8461538086e+003,2.8664101563e+003,
3.1171875000e+000,3.0546154785e+003,2.8139743652e+003,2.8660256348e+003,2.9397436523e+003,2.8393588867e+003,2.8794870605e+003,2.9097436523e+003,2.8503845215e+003,2.8943588867e+003,2.8329487305e+003,2.8073076172e+003,2.8864101563e+003,2.8611538086e+003,2.8808974609e+003,
3.1250000000e+000,3.1452563477e+003,2.9030769043e+003,2.9498718262e+003,3.0135898438e+003,2.9201281738e+003,2.9533332520e+003,2.9852563477e+003,2.9400000000e+003,2.9747436523e+003,2.9184614258e+003,2.8983332520e+003,2.9744870605e+003,2.9498718262e+003,2.9673076172e+003,
3.1328125000e+000,3.1834614258e+003,2.9425642090e+003,2.9839743652e+003,3.0507692871e+003,2.9556411133e+003,2.9858974609e+003,3.0183332520e+003,2.9855129395e+003,3.0189743652e+003,2.9630769043e+003,2.9446154785e+003,3.0141025391e+003,2.9900000000e+003,3.0056411133e+003,
3.1406250000e+000,3.1297436523e+003,2.8848718262e+003,2.9398718262e+003,3.0043588867e+003,2.8960256348e+003,2.9316667480e+003,2.9647436523e+003,2.9494870605e+003,2.9925642090e+003,2.9338461914e+003,2.9060256348e+003,2.9679487305e+003,2.9358974609e+003,2.9591025391e+003,
3.1484375000e+000,3.1251281738e+003,2.8800000000e+003,2.9362819824e+003,2.9982050781e+003,2.8934614258e+003,2.9241025391e+003,2.9556411133e+003,2.9412819824e+003,2.9857692871e+003,2.9278205566e+003,2.8987180176e+003,2.9606411133e+003,2.9261538086e+003,2.9511538086e+003,
3.1562500000e+000,3.1460256348e+003,2.9033332520e+003,2.9530769043e+003,3.0182050781e+003,2.9180769043e+003,2.9406411133e+003,2.9701281738e+003,2.9592307129e+003,3.0026923828e+003,2.9467949219e+003,2.9175642090e+003,2.9774357910e+003,2.9438461914e+003,2.9666667480e+003,
3.1640625000e+000,3.0935898438e+003,2.8510256348e+003,2.8948718262e+003,2.9820512695e+003,2.8521794434e+003,2.8997436523e+003,2.9306411133e+003,2.9167949219e+003,2.9526923828e+003,2.9028205566e+003,2.8579487305e+003,2.9182050781e+003,2.9002563477e+003,2.9100000000e+003,
3.1718750000e+000,3.0798718262e+003,2.8353845215e+003,2.8811538086e+003,2.9619230957e+003,2.8483332520e+003,2.8884614258e+003,2.9171794434e+003,2.8983332520e+003,2.9339743652e+003,2.8820512695e+003,2.8384614258e+003,2.9008974609e+003,2.8787180176e+003,2.8893588867e+003,
3.1796875000e+000,3.0539743652e+003,2.8098718262e+003,2.8506411133e+003,2.9255129395e+003,2.8352563477e+003,2.8676923828e+003,2.8992307129e+003,2.8702563477e+003,2.9120512695e+003,2.8497436523e+003,2.8021794434e+003,2.8742307129e+003,2.8453845215e+003,2.8633332520e+003,
3.1875000000e+000,2.9987180176e+003,2.7438461914e+003,2.7939743652e+003,2.8769230957e+003,2.7582050781e+003,2.8171794434e+003,2.8491025391e+003,2.8110256348e+003,2.8579487305e+003,2.7942307129e+003,2.7569230957e+003,2.8210256348e+003,2.7843588867e+003,2.8120512695e+003,
3.1953125000e+000,2.9725642090e+003,2.7115385742e+003,2.7661538086e+003,2.8484614258e+003,2.7348718262e+003,2.7884614258e+003,2.8183332520e+003,2.7747436523e+003,2.8230769043e+003,2.7587180176e+003,2.7283332520e+003,2.7911538086e+003,2.7524357910e+003,2.7791025391e+003,
3.2031250000e+000,2.9329487305e+003,2.6621794434e+003,2.7189743652e+003,2.7947436523e+003,2.6962819824e+003,2.7333332520e+003,2.7660256348e+003,2.7085898438e+003,2.7588461914e+003,2.6980769043e+003,2.6588461914e+003,2.7366667480e+003,2.7115385742e+003,2.7287180176e+003,
3.2109375000e+000,2.9351281738e+003,2.6634614258e+003,2.7197436523e+003,2.7997436523e+003,2.6916667480e+003,2.7319230957e+003,2.7669230957e+003,2.7075642090e+003,2.7562819824e+003,2.6994870605e+003,2.6539743652e+003,2.7387180176e+003,2.7139743652e+003,2.7319230957e+003,
3.2187500000e+000,2.9630769043e+003,2.6896154785e+003,2.7461538086e+003,2.8393588867e+003,2.7043588867e+003,2.7507692871e+003,2.7893588867e+003,2.7306411133e+003,2.7775642090e+003,2.7265385742e+003,2.6848718262e+003,2.7706411133e+003,2.7373076172e+003,2.7588461914e+003,
3.2265625000e+000,2.9828205566e+003,2.7085898438e+003,2.7648718262e+003,2.8615385742e+003,2.7164101563e+003,2.7638461914e+003,2.8037180176e+003,2.7478205566e+003,2.7948718262e+003,2.7457692871e+003,2.7112819824e+003,2.7925642090e+003,2.7542307129e+003,2.7773076172e+003,
3.2343750000e+000,2.9979487305e+003,2.7178205566e+003,2.7732050781e+003,2.8648718262e+003,2.7220512695e+003,2.7576923828e+003,2.7991025391e+003,2.7556411133e+003,2.8029487305e+003,2.7634614258e+003,2.7302563477e+003,2.8073076172e+003,2.7648718262e+003,2.7903845215e+003,
3.2421875000e+000,2.9897436523e+003,2.7064101563e+003,2.7625642090e+003,2.8516667480e+003,2.7205129395e+003,2.7444870605e+003,2.7851281738e+003,2.7480769043e+003,2.7965385742e+003,2.7596154785e+003,2.7174357910e+003,2.7947436523e+003,2.7580769043e+003,2.7805129395e+003,
3.2500000000e+000,2.9623076172e+003,2.6783332520e+003,2.7360256348e+003,2.8226923828e+003,2.7071794434e+003,2.7157692871e+003,2.7530769043e+003,2.7328205566e+003,2.7838461914e+003,2.7429487305e+003,2.6907692871e+003,2.7653845215e+003,2.7356411133e+003,2.7521794434e+003,
3.2578125000e+000,2.9533332520e+003,2.6723076172e+003,2.7285898438e+003,2.8156411133e+003,2.6962819824e+003,2.7097436523e+003,2.7455129395e+003,2.7308974609e+003,2.7810256348e+003,2.7347436523e+003,2.6865385742e+003,2.7598718262e+003,2.7283332520e+003,2.7429487305e+003,
3.2656250000e+000,3.0000000000e+003,2.7323076172e+003,2.7675642090e+003,2.8570512695e+003,2.7289743652e+003,2.7721794434e+003,2.7993588867e+003,2.7866667480e+003,2.8344870605e+003,2.7830769043e+003,2.7420512695e+003,2.8076923828e+003,2.7820512695e+003,2.7875642090e+003,
3.2734375000e+000,2.9846154785e+003,2.7179487305e+003,2.7507692871e+003,2.8380769043e+003,2.7212819824e+003,2.7639743652e+003,2.7887180176e+003,2.7758974609e+003,2.8244870605e+003,2.7761538086e+003,2.7300000000e+003,2.7930769043e+003,2.7689743652e+003,2.7744870605e+003,
3.2812500000e+000,2.9293588867e+003,2.6591025391e+003,2.6984614258e+003,2.7812819824e+003,2.6776923828e+003,2.7157692871e+003,2.7406411133e+003,2.7264101563e+003,2.7750000000e+003,2.7274357910e+003,2.6775642090e+003,2.7415385742e+003,2.7130769043e+003,2.7223076172e+003,
3.2890625000e+000,2.8582050781e+003,2.5810256348e+003,2.6326923828e+003,2.7110256348e+003,2.6156411133e+003,2.6502563477e+003,2.6775642090e+003,2.6593588867e+003,2.7066667480e+003,2.6560256348e+003,2.6058974609e+003,2.6743588867e+003,2.6380769043e+003,2.6521794434e+003,
3.2968750000e+000,2.8551281738e+003,2.5758974609e+003,2.6235898438e+003,2.7012819824e+003,2.6083332520e+003,2.6534614258e+003,2.6885898438e+003,2.6444870605e+003,2.6943588867e+003,2.6371794434e+003,2.5794870605e+003,2.6569230957e+003,2.6305129395e+003,2.6344870605e+003,
3.3046875000e+000,2.8469230957e+003,2.5702563477e+003,2.6139743652e+003,2.6882050781e+003,2.6005129395e+003,2.6485898438e+003,2.6826923828e+003,2.6329487305e+003,2.6870512695e+003,2.6321794434e+003,2.5726923828e+003,2.6470512695e+003,2.6224357910e+003,2.6275642090e+003,
3.3125000000e+000,2.7882050781e+003,2.5071794434e+003,2.5561538086e+003,2.6302563477e+003,2.5346154785e+003,2.6001281738e+003,2.6283332520e+003,2.5680769043e+003,2.6207692871e+003,2.5697436523e+003,2.5216667480e+003,2.5907692871e+003,2.5584614258e+003,2.5662819824e+003,
3.3203125000e+000,2.8496154785e+003,2.5620512695e+003,2.6153845215e+003,2.6892307129e+003,2.6011538086e+003,2.6438461914e+003,2.6720512695e+003,2.6110256348e+003,2.6617949219e+003,2.6164101563e+003,2.5583332520e+003,2.6482050781e+003,2.6070512695e+003,2.6211538086e+003,
3.3281250000e+000,2.7243588867e+003,2.4279487305e+003,2.4947436523e+003,2.5534614258e+003,2.4625642090e+003,2.5023076172e+003,2.5317949219e+003,2.4642307129e+003,2.5278205566e+003,2.4819230957e+003,2.4421794434e+003,2.5258974609e+003,2.4776923828e+003,2.4935898438e+003,
3.3359375000e+000,2.7087180176e+003,2.4125642090e+003,2.4762819824e+003,2.5332050781e+003,2.4428205566e+003,2.4778205566e+003,2.5107692871e+003,2.4462819824e+003,2.5098718262e+003,2.4648718262e+003,2.4283332520e+003,2.5123076172e+003,2.4648718262e+003,2.4821794434e+003,
3.3437500000e+000,2.6938461914e+003,2.3939743652e+003,2.4506411133e+003,2.5071794434e+003,2.4219230957e+003,2.4456411133e+003,2.4833332520e+003,2.4355129395e+003,2.4994870605e+003,2.4543588867e+003,2.4156411133e+003,2.4980769043e+003,2.4494870605e+003,2.4723076172e+003,
3.3515625000e+000,2.6770512695e+003,2.3717949219e+003,2.4311538086e+003,2.4855129395e+003,2.3961538086e+003,2.4248718262e+003,2.4641025391e+003,2.4265385742e+003,2.4906411133e+003,2.4419230957e+003,2.3987180176e+003,2.4811538086e+003,2.4287180176e+003,2.4534614258e+003,
3.3593750000e+000,2.6264101563e+003,2.3126923828e+003,2.3803845215e+003,2.4198718262e+003,2.3206411133e+003,2.3661538086e+003,2.4132050781e+003,2.3967949219e+003,2.4574357910e+003,2.3955129395e+003,2.3255129395e+003,2.4266667480e+003,2.3730769043e+003,2.3908974609e+003,
3.3671875000e+000,2.6187180176e+003,2.3067949219e+003,2.3707692871e+003,2.4093588867e+003,2.3198718262e+003,2.3560256348e+003,2.4035898438e+003,2.3907692871e+003,2.4494870605e+003,2.3880769043e+003,2.3108974609e+003,2.4153845215e+003,2.3698718262e+003,2.3828205566e+003,
3.3750000000e+000,2.5912819824e+003,2.2802563477e+003,2.3382050781e+003,2.3843588867e+003,2.3129487305e+003,2.3308974609e+003,2.3752563477e+003,2.3611538086e+003,2.4155129395e+003,2.3565385742e+003,2.2869230957e+003,2.3802563477e+003,2.3447436523e+003,2.3573076172e+003,
3.3828125000e+000,2.5850000000e+003,2.2738461914e+003,2.3279487305e+003,2.3792307129e+003,2.3075642090e+003,2.3289743652e+003,2.3710256348e+003,2.3510256348e+003,2.4038461914e+003,2.3457692871e+003,2.2871794434e+003,2.3694870605e+003,2.3344870605e+003,2.3497436523e+003,
3.3906250000e+000,2.6811538086e+003,2.3767949219e+003,2.4117949219e+003,2.4600000000e+003,2.3785898438e+003,2.4329487305e+003,2.4720512695e+003,2.4294870605e+003,2.4810256348e+003,2.4334614258e+003,2.3732050781e+003,2.4575642090e+003,2.4174357910e+003,2.4343588867e+003,
3.3984375000e+000,2.7223076172e+003,2.4176923828e+003,2.4544870605e+003,2.4969230957e+003,2.4214101563e+003,2.4732050781e+003,2.5121794434e+003,2.4657692871e+003,2.5185898438e+003,2.4712819824e+003,2.4038461914e+003,2.5002563477e+003,2.4535898438e+003,2.4737180176e+003,
3.4062500000e+000,2.7519230957e+003,2.4443588867e+003,2.4875642090e+003,2.5276923828e+003,2.4617949219e+003,2.5021794434e+003,2.5401281738e+003,2.4932050781e+003,2.5482050781e+003,2.4979487305e+003,2.4280769043e+003,2.5306411133e+003,2.4791025391e+003,2.5030769043e+003,
3.4140625000e+000,2.7682050781e+003,2.4570512695e+003,2.5064101563e+003,2.5502563477e+003,2.4934614258e+003,2.5202563477e+003,2.5558974609e+003,2.5107692871e+003,2.5683332520e+003,2.5150000000e+003,2.4460256348e+003,2.5446154785e+003,2.4948718262e+003,2.5194870605e+003,
3.4218750000e+000,2.7194870605e+003,2.4180769043e+003,2.4562819824e+003,2.5120512695e+003,2.4582050781e+003,2.4970512695e+003,2.5278205566e+003,2.4734614258e+003,2.5366667480e+003,2.4964101563e+003,2.4202563477e+003,2.4911538086e+003,2.4611538086e+003,2.4724357910e+003,
3.4296875000e+000,2.7935898438e+003,2.4937180176e+003,2.5270512695e+003,2.5716667480e+003,2.5139743652e+003,2.5537180176e+003,2.5825642090e+003,2.5212819824e+003,2.5879487305e+003,2.5560256348e+003,2.4820512695e+003,2.5711538086e+003,2.5275642090e+003,2.5456411133e+003,
