Time (s),AF3,F7,F3,FC5,T7,P7,O1,O2,P8,T8,FC6,F4,F8,AF4,Sampling Rate
0.0000000000e+000,4.0828205566e+003,4.1753847656e+003,4.1337177734e+003,4.1583334961e+003,4.1803847656e+003,4.1443588867e+003,4.1292309570e+003,4.1337177734e+003,4.1479487305e+003,4.1994873047e+003,4.1629487305e+003,4.1608974609e+003,4.1501284180e+003,4.1351284180e+003,128
7.8125000000e-003,4.0811538086e+003,4.1757690430e+003,4.1315385742e+003,4.1573076172e+003,4.1769228516e+003,4.1434614258e+003,4.1302563477e+003,4.1326923828e+003,4.1444873047e+003,4.2002563477e+003,4.1703847656e+003,4.1644873047e+003,4.1516665039e+003,4.1365385742e+003,
1.5625000000e-002,4.0532050781e+003,4.1407690430e+003,4.1011538086e+003,4.1161538086e+003,4.1652563477e+003,4.1078203125e+003,4.0987177734e+003,4.0896154785e+003,4.1094873047e+003,4.1556411133e+003,4.1283334961e+003,4.1330771484e+003,4.1098715820e+003,4.1029487305e+003,
2.3437500000e-002,4.0760256348e+003,4.1594873047e+003,4.1214101563e+003,4.1432050781e+003,4.1819228516e+003,4.1267949219e+003,4.1182050781e+003,4.1050000000e+003,4.1305126953e+003,4.1753847656e+003,4.1475639648e+003,4.1542309570e+003,4.1305126953e+003,4.1241025391e+003,
3.1250000000e-002,4.0884614258e+003,4.1589741211e+003,4.1362822266e+003,4.1675639648e+003,4.1753847656e+003,4.1380771484e+003,4.1301284180e+003,4.1084614258e+003,4.1382050781e+003,4.1820512695e+003,4.1608974609e+003,4.1623076172e+003,4.1260258789e+003,4.1335898438e+003,
3.9062500000e-002,4.0808974609e+003,4.1680771484e+003,4.1274360352e+003,4.1770512695e+003,4.1766665039e+003,4.1443588867e+003,4.1332050781e+003,4.1051284180e+003,4.1460258789e+003,4.1891025391e+003,4.1585898438e+003,4.1582050781e+003,4.1337177734e+003,4.1261538086e+003,
4.6875000000e-002,4.0656411133e+003,4.1466665039e+003,4.1147436523e+003,4.1628203125e+003,4.1584614258e+003,4.1311538086e+003,4.1197436523e+003,4.0938461914e+003,4.1355126953e+003,4.1761538086e+003,4.1407690430e+003,4.1434614258e+003,4.1244873047e+003,4.1112822266e+003,
5.4687500000e-002,4.0017949219e+003,4.0660256348e+003,4.0574357910e+003,4.0789743652e+003,4.0885898438e+003,4.0557692871e+003,4.0503845215e+003,4.0289743652e+003,4.0696154785e+003,4.1067949219e+003,4.0743588867e+003,4.0739743652e+003,4.0534614258e+003,4.0456411133e+003,
6.2500000000e-002,4.1493588867e+003,4.2203847656e+003,4.1933334961e+003,4.2303847656e+003,4.2225639648e+003,4.1823076172e+003,4.1812822266e+003,4.1511538086e+003,4.1953847656e+003,4.2516665039e+003,4.2206411133e+003,4.2214101563e+003,4.1937177734e+003,4.1929487305e+003,
7.0312500000e-002,4.1961538086e+003,4.2732050781e+003,4.2379487305e+003,4.2820512695e+003,4.2785898438e+003,4.2294873047e+003,4.2248715820e+003,4.1969228516e+003,4.2391025391e+003,4.3005126953e+003,4.2680771484e+003,4.2674360352e+003,4.2469228516e+003,4.2397436523e+003,
7.8125000000e-002,4.2597436523e+003,4.3517949219e+003,4.3026923828e+003,4.3566665039e+003,4.3702563477e+003,4.3074360352e+003,4.2948715820e+003,4.2701284180e+003,4.3047436523e+003,4.3630771484e+003,4.3412822266e+003,4.3269228516e+003,4.3207690430e+003,4.2987177734e+003,
8.5937500000e-002,4.3078203125e+003,4.3997436523e+003,4.3497436523e+003,4.4076923828e+003,4.4137177734e+003,4.3555126953e+003,4.3443588867e+003,4.3174360352e+003,4.3525639648e+003,4.4110258789e+003,4.3889741211e+003,4.3720512695e+003,4.3629487305e+003,4.3437177734e+003,
9.3750000000e-002,4.4317949219e+003,4.5298715820e+003,4.4729487305e+003,4.5334614258e+003,4.5312822266e+003,4.4800000000e+003,4.4682050781e+003,4.4435898438e+003,4.4814101563e+003,4.5492309570e+003,4.5167949219e+003,4.4952563477e+003,4.4833334961e+003,4.4657690430e+003,
1.0156250000e-001,4.4816665039e+003,4.5888461914e+003,4.5255126953e+003,4.5824360352e+003,4.5865385742e+003,4.5344873047e+003,4.5196152344e+003,4.4984614258e+003,4.5353847656e+003,4.6078203125e+003,4.5756411133e+003,4.5498715820e+003,4.5400000000e+003,4.5200000000e+003,
1.0937500000e-001,4.5964101563e+003,4.7302563477e+003,4.6505126953e+003,4.7032050781e+003,4.7162822266e+003,4.6643588867e+003,4.6417949219e+003,4.6274360352e+003,4.6528203125e+003,4.7374360352e+003,4.7150000000e+003,4.6793588867e+003,4.6855126953e+003,4.6530771484e+003,
1.1718750000e-001,4.5900000000e+003,4.7280771484e+003,4.6482050781e+003,4.6991025391e+003,4.7116665039e+003,4.6603847656e+003,4.6370512695e+003,4.6256411133e+003,4.6493588867e+003,4.7376923828e+003,4.7089741211e+003,4.6760258789e+003,4.6829487305e+003,4.6496152344e+003,
1.2500000000e-001,4.5460258789e+003,4.6855126953e+003,4.6097436523e+003,4.6546152344e+003,4.6726923828e+003,4.6178203125e+003,4.5952563477e+003,4.5846152344e+003,4.6096152344e+003,4.6964101563e+003,4.6623076172e+003,4.6347436523e+003,4.6366665039e+003,4.6069228516e+003,
1.3281250000e-001,4.4961538086e+003,4.6337177734e+003,4.5650000000e+003,4.6010258789e+003,4.6310258789e+003,4.5679487305e+003,4.5469228516e+003,4.5332050781e+003,4.5605126953e+003,4.6412822266e+003,4.6074360352e+003,4.5853847656e+003,4.5793588867e+003,4.5567949219e+003,
1.4062500000e-001,4.7474360352e+003,4.8928203125e+003,4.8187177734e+003,4.8514101563e+003,4.9032050781e+003,4.8229487305e+003,4.7937177734e+003,4.7805126953e+003,4.7966665039e+003,4.8892309570e+003,4.8612822266e+003,4.8356411133e+003,4.8325639648e+003,4.8079487305e+003,
1.4843750000e-001,4.8016665039e+003,4.9592309570e+003,4.8771796875e+003,4.9079487305e+003,4.9574360352e+003,4.8841025391e+003,4.8524360352e+003,4.8437177734e+003,4.8569228516e+003,4.9605126953e+003,4.9260258789e+003,4.8976923828e+003,4.8960258789e+003,4.8657690430e+003,
1.5625000000e-001,4.7992309570e+003,4.9692309570e+003,4.8873076172e+003,4.9135898438e+003,4.9606411133e+003,4.8952563477e+003,4.8667949219e+003,4.8588461914e+003,4.8696152344e+003,4.9735898438e+003,4.9553847656e+003,4.9092309570e+003,4.9042309570e+003,4.8735898438e+003,
1.6406250000e-001,4.8066665039e+003,4.9875639648e+003,4.9062822266e+003,4.9407690430e+003,4.9902563477e+003,4.9165385742e+003,4.8911538086e+003,4.8893588867e+003,4.8965385742e+003,4.9974360352e+003,4.9775639648e+003,4.9382050781e+003,4.9333334961e+003,4.8985898438e+003,
1.7187500000e-001,4.7828203125e+003,4.9653847656e+003,4.8853847656e+003,4.9142309570e+003,4.9570512695e+003,4.8938461914e+003,4.8697436523e+003,4.8680771484e+003,4.8757690430e+003,4.9783334961e+003,4.9520512695e+003,4.9179487305e+003,4.9100000000e+003,4.8758974609e+003,
1.7968750000e-001,4.7062822266e+003,4.8814101563e+003,4.8147436523e+003,4.8402563477e+003,4.8451284180e+003,4.8207690430e+003,4.7994873047e+003,4.7844873047e+003,4.7933334961e+003,4.8873076172e+003,4.8775639648e+003,4.8341025391e+003,4.8164101563e+003,4.7969228516e+003,
1.8750000000e-001,4.8269228516e+003,5.0260258789e+003,4.9397436523e+003,4.9812822266e+003,5.0334614258e+003,4.9479487305e+003,4.9235898438e+003,4.9150000000e+003,4.9210258789e+003,5.0164101563e+003,4.9971796875e+003,4.9603847656e+003,4.9616665039e+003,4.9325639648e+003,
1.9531250000e-001,4.8374360352e+003,5.0403847656e+003,4.9533334961e+003,4.9900000000e+003,5.0566665039e+003,4.9580771484e+003,4.9325639648e+003,4.9296152344e+003,4.9356411133e+003,5.0332050781e+003,5.0117949219e+003,4.9758974609e+003,4.9773076172e+003,4.9482050781e+003,
2.0312500000e-001,4.8034614258e+003,5.0050000000e+003,4.9250000000e+003,4.9543588867e+003,5.0194873047e+003,4.9253847656e+003,4.8992309570e+003,4.8992309570e+003,4.9058974609e+003,5.0023076172e+003,4.9851284180e+003,4.9475639648e+003,4.9434614258e+003,4.9183334961e+003,
2.1093750000e-001,4.6870512695e+003,4.8823076172e+003,4.8201284180e+003,4.8435898438e+003,4.8803847656e+003,4.8196152344e+003,4.7941025391e+003,4.7900000000e+003,4.7988461914e+003,4.8855126953e+003,4.8782050781e+003,4.8388461914e+003,4.8258974609e+003,4.8062822266e+003,
2.1875000000e-001,4.6684614258e+003,4.8632050781e+003,4.8033334961e+003,4.8300000000e+003,4.8600000000e+003,4.8076923828e+003,4.7835898438e+003,4.7760258789e+003,4.7843588867e+003,4.8685898438e+003,4.8592309570e+003,4.8212822266e+003,4.8111538086e+003,4.7893588867e+003,
2.2656250000e-001,4.7487177734e+003,4.9456411133e+003,4.8802563477e+003,4.9142309570e+003,4.9485898438e+003,4.8915385742e+003,4.8697436523e+003,4.8614101563e+003,4.8625639648e+003,4.9537177734e+003,4.9376923828e+003,4.9005126953e+003,4.8992309570e+003,4.8726923828e+003,
2.3437500000e-001,4.8089741211e+003,5.0093588867e+003,4.9393588867e+003,4.9737177734e+003,5.0103847656e+003,4.9491025391e+003,4.9273076172e+003,4.9208974609e+003,4.9187177734e+003,5.0137177734e+003,5.0007690430e+003,4.9601284180e+003,4.9594873047e+003,4.9329487305e+003,
2.4218750000e-001,4.8564101563e+003,5.0624360352e+003,4.9878203125e+003,5.0211538086e+003,5.0600000000e+003,4.9956411133e+003,4.9726923828e+003,4.9682050781e+003,4.9656411133e+003,5.0612822266e+003,5.0544873047e+003,5.0084614258e+003,5.0071796875e+003,4.9803847656e+003,
2.5000000000e-001,4.9011538086e+003,5.1160258789e+003,5.0475639648e+003,5.0806411133e+003,5.0857690430e+003,5.0643588867e+003,5.0332050781e+003,5.0323076172e+003,5.0292309570e+003,5.1275639648e+003,5.1117949219e+003,5.0755126953e+003,5.0776923828e+003,5.0429487305e+003,
2.5781250000e-001,4.8974360352e+003,5.1171796875e+003,5.0428203125e+003,5.0797436523e+003,5.0843588867e+003,5.0560258789e+003,5.0248715820e+003,5.0258974609e+003,5.0244873047e+003,5.1212822266e+003,5.1078203125e+003,5.0707690430e+003,5.0739741211e+003,5.0392309570e+003,
2.6562500000e-001,4.7757690430e+003,5.0058974609e+003,4.9284614258e+003,4.9665385742e+003,5.0167949219e+003,4.9403847656e+003,4.9053847656e+003,4.9126923828e+003,4.9175639648e+003,4.9971796875e+003,5.0019228516e+003,4.9611538086e+003,4.9469228516e+003,4.9150000000e+003,
2.7343750000e-001,4.7153847656e+003,4.9391025391e+003,4.8708974609e+003,4.9042309570e+003,4.9560258789e+003,4.8858974609e+003,4.8501284180e+003,4.8567949219e+003,4.8612822266e+003,4.9374360352e+003,4.9407690430e+003,4.9025639648e+003,4.8858974609e+003,4.8530771484e+003,
2.8125000000e-001,4.5902563477e+003,4.8047436523e+003,4.7462822266e+003,4.7738461914e+003,4.8089741211e+003,4.7624360352e+003,4.7394873047e+003,4.7417949219e+003,4.7424360352e+003,4.8147436523e+003,4.7953847656e+003,4.7694873047e+003,4.7737177734e+003,4.7282050781e+003,
2.8906250000e-001,4.3633334961e+003,4.5720512695e+003,4.5267949219e+003,4.5635898438e+003,4.5921796875e+003,4.5496152344e+003,4.5250000000e+003,4.5375639648e+003,4.5412822266e+003,4.5944873047e+003,4.5678203125e+003,4.5637177734e+003,4.5450000000e+003,4.5174360352e+003,
2.9687500000e-001,4.2402563477e+003,4.4421796875e+003,4.4042309570e+003,4.4408974609e+003,4.4585898438e+003,4.4325639648e+003,4.4042309570e+003,4.4173076172e+003,4.4235898438e+003,4.4688461914e+003,4.4450000000e+003,4.4411538086e+003,4.4167949219e+003,4.3950000000e+003,
3.0468750000e-001,3.9774357910e+003,4.1479487305e+003,4.1258974609e+003,4.1617949219e+003,4.1610258789e+003,4.1539741211e+003,4.1426923828e+003,4.1261538086e+003,4.1432050781e+003,4.1617949219e+003,4.1567949219e+003,4.1461538086e+003,4.1255126953e+003,4.1143588867e+003,
3.1250000000e-001,3.9721794434e+003,4.1316665039e+003,4.1142309570e+003,4.1542309570e+003,4.1564101563e+003,4.1391025391e+003,4.1333334961e+003,4.1111538086e+003,4.1308974609e+003,4.1456411133e+003,4.1424360352e+003,4.1317949219e+003,4.1135898438e+003,4.1039741211e+003,
3.2031250000e-001,3.9406411133e+003,4.0816667480e+003,4.0750000000e+003,4.1164101563e+003,4.1034614258e+003,4.0957692871e+003,4.0884614258e+003,4.0729487305e+003,4.0955129395e+003,4.1076923828e+003,4.0917949219e+003,4.0947436523e+003,4.0764101563e+003,4.0639743652e+003,
3.2812500000e-001,3.8817949219e+003,4.0157692871e+003,4.0137180176e+003,4.0524357910e+003,4.0189743652e+003,4.0329487305e+003,4.0257692871e+003,4.0114101563e+003,4.0350000000e+003,4.0421794434e+003,4.0215385742e+003,4.0341025391e+003,4.0120512695e+003,3.9988461914e+003,
3.3593750000e-001,3.8750000000e+003,3.9924357910e+003,3.9866667480e+003,4.0493588867e+003,3.9923076172e+003,4.0053845215e+003,4.0125642090e+003,3.9823076172e+003,4.0089743652e+003,4.0006411133e+003,4.0008974609e+003,4.0057692871e+003,3.9743588867e+003,3.9735898438e+003,
3.4375000000e-001,3.9396154785e+003,4.0537180176e+003,4.0452563477e+003,4.1183334961e+003,4.0776923828e+003,4.0630769043e+003,4.0711538086e+003,4.0438461914e+003,4.0706411133e+003,4.0652563477e+003,4.0660256348e+003,4.0648718262e+003,4.0376923828e+003,4.0380769043e+003,
3.5156250000e-001,3.9743588867e+003,4.0867949219e+003,4.0771794434e+003,4.1473076172e+003,4.1341025391e+003,4.0964101563e+003,4.0951281738e+003,4.0815385742e+003,4.1080771484e+003,4.1085898438e+003,4.0923076172e+003,4.0946154785e+003,4.0830769043e+003,4.0742307129e+003,
3.5937500000e-001,3.9428205566e+003,4.0538461914e+003,4.0443588867e+003,4.1089741211e+003,4.0915385742e+003,4.0675642090e+003,4.0607692871e+003,4.0500000000e+003,4.0762819824e+003,4.0750000000e+003,4.0521794434e+003,4.0601281738e+003,4.0515385742e+003,4.0391025391e+003,
3.6718750000e-001,3.9142307129e+003,4.0075642090e+003,4.0042307129e+003,4.0743588867e+003,4.0241025391e+003,4.0225642090e+003,4.0255129395e+003,4.0050000000e+003,4.0287180176e+003,4.0223076172e+003,4.0014101563e+003,4.0202563477e+003,3.9923076172e+003,3.9944870605e+003,
3.7500000000e-001,3.9434614258e+003,4.0317949219e+003,4.0298718262e+003,4.0989741211e+003,4.0548718262e+003,4.0410256348e+003,4.0492307129e+003,4.0262819824e+003,4.0497436523e+003,4.0464101563e+003,4.0273076172e+003,4.0441025391e+003,4.0160256348e+003,4.0198718262e+003,
3.8281250000e-001,3.9779487305e+003,4.0643588867e+003,4.0601281738e+003,4.1248715820e+003,4.0919230957e+003,4.0680769043e+003,4.0765385742e+003,4.0541025391e+003,4.0771794434e+003,4.0780769043e+003,4.0597436523e+003,4.0720512695e+003,4.0506411133e+003,4.0500000000e+003,
3.9062500000e-001,4.0067949219e+003,4.0930769043e+003,4.0837180176e+003,4.1446152344e+003,4.1184614258e+003,4.0941025391e+003,4.0984614258e+003,4.0787180176e+003,4.1008974609e+003,4.1048715820e+003,4.0869230957e+003,4.0951281738e+003,4.0811538086e+003,4.0738461914e+003,
3.9843750000e-001,3.9385898438e+003,4.0126923828e+003,4.0052563477e+003,4.0674357910e+003,4.0080769043e+003,4.0246154785e+003,4.0250000000e+003,4.0150000000e+003,4.0344870605e+003,4.0287180176e+003,4.0202563477e+003,4.0266667480e+003,3.9971794434e+003,4.0025642090e+003,
4.0625000000e-001,3.8771794434e+003,3.9437180176e+003,3.9430769043e+003,4.0037180176e+003,3.9378205566e+003,3.9584614258e+003,3.9643588867e+003,3.9525642090e+003,3.9744870605e+003,3.9630769043e+003,3.9529487305e+003,3.9620512695e+003,3.9337180176e+003,3.9392307129e+003,
4.1406250000e-001,4.0012819824e+003,4.0528205566e+003,4.0541025391e+003,4.1247436523e+003,4.0744870605e+003,4.0633332520e+003,4.0701281738e+003,4.0491025391e+003,4.0665385742e+003,4.0558974609e+003,4.0482050781e+003,4.0597436523e+003,4.0396154785e+003,4.0402563477e+003,
4.2187500000e-001,4.4452563477e+003,4.5182050781e+003,4.4820512695e+003,4.5475639648e+003,4.5439741211e+003,4.4941025391e+003,4.4883334961e+003,4.4748715820e+003,4.4917949219e+003,4.5133334961e+003,4.5042309570e+003,4.4939741211e+003,4.4875639648e+003,4.4758974609e+003,
4.2968750000e-001,4.3855126953e+003,4.4811538086e+003,4.4453847656e+003,4.4979487305e+003,4.4769228516e+003,4.4534614258e+003,4.4419228516e+003,4.4462822266e+003,4.4543588867e+003,4.4829487305e+003,4.4719228516e+003,4.4624360352e+003,4.4360258789e+003,4.4364101563e+003,
4.3750000000e-001,4.3421796875e+003,4.4339741211e+003,4.4038461914e+003,4.4551284180e+003,4.4343588867e+003,4.4117949219e+003,4.4006411133e+003,4.4008974609e+003,4.4076923828e+003,4.4283334961e+003,4.4200000000e+003,4.4146152344e+003,4.3835898438e+003,4.3896152344e+003,
4.4531250000e-001,4.4280771484e+003,4.5132050781e+003,4.4870512695e+003,4.5324360352e+003,4.5179487305e+003,4.4926923828e+003,4.4843588867e+003,4.4673076172e+003,4.4757690430e+003,4.4975639648e+003,4.4885898438e+003,4.4812822266e+003,4.4692309570e+003,4.4653847656e+003,
4.5312500000e-001,4.5480771484e+003,4.6365385742e+003,4.6055126953e+003,4.6503847656e+003,4.6335898438e+003,4.6089741211e+003,4.5989741211e+003,4.5823076172e+003,4.5898715820e+003,4.6243588867e+003,4.6134614258e+003,4.5971796875e+003,4.5985898438e+003,4.5843588867e+003,
4.6093750000e-001,4.6601284180e+003,4.7766665039e+003,4.7297436523e+003,4.7825639648e+003,4.7567949219e+003,4.7352563477e+003,4.7107690430e+003,4.7212822266e+003,4.7183334961e+003,4.7715385742e+003,4.7714101563e+003,4.7367949219e+003,4.7317949219e+003,4.7151284180e+003,
4.6875000000e-001,4.6347436523e+003,4.7565385742e+003,4.7078203125e+003,4.7584614258e+003,4.7480771484e+003,4.7148715820e+003,4.6907690430e+003,4.6965385742e+003,4.6916665039e+003,4.7401284180e+003,4.7455126953e+003,4.7147436523e+003,4.7041025391e+003,4.6932050781e+003,
4.7656250000e-001,4.8287177734e+003,4.9576923828e+003,4.8978203125e+003,4.9394873047e+003,4.9730771484e+003,4.9035898438e+003,4.8864101563e+003,4.8739741211e+003,4.8665385742e+003,4.9243588867e+003,4.9293588867e+003,4.9015385742e+003,4.8948715820e+003,4.8851284180e+003,
4.8437500000e-001,5.0287177734e+003,5.1639741211e+003,5.0962822266e+003,5.1356411133e+003,5.1778203125e+003,5.0994873047e+003,5.0826923828e+003,5.0714101563e+003,5.0615385742e+003,5.1355126953e+003,5.1366665039e+003,5.1035898438e+003,5.1011538086e+003,5.0850000000e+003,
4.9218750000e-001,5.3157690430e+003,5.4764101563e+003,5.4002563477e+003,5.4402563477e+003,5.4591025391e+003,5.3902563477e+003,5.3623076172e+003,5.3801284180e+003,5.3635898438e+003,5.4702563477e+003,5.4650000000e+003,5.4111538086e+003,5.4226923828e+003,5.3812822266e+003,
5.0000000000e-001,5.2796152344e+003,5.4514101563e+003,5.3702563477e+003,5.4094873047e+003,5.4314101563e+003,5.3583334961e+003,5.3275639648e+003,5.3471796875e+003,5.3316665039e+003,5.4370512695e+003,5.4317949219e+003,5.3737177734e+003,5.3926923828e+003,5.3473076172e+003,
5.0781250000e-001,5.2483334961e+003,5.4317949219e+003,5.3438461914e+003,5.3814101563e+003,5.4106411133e+003,5.3320512695e+003,5.3008974609e+003,5.3167949219e+003,5.3020512695e+003,5.4042309570e+003,5.4003847656e+003,5.3407690430e+003,5.3630771484e+003,5.3184614258e+003,
5.1562500000e-001,5.2573076172e+003,5.4511538086e+003,5.3571796875e+003,5.3935898438e+003,5.4251284180e+003,5.3474360352e+003,5.3175639648e+003,5.3282050781e+003,5.3117949219e+003,5.4114101563e+003,5.4116665039e+003,5.3528203125e+003,5.3715385742e+003,5.3315385742e+003,
5.2343750000e-001,5.6514101563e+003,5.8897436523e+003,5.7676923828e+003,5.8196152344e+003,5.8380771484e+003,5.7725639648e+003,5.7326923828e+003,5.7498715820e+003,5.7234614258e+003,5.8367949219e+003,5.8525639648e+003,5.7857690430e+003,5.7883334961e+003,5.7547436523e+003,
5.3125000000e-001,5.6994873047e+003,5.9787177734e+003,5.8539741211e+003,5.8900000000e+003,5.9435898438e+003,5.8525639648e+003,5.8021796875e+003,5.8353847656e+003,5.8011538086e+003,5.9294873047e+003,5.9335898438e+003,5.8578203125e+003,5.8710258789e+003,5.8288461914e+003,
5.3906250000e-001,5.7038461914e+003,5.9933334961e+003,5.8660258789e+003,5.9039741211e+003,5.9533334961e+003,5.8682050781e+003,5.8184614258e+003,5.8514101563e+003,5.8126923828e+003,5.9430771484e+003,5.9451284180e+003,5.8734614258e+003,5.8842309570e+003,5.8435898438e+003,
5.4687500000e-001,5.7591025391e+003,6.0670512695e+003,5.9344873047e+003,5.9703847656e+003,6.0235898438e+003,5.9343588867e+003,5.8876923828e+003,5.9210258789e+003,5.8789741211e+003,6.0167949219e+003,6.0166665039e+003,5.9508974609e+003,5.9551284180e+003,5.9197436523e+003,
5.5468750000e-001,5.7171796875e+003,6.0300000000e+003,5.9011538086e+003,5.9308974609e+003,5.9893588867e+003,5.8951284180e+003,5.8483334961e+003,5.8856411133e+003,5.8450000000e+003,5.9835898438e+003,5.9865385742e+003,5.9189741211e+003,5.9203847656e+003,5.8860258789e+003,
5.6250000000e-001,5.1203847656e+003,5.4183334961e+003,5.3402563477e+003,5.3560258789e+003,5.3848715820e+003,5.3237177734e+003,5.2814101563e+003,5.3138461914e+003,5.2796152344e+003,5.3811538086e+003,5.4070512695e+003,5.3433334961e+003,5.3310258789e+003,5.3114101563e+003,
5.7031250000e-001,5.0712822266e+003,5.3473076172e+003,5.2832050781e+003,5.3226923828e+003,5.3319228516e+003,5.2752563477e+003,5.2458974609e+003,5.2480771484e+003,5.2202563477e+003,5.2985898438e+003,5.3196152344e+003,5.2775639648e+003,5.2746152344e+003,5.2608974609e+003,
5.7812500000e-001,5.1812822266e+003,5.4560258789e+003,5.3842309570e+003,5.4301284180e+003,5.4350000000e+003,5.3755126953e+003,5.3466665039e+003,5.3537177734e+003,5.3280771484e+003,5.4098715820e+003,5.4250000000e+003,5.3851284180e+003,5.3851284180e+003,5.3661538086e+003,
5.8593750000e-001,5.0417949219e+003,5.3115385742e+003,5.2467949219e+003,5.2810258789e+003,5.2610258789e+003,5.2287177734e+003,5.2014101563e+003,5.2302563477e+003,5.2060258789e+003,5.2811538086e+003,5.2950000000e+003,5.2565385742e+003,5.2415385742e+003,5.2305126953e+003,
5.9375000000e-001,4.9326923828e+003,5.1989741211e+003,5.1412822266e+003,5.1712822266e+003,5.1608974609e+003,5.1241025391e+003,5.0994873047e+003,5.1244873047e+003,5.1008974609e+003,5.1673076172e+003,5.1860258789e+003,5.1441025391e+003,5.1307690430e+003,5.1242309570e+003,
6.0156250000e-001,4.8435898438e+003,5.1039741211e+003,5.0514101563e+003,5.0893588867e+003,5.0993588867e+003,5.0421796875e+003,5.0217949219e+003,5.0361538086e+003,5.0151284180e+003,5.0671796875e+003,5.0929487305e+003,5.0447436523e+003,5.0429487305e+003,5.0366665039e+003,
6.0937500000e-001,4.8235898438e+003,5.0817949219e+003,5.0289741211e+003,5.0725639648e+003,5.0746152344e+003,5.0242309570e+003,5.0041025391e+003,5.0160258789e+003,4.9962822266e+003,5.0432050781e+003,5.0667949219e+003,5.0225639648e+003,5.0207690430e+003,5.0147436523e+003,
6.1718750000e-001,4.6729487305e+003,4.9115385742e+003,4.8761538086e+003,4.9106411133e+003,4.8701284180e+003,4.8714101563e+003,4.8530771484e+003,4.8616665039e+003,4.8432050781e+003,4.8780771484e+003,4.8888461914e+003,4.8647436523e+003,4.8452563477e+003,4.8510258789e+003,
6.2500000000e-001,4.6371796875e+003,4.8670512695e+003,4.8379487305e+003,4.8729487305e+003,4.8374360352e+003,4.8303847656e+003,4.8158974609e+003,4.8193588867e+003,4.8017949219e+003,4.8350000000e+003,4.8496152344e+003,4.8237177734e+003,4.8055126953e+003,4.8117949219e+003,
6.3281250000e-001,4.6556411133e+003,4.8806411133e+003,4.8503847656e+003,4.8916665039e+003,4.8689741211e+003,4.8410258789e+003,4.8307690430e+003,4.8282050781e+003,4.8119228516e+003,4.8457690430e+003,4.8664101563e+003,4.8355126953e+003,4.8237177734e+003,4.8273076172e+003,
6.4062500000e-001,4.7376923828e+003,4.9624360352e+003,4.9239741211e+003,4.9720512695e+003,4.9637177734e+003,4.9138461914e+003,4.9060258789e+003,4.8998715820e+003,4.8851284180e+003,4.9221796875e+003,4.9470512695e+003,4.9103847656e+003,4.9061538086e+003,4.9060258789e+003,
6.4843750000e-001,4.9973076172e+003,5.2179487305e+003,5.1806411133e+003,5.2107690430e+003,5.2102563477e+003,5.1647436523e+003,5.1446152344e+003,5.1533334961e+003,5.1347436523e+003,5.1896152344e+003,5.2147436523e+003,5.1721796875e+003,5.1641025391e+003,5.1625639648e+003,
6.5625000000e-001,4.9780771484e+003,5.1964101563e+003,5.1621796875e+003,5.1956411133e+003,5.1819228516e+003,5.1455126953e+003,5.1253847656e+003,5.1341025391e+003,5.1151284180e+003,5.1696152344e+003,5.1976923828e+003,5.1564101563e+003,5.1485898438e+003,5.1464101563e+003,
6.6406250000e-001,5.3357690430e+003,5.5765385742e+003,5.4998715820e+003,5.5482050781e+003,5.5367949219e+003,5.4926923828e+003,5.4682050781e+003,5.4755126953e+003,5.4556411133e+003,5.5207690430e+003,5.5467949219e+003,5.4971796875e+003,5.5053847656e+003,5.4928203125e+003,
6.7187500000e-001,5.5969228516e+003,5.8710258789e+003,5.7815385742e+003,5.8066665039e+003,5.8551284180e+003,5.7625639648e+003,5.7221796875e+003,5.7642309570e+003,5.7308974609e+003,5.8376923828e+003,5.8584614258e+003,5.7806411133e+003,5.7833334961e+003,5.7675639648e+003,
6.7968750000e-001,5.3760258789e+003,5.6507690430e+003,5.5746152344e+003,5.5967949219e+003,5.6355126953e+003,5.5547436523e+003,5.5119228516e+003,5.5664101563e+003,5.5315385742e+003,5.6369228516e+003,5.6528203125e+003,5.5770512695e+003,5.5787177734e+003,5.5625639648e+003,
6.8750000000e-001,4.4984614258e+003,4.7405126953e+003,4.7162822266e+003,4.7297436523e+003,4.7144873047e+003,4.7098715820e+003,4.6773076172e+003,4.7128203125e+003,4.6888461914e+003,4.7214101563e+003,4.7402563477e+003,4.7091025391e+003,4.6948715820e+003,4.7001284180e+003,
6.9531250000e-001,4.2935898438e+003,4.5003847656e+003,4.4969228516e+003,4.5207690430e+003,4.5061538086e+003,4.4893588867e+003,4.4750000000e+003,4.4755126953e+003,4.4687177734e+003,4.4673076172e+003,4.4884614258e+003,4.4794873047e+003,4.4596152344e+003,4.4821796875e+003,
7.0312500000e-001,4.2705126953e+003,4.4675639648e+003,4.4661538086e+003,4.4962822266e+003,4.4773076172e+003,4.4642309570e+003,4.4514101563e+003,4.4492309570e+003,4.4421796875e+003,4.4384614258e+003,4.4614101563e+003,4.4523076172e+003,4.4335898438e+003,4.4593588867e+003,
7.1093750000e-001,4.2450000000e+003,4.4129487305e+003,4.4197436523e+003,4.4437177734e+003,4.4226923828e+003,4.4391025391e+003,4.4306411133e+003,4.4307690430e+003,4.4214101563e+003,4.4008974609e+003,4.4393588867e+003,4.4198715820e+003,4.3907690430e+003,4.4217949219e+003,
7.1875000000e-001,4.2451284180e+003,4.4062822266e+003,4.4153847656e+003,4.4367949219e+003,4.4107690430e+003,4.4310258789e+003,4.4271796875e+003,4.4294873047e+003,4.4225639648e+003,4.4028203125e+003,4.4343588867e+003,4.4164101563e+003,4.3864101563e+003,4.4130771484e+003,
7.2656250000e-001,4.1780771484e+003,4.3242309570e+003,4.3402563477e+003,4.3642309570e+003,4.3211538086e+003,4.3342309570e+003,4.3374360352e+003,4.3416665039e+003,4.3408974609e+003,4.3232050781e+003,4.3310258789e+003,4.3315385742e+003,4.3083334961e+003,4.3298715820e+003,
7.3437500000e-001,4.1329487305e+003,4.2714101563e+003,4.2884614258e+003,4.3162822266e+003,4.2697436523e+003,4.2753847656e+003,4.2780771484e+003,4.2803847656e+003,4.2814101563e+003,4.2594873047e+003,4.2625639648e+003,4.2728203125e+003,4.2528203125e+003,4.2773076172e+003,
7.4218750000e-001,4.1666665039e+003,4.2898715820e+003,4.2976923828e+003,4.3362822266e+003,4.2993588867e+003,4.2866665039e+003,4.2862822266e+003,4.2801284180e+003,4.2798715820e+003,4.2479487305e+003,4.2676923828e+003,4.2794873047e+003,4.2424360352e+003,4.2861538086e+003,
7.5000000000e-001,4.2091025391e+003,4.3264101563e+003,4.3342309570e+003,4.3755126953e+003,4.3334614258e+003,4.3202563477e+003,4.3225639648e+003,4.3151284180e+003,4.3142309570e+003,4.2855126953e+003,4.3083334961e+003,4.3158974609e+003,4.2741025391e+003,4.3192309570e+003,
7.5781250000e-001,4.2408974609e+003,4.3523076172e+003,4.3600000000e+003,4.4052563477e+003,4.3511538086e+003,4.3417949219e+003,4.3466665039e+003,4.3393588867e+003,4.3383334961e+003,4.3133334961e+003,4.3364101563e+003,4.3394873047e+003,4.3003847656e+003,4.3425639648e+003,
7.6562500000e-001,4.2533334961e+003,4.3601284180e+003,4.3662822266e+003,4.4160258789e+003,4.3482050781e+003,4.3458974609e+003,4.3515385742e+003,4.3457690430e+003,4.3444873047e+003,4.3212822266e+003,4.3448715820e+003,4.3434614258e+003,4.3112822266e+003,4.3492309570e+003,
7.7343750000e-001,4.2383334961e+003,4.3364101563e+003,4.3432050781e+003,4.3917949219e+003,4.3414101563e+003,4.3397436523e+003,4.3402563477e+003,4.3246152344e+003,4.3206411133e+003,4.2943588867e+003,4.3251284180e+003,4.3280771484e+003,4.2867949219e+003,4.3358974609e+003,
7.8125000000e-001,4.2915385742e+003,4.3884614258e+003,4.3938461914e+003,4.4412822266e+003,4.4006411133e+003,4.3897436523e+003,4.3897436523e+003,4.3719228516e+003,4.3688461914e+003,4.3474360352e+003,4.3716665039e+003,4.3765385742e+003,4.3376923828e+003,4.3847436523e+003,
7.8906250000e-001,4.4100000000e+003,4.5055126953e+003,4.5012822266e+003,4.5448715820e+003,4.5044873047e+003,4.4875639648e+003,4.4852563477e+003,4.4771796875e+003,4.4739741211e+003,4.4612822266e+003,4.4807690430e+003,4.4848715820e+003,4.4507690430e+003,4.4873076172e+003,
7.9687500000e-001,4.2669228516e+003,4.3557690430e+003,4.3596152344e+003,4.3860258789e+003,4.3383334961e+003,4.3458974609e+003,4.3465385742e+003,4.3380771484e+003,4.3335898438e+003,4.3171796875e+003,4.3476923828e+003,4.3450000000e+003,4.3111538086e+003,4.3508974609e+003,
8.0468750000e-001,4.1985898438e+003,4.2832050781e+003,4.2950000000e+003,4.3128203125e+003,4.2633334961e+003,4.2784614258e+003,4.2812822266e+003,4.2723076172e+003,4.2687177734e+003,4.2498715820e+003,4.2720512695e+003,4.2762822266e+003,4.2448715820e+003,4.2847436523e+003,
8.1250000000e-001,4.0467949219e+003,4.1153847656e+003,4.1370512695e+003,4.1421796875e+003,4.1114101563e+003,4.1219228516e+003,4.1260258789e+003,4.1203847656e+003,4.1214101563e+003,4.0847436523e+003,4.0980771484e+003,4.1225639648e+003,4.0794870605e+003,4.1244873047e+003,
8.2031250000e-001,3.9458974609e+003,3.9979487305e+003,4.0260256348e+003,4.0408974609e+003,4.0270512695e+003,4.0150000000e+003,4.0239743652e+003,4.0228205566e+003,4.0233332520e+003,3.9684614258e+003,4.0012819824e+003,4.0092307129e+003,3.9682050781e+003,4.0206411133e+003,
8.2812500000e-001,3.9279487305e+003,3.9742307129e+003,4.0058974609e+003,4.0194870605e+003,3.9970512695e+003,3.9941025391e+003,4.0061538086e+003,4.0052563477e+003,4.0055129395e+003,3.9469230957e+003,3.9732050781e+003,3.9834614258e+003,3.9502563477e+003,3.9993588867e+003,
8.3593750000e-001,3.9317949219e+003,3.9717949219e+003,4.0043588867e+003,4.0171794434e+003,3.9825642090e+003,3.9939743652e+003,4.0078205566e+003,4.0071794434e+003,4.0079487305e+003,3.9467949219e+003,3.9650000000e+003,3.9800000000e+003,3.9512819824e+003,3.9966667480e+003,
8.4375000000e-001,3.9778205566e+003,4.0061538086e+003,4.0364101563e+003,4.0556411133e+003,4.0021794434e+003,4.0325642090e+003,4.0453845215e+003,4.0474357910e+003,4.0491025391e+003,3.9842307129e+003,4.0002563477e+003,4.0212819824e+003,3.9834614258e+003,4.0306411133e+003,
8.5156250000e-001,4.0323076172e+003,4.0562819824e+003,4.0825642090e+003,4.1093588867e+003,4.0792307129e+003,4.0876923828e+003,4.0975639648e+003,4.1007690430e+003,4.1048715820e+003,4.0428205566e+003,4.0570512695e+003,4.0721794434e+003,4.0317949219e+003,4.0830769043e+003,
8.5937500000e-001,4.0433332520e+003,4.0702563477e+003,4.0902563477e+003,4.1144873047e+003,4.0982050781e+003,4.1029487305e+003,4.1108974609e+003,4.1121796875e+003,4.1180771484e+003,4.0615385742e+003,4.0680769043e+003,4.0796154785e+003,4.0471794434e+003,4.0938461914e+003,
8.6718750000e-001,4.0474357910e+003,4.0747436523e+003,4.0870512695e+003,4.0947436523e+003,4.0688461914e+003,4.1052563477e+003,4.1155126953e+003,4.1139741211e+003,4.1208974609e+003,4.0724357910e+003,4.0760256348e+003,4.0753845215e+003,4.0532050781e+003,4.0905129395e+003,
8.7500000000e-001,4.0298718262e+003,4.0505129395e+003,4.0689743652e+003,4.0703845215e+003,4.0408974609e+003,4.0801281738e+003,4.0934614258e+003,4.0939743652e+003,4.0997436523e+003,4.0485898438e+003,4.0573076172e+003,4.0546154785e+003,4.0324357910e+003,4.0696154785e+003,
8.8281250000e-001,3.9926923828e+003,4.0042307129e+003,4.0302563477e+003,4.0270512695e+003,4.0039743652e+003,4.0347436523e+003,4.0503845215e+003,4.0528205566e+003,4.0575642090e+003,4.0028205566e+003,4.0133332520e+003,4.0142307129e+003,3.9916667480e+003,4.0302563477e+003,
8.9062500000e-001,3.9437180176e+003,3.9453845215e+003,3.9787180176e+003,3.9732050781e+003,3.9629487305e+003,3.9782050781e+003,3.9955129395e+003,3.9978205566e+003,4.0016667480e+003,3.9438461914e+003,3.9520512695e+003,3.9629487305e+003,3.9379487305e+003,3.9800000000e+003,
8.9843750000e-001,4.1482050781e+003,4.1426923828e+003,4.1698715820e+003,4.1635898438e+003,4.1582050781e+003,4.1582050781e+003,4.1762822266e+003,4.1684614258e+003,4.1673076172e+003,4.1161538086e+003,4.1316665039e+003,4.1525639648e+003,4.1182050781e+003,4.1625639648e+003,
9.0625000000e-001,4.2930771484e+003,4.2961538086e+003,4.3126923828e+003,4.3012822266e+003,4.2946152344e+003,4.3025639648e+003,4.3175639648e+003,4.3119228516e+003,4.3100000000e+003,4.2657690430e+003,4.2856411133e+003,4.2951284180e+003,4.2673076172e+003,4.3043588867e+003,
9.1406250000e-001,4.4438461914e+003,4.4702563477e+003,4.4658974609e+003,4.4410258789e+003,4.4635898438e+003,4.4580771484e+003,4.4596152344e+003,4.4734614258e+003,4.4655126953e+003,4.4475639648e+003,4.4593588867e+003,4.4573076172e+003,4.4437177734e+003,4.4602563477e+003,
9.2187500000e-001,4.2794873047e+003,4.3012822266e+003,4.3055126953e+003,4.2817949219e+003,4.3061538086e+003,4.2937177734e+003,4.2971796875e+003,4.3103847656e+003,4.3002563477e+003,4.2784614258e+003,4.2841025391e+003,4.2996152344e+003,4.2785898438e+003,4.2969228516e+003,
9.2968750000e-001,4.2882050781e+003,4.3071796875e+003,4.3119228516e+003,4.2820512695e+003,4.3080771484e+003,4.2998715820e+003,4.3055126953e+003,4.3126923828e+003,4.3032050781e+003,4.2785898438e+003,4.2892309570e+003,4.3051284180e+003,4.2843588867e+003,4.3078203125e+003,
9.3750000000e-001,4.4258974609e+003,4.4467949219e+003,4.4511538086e+003,4.4006411133e+003,4.4374360352e+003,4.4301284180e+003,4.4306411133e+003,4.4437177734e+003,4.4352563477e+003,4.4201284180e+003,4.4452563477e+003,4.4473076172e+003,4.4279487305e+003,4.4488461914e+003,
9.4531250000e-001,4.3185898438e+003,4.3428203125e+003,4.3551284180e+003,4.3067949219e+003,4.3329487305e+003,4.3353847656e+003,4.3366665039e+003,4.3517949219e+003,4.3510258789e+003,4.3358974609e+003,4.3571796875e+003,4.3592309570e+003,4.3361538086e+003,4.3526923828e+003,
9.5312500000e-001,4.2338461914e+003,4.2605126953e+003,4.2701284180e+003,4.2229487305e+003,4.2594873047e+003,4.2567949219e+003,4.2588461914e+003,4.2703847656e+003,4.2725639648e+003,4.2524360352e+003,4.2689741211e+003,4.2748715820e+003,4.2552563477e+003,4.2732050781e+003,
9.6093750000e-001,4.1476923828e+003,4.1744873047e+003,4.1826923828e+003,4.1347436523e+003,4.1830771484e+003,4.1748715820e+003,4.1773076172e+003,4.1846152344e+003,4.1887177734e+003,4.1610258789e+003,4.1747436523e+003,4.1870512695e+003,4.1698715820e+003,4.1885898438e+003,
9.6875000000e-001,4.0819230957e+003,4.0992309570e+003,4.1135898438e+003,4.0588461914e+003,4.1103847656e+003,4.1082050781e+003,4.1116665039e+003,4.1092309570e+003,4.1143588867e+003,4.0741025391e+003,4.0921794434e+003,4.1143588867e+003,4.0998715820e+003,4.1138461914e+003,
9.7656250000e-001,4.1374360352e+003,4.1492309570e+003,4.1651284180e+003,4.1067949219e+003,4.1541025391e+003,4.1593588867e+003,4.1641025391e+003,4.1576923828e+003,4.1632050781e+003,4.1242309570e+003,4.1452563477e+003,4.1644873047e+003,4.1542309570e+003,4.1632050781e+003,
9.8437500000e-001,4.3237177734e+003,4.3342309570e+003,4.3430771484e+003,4.2793588867e+003,4.3398715820e+003,4.3388461914e+003,4.3433334961e+003,4.3392309570e+003,4.3432050781e+003,4.3196152344e+003,4.3406411133e+003,4.3444873047e+003,4.3416665039e+003,4.3458974609e+003,
9.9218750000e-001,4.3814101563e+003,4.3948715820e+003,4.3997436523e+003,4.3325639648e+003,4.4083334961e+003,4.3955126953e+003,4.3975639648e+003,4.3988461914e+003,4.4005126953e+003,4.3824360352e+003,4.4046152344e+003,4.4037177734e+003,4.3982050781e+003,4.4048715820e+003,
1.0000000000e+000,4.3508974609e+003,4.3701284180e+003,4.3717949219e+003,4.2943588867e+003,4.3846152344e+003,4.3658974609e+003,4.3608974609e+003,4.3732050781e+003,4.3711538086e+003,4.3492309570e+003,4.3747436523e+003,4.3775639648e+003,4.3611538086e+003,4.3733334961e+003,
1.0078125000e+000,4.3280771484e+003,4.3484614258e+003,4.3498715820e+003,4.2711538086e+003,4.3521796875e+003,4.3446152344e+003,4.3410258789e+003,4.3516665039e+003,4.3488461914e+003,4.3264101563e+003,4.3483334961e+003,4.3539741211e+003,4.3380771484e+003,4.3502563477e+003,
1.0156250000e+000,4.3219228516e+003,4.3429487305e+003,4.3446152344e+003,4.2661538086e+003,4.3346152344e+003,4.3383334961e+003,4.3379487305e+003,4.3453847656e+003,4.3416665039e+003,4.3201284180e+003,4.3380771484e+003,4.3458974609e+003,4.3311538086e+003,4.3434614258e+003,
1.0234375000e+000,4.4582050781e+003,4.4843588867e+003,4.4765385742e+003,4.3902563477e+003,4.4800000000e+003,4.4678203125e+003,4.4632050781e+003,4.4680771484e+003,4.4653847656e+003,4.4548715820e+003,4.4776923828e+003,4.4689741211e+003,4.4588461914e+003,4.4702563477e+003,
1.0312500000e+000,4.5157690430e+003,4.5437177734e+003,4.5361538086e+003,4.4394873047e+003,4.5450000000e+003,4.5288461914e+003,4.5217949219e+003,4.5247436523e+003,4.5208974609e+003,4.5150000000e+003,4.5400000000e+003,4.5285898438e+003,4.5185898438e+003,4.5289741211e+003,
1.0390625000e+000,4.6479487305e+003,4.6788461914e+003,4.6705126953e+003,4.5744873047e+003,4.6762822266e+003,4.6592309570e+003,4.6475639648e+003,4.6589741211e+003,4.6515385742e+003,4.6603847656e+003,4.6717949219e+003,4.6661538086e+003,4.6593588867e+003,4.6621796875e+003,
1.0468750000e+000,4.4805126953e+003,4.5185898438e+003,4.5185898438e+003,4.4143588867e+003,4.5391025391e+003,4.5117949219e+003,4.5000000000e+003,4.5101284180e+003,4.4992309570e+003,4.5042309570e+003,4.5214101563e+003,4.5133334961e+003,4.5008974609e+003,4.5069228516e+003,
1.0546875000e+000,4.4396152344e+003,4.4771796875e+003,4.4811538086e+003,4.3723076172e+003,4.4998715820e+003,4.4743588867e+003,4.4628203125e+003,4.4742309570e+003,4.4651284180e+003,4.4664101563e+003,4.4871796875e+003,4.4767949219e+003,4.4633334961e+003,4.4712822266e+003,
1.0625000000e+000,4.2211538086e+003,4.2402563477e+003,4.2653847656e+003,4.1589741211e+003,4.2264101563e+003,4.2507690430e+003,4.2473076172e+003,4.2651284180e+003,4.2591025391e+003,4.2411538086e+003,4.2626923828e+003,4.2682050781e+003,4.2344873047e+003,4.2653847656e+003,
1.0703125000e+000,4.1167949219e+003,4.1325639648e+003,4.1603847656e+003,4.0576923828e+003,4.1150000000e+003,4.1476923828e+003,4.1489741211e+003,4.1593588867e+003,4.1541025391e+003,4.1264101563e+003,4.1482050781e+003,4.1608974609e+003,4.1247436523e+003,4.1602563477e+003,
1.0781250000e+000,4.0611538086e+003,4.0788461914e+003,4.1008974609e+003,4.0080769043e+003,4.0761538086e+003,4.0966665039e+003,4.1035898438e+003,4.0950000000e+003,4.0934614258e+003,4.0507692871e+003,4.0789743652e+003,4.0908974609e+003,4.0693588867e+003,4.0942307129e+003,
1.0859375000e+000,4.1226923828e+003,4.1394873047e+003,4.1600000000e+003,4.0712819824e+003,4.1455126953e+003,4.1556411133e+003,4.1632050781e+003,4.1517949219e+003,4.1516665039e+003,4.1070512695e+003,4.1388461914e+003,4.1461538086e+003,4.1315385742e+003,4.1497436523e+003,
1.0937500000e+000,4.1958974609e+003,4.2029487305e+003,4.2280771484e+003,4.1379487305e+003,4.2188461914e+003,4.2230771484e+003,4.2221796875e+003,4.2279487305e+003,4.2289741211e+003,4.1946152344e+003,4.2126923828e+003,4.2171796875e+003,4.1953847656e+003,4.2215385742e+003,
1.1015625000e+000,4.1010258789e+003,4.1062822266e+003,4.1329487305e+003,4.0402563477e+003,4.1219228516e+003,4.1339741211e+003,4.1300000000e+003,4.1367949219e+003,4.1400000000e+003,4.1062822266e+003,4.1174360352e+003,4.1239741211e+003,4.0998715820e+003,4.1289741211e+003,
1.1093750000e+000,3.9287180176e+003,3.9270512695e+003,3.9573076172e+003,3.8670512695e+003,3.9497436523e+003,3.9653845215e+003,3.9647436523e+003,3.9576923828e+003,3.9664101563e+003,3.9229487305e+003,3.9362819824e+003,3.9476923828e+003,3.9223076172e+003,3.9541025391e+003,
1.1171875000e+000,3.9460256348e+003,3.9405129395e+003,3.9687180176e+003,3.8830769043e+003,3.9679487305e+003,3.9753845215e+003,3.9800000000e+003,3.9658974609e+003,3.9752563477e+003,3.9265385742e+003,3.9473076172e+003,3.9583332520e+003,3.9328205566e+003,3.9648718262e+003,
1.1250000000e+000,4.2056411133e+003,4.1950000000e+003,4.2105126953e+003,4.1248715820e+003,4.1928203125e+003,4.2083334961e+003,4.2155126953e+003,4.2129487305e+003,4.2166665039e+003,4.1793588867e+003,4.1976923828e+003,4.2003847656e+003,4.1889741211e+003,4.2053847656e+003,
1.1328125000e+000,4.1948715820e+003,4.1817949219e+003,4.2012822266e+003,4.1124360352e+003,4.1657690430e+003,4.1971796875e+003,4.2007690430e+003,4.2053847656e+003,4.2074360352e+003,4.1769228516e+003,4.1870512695e+003,4.1912822266e+003,4.1843588867e+003,4.1967949219e+003,
1.1406250000e+000,4.1301284180e+003,4.1144873047e+003,4.1400000000e+003,4.0505129395e+003,4.0964101563e+003,4.1358974609e+003,4.1367949219e+003,4.1438461914e+003,4.1448715820e+003,4.1166665039e+003,4.1232050781e+003,4.1301284180e+003,4.1234614258e+003,4.1370512695e+003,
1.1484375000e+000,4.2011538086e+003,4.1919228516e+003,4.2008974609e+003,4.1293588867e+003,4.2183334961e+003,4.2038461914e+003,4.2080771484e+003,4.2017949219e+003,4.2038461914e+003,4.1676923828e+003,4.1855126953e+003,4.1878203125e+003,4.1808974609e+003,4.1947436523e+003,
1.1562500000e+000,4.2273076172e+003,4.2178203125e+003,4.2260258789e+003,4.1535898438e+003,4.2251284180e+003,4.2294873047e+003,4.2335898438e+003,4.2294873047e+003,4.2320512695e+003,4.1982050781e+003,4.2156411133e+003,4.2150000000e+003,4.2094873047e+003,4.2226923828e+003,
1.1640625000e+000,4.2566665039e+003,4.2514101563e+003,4.2529487305e+003,4.1676923828e+003,4.2565385742e+003,4.2600000000e+003,4.2671796875e+003,4.2612822266e+003,4.2658974609e+003,4.2348715820e+003,4.2552563477e+003,4.2512822266e+003,4.2391025391e+003,4.2562822266e+003,
1.1718750000e+000,4.2466665039e+003,4.2365385742e+003,4.2458974609e+003,4.1670512695e+003,4.2450000000e+003,4.2501284180e+003,4.2530771484e+003,4.2448715820e+003,4.2512822266e+003,4.2258974609e+003,4.2393588867e+003,4.2385898438e+003,4.2320512695e+003,4.2348715820e+003,
1.1796875000e+000,4.2178203125e+003,4.2055126953e+003,4.2206411133e+003,4.1424360352e+003,4.2016665039e+003,4.2258974609e+003,4.2264101563e+003,4.2187177734e+003,4.2239741211e+003,4.1976923828e+003,4.2138461914e+003,4.2135898438e+003,4.2026923828e+003,4.2101284180e+003,
1.1875000000e+000,4.1755126953e+003,4.1635898438e+003,4.1769228516e+003,4.0802563477e+003,4.1817949219e+003,4.1807690430e+003,4.1846152344e+003,4.1783334961e+003,4.1848715820e+003,4.1521796875e+003,4.1723076172e+003,4.1765385742e+003,4.1592309570e+003,4.1783334961e+003,
1.1953125000e+000,4.1793588867e+003,4.1685898438e+003,4.1766665039e+003,4.0829487305e+003,4.1985898438e+003,4.1778203125e+003,4.1833334961e+003,4.1789741211e+003,4.1867949219e+003,4.1550000000e+003,4.1721796875e+003,4.1765385742e+003,4.1648715820e+003,4.1794873047e+003,
1.2031250000e+000,4.1787177734e+003,4.1714101563e+003,4.1739741211e+003,4.0991025391e+003,4.1912822266e+003,4.1721796875e+003,4.1782050781e+003,4.1782050781e+003,4.1826923828e+003,4.1567949219e+003,4.1705126953e+003,4.1746152344e+003,4.1688461914e+003,4.1761538086e+003,
1.2109375000e+000,4.1644873047e+003,4.1561538086e+003,4.1614101563e+003,4.0912819824e+003,4.1608974609e+003,4.1597436523e+003,4.1656411133e+003,4.1664101563e+003,4.1676923828e+003,4.1439741211e+003,4.1588461914e+003,4.1632050781e+003,4.1551284180e+003,4.1633334961e+003,
1.2187500000e+000,4.0285898438e+003,4.0017949219e+003,4.0270512695e+003,3.9530769043e+003,3.9966667480e+003,4.0317949219e+003,4.0391025391e+003,4.0315385742e+003,4.0350000000e+003,3.9996154785e+003,4.0152563477e+003,4.0280769043e+003,4.0116667480e+003,4.0301281738e+003,
1.2265625000e+000,3.9935898438e+003,3.9628205566e+003,3.9911538086e+003,3.9166667480e+003,3.9691025391e+003,3.9967949219e+003,4.0061538086e+003,3.9935898438e+003,4.0011538086e+003,3.9587180176e+003,3.9724357910e+003,3.9917949219e+003,3.9751281738e+003,3.9958974609e+003,
1.2343750000e+000,4.0330769043e+003,4.0052563477e+003,4.0230769043e+003,3.9466667480e+003,4.0278205566e+003,4.0287180176e+003,4.0398718262e+003,4.0262819824e+003,4.0362819824e+003,3.9926923828e+003,4.0070512695e+003,4.0278205566e+003,4.0141025391e+003,4.0344870605e+003,
1.2421875000e+000,4.0675642090e+003,4.0412819824e+003,4.0519230957e+003,3.9750000000e+003,4.0603845215e+003,4.0579487305e+003,4.0684614258e+003,4.0601281738e+003,4.0679487305e+003,4.0285898438e+003,4.0465385742e+003,4.0608974609e+003,4.0476923828e+003,4.0661538086e+003,
1.2500000000e+000,3.9811538086e+003,3.9405129395e+003,3.9632050781e+003,3.8912819824e+003,3.9347436523e+003,3.9710256348e+003,3.9794870605e+003,3.9775642090e+003,3.9879487305e+003,3.9432050781e+003,3.9656411133e+003,3.9738461914e+003,3.9492307129e+003,3.9715385742e+003,
1.2578125000e+000,3.9602563477e+003,3.9155129395e+003,3.9438461914e+003,3.8693588867e+003,3.9174357910e+003,3.9507692871e+003,3.9594870605e+003,3.9544870605e+003,3.9683332520e+003,3.9201281738e+003,3.9385898438e+003,3.9491025391e+003,3.9233332520e+003,3.9485898438e+003,
1.2656250000e+000,3.9807692871e+003,3.9351281738e+003,3.9642307129e+003,3.8848718262e+003,3.9534614258e+003,3.9684614258e+003,3.9783332520e+003,3.9717949219e+003,3.9866667480e+003,3.9387180176e+003,3.9534614258e+003,3.9643588867e+003,3.9406411133e+003,3.9669230957e+003,
1.2734375000e+000,4.0253845215e+003,3.9797436523e+003,4.0064101563e+003,3.9243588867e+003,4.0137180176e+003,4.0065385742e+003,4.0187180176e+003,4.0133332520e+003,4.0264101563e+003,3.9810256348e+003,3.9939743652e+003,4.0042307129e+003,3.9841025391e+003,4.0092307129e+003,
1.2812500000e+000,4.1024360352e+003,4.0617949219e+003,4.0733332520e+003,4.0126923828e+003,4.0491025391e+003,4.0771794434e+003,4.0928205566e+003,4.0865385742e+003,4.0942307129e+003,4.0517949219e+003,4.0629487305e+003,4.0773076172e+003,4.0635898438e+003,4.0805129395e+003,
1.2890625000e+000,4.2051284180e+003,4.1679487305e+003,4.1801284180e+003,4.1146152344e+003,4.2024360352e+003,4.1926923828e+003,4.1917949219e+003,4.1919228516e+003,4.1952563477e+003,4.1662822266e+003,4.1801284180e+003,4.1841025391e+003,4.1647436523e+003,4.1817949219e+003,
1.2968750000e+000,4.1446152344e+003,4.1048715820e+003,4.1211538086e+003,4.0597436523e+003,4.1374360352e+003,4.1356411133e+003,4.1335898438e+003,4.1350000000e+003,4.1369228516e+003,4.1062822266e+003,4.1182050781e+003,4.1251284180e+003,4.1053847656e+003,4.1232050781e+003,
1.3046875000e+000,4.0571794434e+003,4.0201281738e+003,4.0338461914e+003,3.9752563477e+003,4.0148718262e+003,4.0467949219e+003,4.0553845215e+003,4.0464101563e+003,4.0489743652e+003,4.0158974609e+003,4.0214101563e+003,4.0375642090e+003,4.0207692871e+003,4.0387180176e+003,
1.3125000000e+000,4.2161538086e+003,4.1892309570e+003,4.1838461914e+003,4.1215385742e+003,4.2023076172e+003,4.1903847656e+003,4.1997436523e+003,4.1966665039e+003,4.2021796875e+003,4.1829487305e+003,4.1837177734e+003,4.1880771484e+003,4.1793588867e+003,4.1884614258e+003,
1.3203125000e+000,4.1371796875e+003,4.1069228516e+003,4.1096152344e+003,4.0441025391e+003,4.1285898438e+003,4.1202563477e+003,4.1255126953e+003,4.1229487305e+003,4.1291025391e+003,4.1071796875e+003,4.1085898438e+003,4.1135898438e+003,4.1014101563e+003,4.1141025391e+003,
1.3281250000e+000,3.9852563477e+003,3.9444870605e+003,3.9629487305e+003,3.8888461914e+003,3.9532050781e+003,3.9730769043e+003,3.9810256348e+003,3.9679487305e+003,3.9753845215e+003,3.9446154785e+003,3.9585898438e+003,3.9666667480e+003,3.9461538086e+003,3.9697436523e+003,
1.3359375000e+000,3.9832050781e+003,3.9385898438e+003,3.9589743652e+003,3.8839743652e+003,3.9367949219e+003,3.9635898438e+003,3.9764101563e+003,3.9605129395e+003,3.9689743652e+003,3.9346154785e+003,3.9561538086e+003,3.9633332520e+003,3.9425642090e+003,3.9660256348e+003,
1.3437500000e+000,4.0394870605e+003,3.9891025391e+003,4.0157692871e+003,3.9439743652e+003,4.0067949219e+003,4.0134614258e+003,4.0276923828e+003,4.0206411133e+003,4.0273076172e+003,3.9914101563e+003,4.0084614258e+003,4.0165385742e+003,4.0019230957e+003,4.0152563477e+003,
1.3515625000e+000,4.0220512695e+003,3.9703845215e+003,4.0000000000e+003,3.9294870605e+003,3.9983332520e+003,4.0006411133e+003,4.0119230957e+003,4.0060256348e+003,4.0125642090e+003,3.9791025391e+003,3.9893588867e+003,4.0010256348e+003,3.9825642090e+003,3.9998718262e+003,
1.3593750000e+000,3.9952563477e+003,3.9448718262e+003,3.9669230957e+003,3.9053845215e+003,3.9602563477e+003,3.9733332520e+003,3.9848718262e+003,3.9750000000e+003,3.9833332520e+003,3.9532050781e+003,3.9553845215e+003,3.9739743652e+003,3.9488461914e+003,3.9732050781e+003,
1.3671875000e+000,4.0185898438e+003,3.9694870605e+003,3.9839743652e+003,3.9266667480e+003,3.9696154785e+003,3.9911538086e+003,4.0056411133e+003,3.9915385742e+003,3.9991025391e+003,3.9679487305e+003,3.9719230957e+003,3.9914101563e+003,3.9697436523e+003,3.9908974609e+003,
1.3750000000e+000,4.2656411133e+003,4.2248715820e+003,4.2247436523e+003,4.1648715820e+003,4.2306411133e+003,4.2256411133e+003,4.2343588867e+003,4.2228203125e+003,4.2189741211e+003,4.2017949219e+003,4.2210258789e+003,4.2188461914e+003,4.2174360352e+003,4.2207690430e+003,
1.3828125000e+000,4.3156411133e+003,4.2832050781e+003,4.2787177734e+003,4.2201284180e+003,4.3015385742e+003,4.2784614258e+003,4.2793588867e+003,4.2779487305e+003,4.2719228516e+003,4.2657690430e+003,4.2829487305e+003,4.2746152344e+003,4.2735898438e+003,4.2767949219e+003,
1.3906250000e+000,4.2924360352e+003,4.2682050781e+003,4.2616665039e+003,4.2062822266e+003,4.2905126953e+003,4.2610258789e+003,4.2567949219e+003,4.2644873047e+003,4.2583334961e+003,4.2578203125e+003,4.2691025391e+003,4.2632050781e+003,4.2578203125e+003,4.2638461914e+003,
1.3984375000e+000,4.2065385742e+003,4.1861538086e+003,4.1821796875e+003,4.1293588867e+003,4.2007690430e+003,4.1819228516e+003,4.1783334961e+003,4.1882050781e+003,4.1841025391e+003,4.1793588867e+003,4.1855126953e+003,4.1883334961e+003,4.1767949219e+003,4.1864101563e+003,
1.4062500000e+000,4.1444873047e+003,4.1080771484e+003,4.1185898438e+003,4.0660256348e+003,4.1138461914e+003,4.1302563477e+003,4.1398715820e+003,4.1267949219e+003,4.1282050781e+003,4.1039741211e+003,4.1146152344e+003,4.1160258789e+003,4.1056411133e+003,4.1128203125e+003,
1.4140625000e+000,4.2183334961e+003,4.1956411133e+003,4.1923076172e+003,4.1265385742e+003,4.1852563477e+003,4.1902563477e+003,4.1950000000e+003,4.1983334961e+003,4.2008974609e+003,4.1902563477e+003,4.1892309570e+003,4.1900000000e+003,4.1758974609e+003,4.1891025391e+003,
1.4218750000e+000,4.1891025391e+003,4.1664101563e+003,4.1660258789e+003,4.0983334961e+003,4.1506411133e+003,4.1579487305e+003,4.1670512695e+003,4.1678203125e+003,4.1733334961e+003,4.1607690430e+003,4.1629487305e+003,4.1606411133e+003,4.1471796875e+003,4.1616665039e+003,
1.4296875000e+000,4.2078203125e+003,4.1858974609e+003,4.1889741211e+003,4.1221796875e+003,4.1898715820e+003,4.1751284180e+003,4.1855126953e+003,4.1817949219e+003,4.1878203125e+003,4.1784614258e+003,4.1826923828e+003,4.1789741211e+003,4.1705126953e+003,4.1857690430e+003,
1.4375000000e+000,4.2941025391e+003,4.2793588867e+003,4.2758974609e+003,4.1974360352e+003,4.2747436523e+003,4.2624360352e+003,4.2646152344e+003,4.2630771484e+003,4.2641025391e+003,4.2608974609e+003,4.2783334961e+003,4.2706411133e+003,4.2494873047e+003,4.2689741211e+003,
1.4453125000e+000,4.2779487305e+003,4.2620512695e+003,4.2635898438e+003,4.1856411133e+003,4.2503847656e+003,4.2465385742e+003,4.2503847656e+003,4.2483334961e+003,4.2494873047e+003,4.2474360352e+003,4.2646152344e+003,4.2564101563e+003,4.2356411133e+003,4.2517949219e+003,
1.4531250000e+000,4.2810258789e+003,4.2696152344e+003,4.2716665039e+003,4.2017949219e+003,4.2666665039e+003,4.2521796875e+003,4.2580771484e+003,4.2571796875e+003,4.2564101563e+003,4.2585898438e+003,4.2610258789e+003,4.2588461914e+003,4.2528203125e+003,4.2575639648e+003,
1.4609375000e+000,4.2997436523e+003,4.2905126953e+003,4.2919228516e+003,4.2217949219e+003,4.2906411133e+003,4.2715385742e+003,4.2784614258e+003,4.2788461914e+003,4.2758974609e+003,4.2783334961e+003,4.2758974609e+003,4.2773076172e+003,4.2744873047e+003,4.2788461914e+003,
1.4687500000e+000,4.3247436523e+003,4.3134614258e+003,4.3185898438e+003,4.2341025391e+003,4.2883334961e+003,4.2937177734e+003,4.3020512695e+003,4.3028203125e+003,4.2971796875e+003,4.2943588867e+003,4.3015385742e+003,4.3057690430e+003,4.2892309570e+003,4.3088461914e+003,
1.4765625000e+000,4.3196152344e+003,4.3107690430e+003,4.3125639648e+003,4.2312822266e+003,4.2876923828e+003,4.2884614258e+003,4.2953847656e+003,4.2960258789e+003,4.2912822266e+003,4.2885898438e+003,4.2958974609e+003,4.3017949219e+003,4.2841025391e+003,4.3034614258e+003,
1.4843750000e+000,4.2923076172e+003,4.2875639648e+003,4.2894873047e+003,4.2144873047e+003,4.2884614258e+003,4.2643588867e+003,4.2692309570e+003,4.2670512695e+003,4.2634614258e+003,4.2634614258e+003,4.2682050781e+003,4.2771796875e+003,4.2614101563e+003,4.2747436523e+003,
1.4921875000e+000,4.2791025391e+003,4.2708974609e+003,4.2806411133e+003,4.2010258789e+003,4.2798715820e+003,4.2526923828e+003,4.2579487305e+003,4.2534614258e+003,4.2503847656e+003,4.2501284180e+003,4.2576923828e+003,4.2638461914e+003,4.2484614258e+003,4.2610258789e+003,
1.5000000000e+000,4.2711538086e+003,4.2467949219e+003,4.2716665039e+003,4.1796152344e+003,4.2471796875e+003,4.2483334961e+003,4.2498715820e+003,4.2462822266e+003,4.2443588867e+003,4.2371796875e+003,4.2544873047e+003,4.2512822266e+003,4.2288461914e+003,4.2552563477e+003,
1.5078125000e+000,4.2650000000e+003,4.2435898438e+003,4.2637177734e+003,4.1752563477e+003,4.2417949219e+003,4.2420512695e+003,4.2439741211e+003,4.2406411133e+003,4.2376923828e+003,4.2300000000e+003,4.2450000000e+003,4.2467949219e+003,4.2196152344e+003,4.2511538086e+003,
1.5156250000e+000,4.2592309570e+003,4.2437177734e+003,4.2576923828e+003,4.1729487305e+003,4.2432050781e+003,4.2339741211e+003,4.2387177734e+003,4.2338461914e+003,4.2307690430e+003,4.2237177734e+003,4.2342309570e+003,4.2428203125e+003,4.2134614258e+003,4.2462822266e+003,
1.5234375000e+000,4.2592309570e+003,4.2491025391e+003,4.2587177734e+003,4.1752563477e+003,4.2511538086e+003,4.2311538086e+003,4.2394873047e+003,4.2323076172e+003,4.2311538086e+003,4.2244873047e+003,4.2298715820e+003,4.2432050781e+003,4.2165385742e+003,4.2456411133e+003,
1.5312500000e+000,4.3039741211e+003,4.2946152344e+003,4.3015385742e+003,4.2287177734e+003,4.2750000000e+003,4.2876923828e+003,4.2900000000e+003,4.2812822266e+003,4.2801284180e+003,4.2728203125e+003,4.2841025391e+003,4.2900000000e+003,4.2674360352e+003,4.2874360352e+003,
1.5390625000e+000,4.3226923828e+003,4.3147436523e+003,4.3187177734e+003,4.2529487305e+003,4.2906411133e+003,4.3069228516e+003,4.3079487305e+003,4.3010258789e+003,4.2976923828e+003,4.2925639648e+003,4.3065385742e+003,4.3074360352e+003,4.2835898438e+003,4.3067949219e+003,
1.5468750000e+000,4.3603847656e+003,4.3558974609e+003,4.3588461914e+003,4.2908974609e+003,4.3569228516e+003,4.3393588867e+003,4.3461538086e+003,4.3408974609e+003,4.3406411133e+003,4.3374360352e+003,4.3373076172e+003,4.3387177734e+003,4.3320512695e+003,4.3439741211e+003,
1.5546875000e+000,4.3807690430e+003,4.3810258789e+003,4.3812822266e+003,4.3071796875e+003,4.3924360352e+003,4.3593588867e+003,4.3591025391e+003,4.3624360352e+003,4.3573076172e+003,4.3603847656e+003,4.3648715820e+003,4.3676923828e+003,4.3503847656e+003,4.3721796875e+003,
1.5625000000e+000,4.3174360352e+003,4.3173076172e+003,4.3206411133e+003,4.2464101563e+003,4.3220512695e+003,4.2974360352e+003,4.2947436523e+003,4.3026923828e+003,4.2958974609e+003,4.2973076172e+003,4.3076923828e+003,4.3088461914e+003,4.2847436523e+003,4.3142309570e+003,
1.5703125000e+000,3.8951281738e+003,3.8710256348e+003,3.9074357910e+003,3.8296154785e+003,3.8676923828e+003,3.8893588867e+003,3.8903845215e+003,3.8879487305e+003,3.8901281738e+003,3.8617949219e+003,3.8703845215e+003,3.8907692871e+003,3.8658974609e+003,3.8993588867e+003,
1.5781250000e+000,3.8329487305e+003,3.7947436523e+003,3.8283332520e+003,3.7588461914e+003,3.8080769043e+003,3.8157692871e+003,3.8191025391e+003,3.8111538086e+003,3.8143588867e+003,3.7819230957e+003,3.7820512695e+003,3.8108974609e+003,3.7896154785e+003,3.8208974609e+003,
1.5859375000e+000,3.8500000000e+003,3.8112819824e+003,3.8401281738e+003,3.7702563477e+003,3.8146154785e+003,3.8247436523e+003,3.8326923828e+003,3.8265385742e+003,3.8300000000e+003,3.7961538086e+003,3.7956411133e+003,3.8253845215e+003,3.8006411133e+003,3.8341025391e+003,
1.5937500000e+000,3.8111538086e+003,3.7588461914e+003,3.7938461914e+003,3.7238461914e+003,3.7397436523e+003,3.7839743652e+003,3.8010256348e+003,3.7875642090e+003,3.7983332520e+003,3.7460256348e+003,3.7501281738e+003,3.7816667480e+003,3.7553845215e+003,3.7842307129e+003,
1.6015625000e+000,3.8283332520e+003,3.7710256348e+003,3.8080769043e+003,3.7420512695e+003,3.7715385742e+003,3.8044870605e+003,3.8188461914e+003,3.8006411133e+003,3.8123076172e+003,3.7596154785e+003,3.7639743652e+003,3.7948718262e+003,3.7700000000e+003,3.7965385742e+003,
1.6093750000e+000,3.9129487305e+003,3.8537180176e+003,3.8835898438e+003,3.8243588867e+003,3.9025642090e+003,3.8846154785e+003,3.8942307129e+003,3.8721794434e+003,3.8850000000e+003,3.8441025391e+003,3.8462819824e+003,3.8674357910e+003,3.8502563477e+003,3.8741025391e+003,
1.6171875000e+000,3.9339743652e+003,3.8737180176e+003,3.8996154785e+003,3.8439743652e+003,3.9297436523e+003,3.8983332520e+003,3.9076923828e+003,3.8875642090e+003,3.9017949219e+003,3.8670512695e+003,3.8689743652e+003,3.8825642090e+003,3.8708974609e+003,3.8921794434e+003,
1.6250000000e+000,3.9220512695e+003,3.8579487305e+003,3.8841025391e+003,3.8341025391e+003,3.9057692871e+003,3.8794870605e+003,3.8891025391e+003,3.8720512695e+003,3.8876923828e+003,3.8553845215e+003,3.8571794434e+003,3.8670512695e+003,3.8588461914e+003,3.8767949219e+003,
1.6328125000e+000,3.8556411133e+003,3.7833332520e+003,3.8158974609e+003,3.7816667480e+003,3.8012819824e+003,3.8108974609e+003,3.8167949219e+003,3.8050000000e+003,3.8219230957e+003,3.7820512695e+003,3.7793588867e+003,3.8020512695e+003,3.7902563477e+003,3.8029487305e+003,
1.6406250000e+000,3.8448718262e+003,3.7741025391e+003,3.8043588867e+003,3.7742307129e+003,3.7884614258e+003,3.8033332520e+003,3.8061538086e+003,3.7951281738e+003,3.8117949219e+003,3.7675642090e+003,3.7615385742e+003,3.7928205566e+003,3.7789743652e+003,3.7892307129e+003,
1.6484375000e+000,3.8564101563e+003,3.7905129395e+003,3.8129487305e+003,3.7816667480e+003,3.8096154785e+003,3.8166667480e+003,3.8174357910e+003,3.8065385742e+003,3.8225642090e+003,3.7775642090e+003,3.7698718262e+003,3.8047436523e+003,3.7911538086e+003,3.7985898438e+003,
1.6562500000e+000,3.8288461914e+003,3.7607692871e+003,3.7806411133e+003,3.7398718262e+003,3.7330769043e+003,3.7791025391e+003,3.7916667480e+003,3.7829487305e+003,3.7923076172e+003,3.7538461914e+003,3.7550000000e+003,3.7824357910e+003,3.7633332520e+003,3.7789743652e+003,
1.6640625000e+000,3.8111538086e+003,3.7426923828e+003,3.7632050781e+003,3.7275642090e+003,3.7225642090e+003,3.7653845215e+003,3.7762819824e+003,3.7694870605e+003,3.7780769043e+003,3.7382050781e+003,3.7351281738e+003,3.7651281738e+003,3.7479487305e+003,3.7624357910e+003,
1.6718750000e+000,3.7339743652e+003,3.6546154785e+003,3.6862819824e+003,3.6512819824e+003,3.7016667480e+003,3.6911538086e+003,3.7047436523e+003,3.6914101563e+003,3.7041025391e+003,3.6585898438e+003,3.6478205566e+003,3.6806411133e+003,3.6706411133e+003,3.6815385742e+003,
1.6796875000e+000,3.6694870605e+003,3.5780769043e+003,3.6062819824e+003,3.5593588867e+003,3.6008974609e+003,3.6124357910e+003,3.6310256348e+003,3.6187180176e+003,3.6379487305e+003,3.5897436523e+003,3.5810256348e+003,3.6083332520e+003,3.5976923828e+003,3.6065385742e+003,
1.6875000000e+000,3.6426923828e+003,3.5482050781e+003,3.5760256348e+003,3.5253845215e+003,3.5626923828e+003,3.5801281738e+003,3.6015385742e+003,3.5882050781e+003,3.6105129395e+003,3.5575642090e+003,3.5508974609e+003,3.5787180176e+003,3.5669230957e+003,3.5767949219e+003,
1.6953125000e+000,3.6043588867e+003,3.4966667480e+003,3.5264101563e+003,3.4978205566e+003,3.5251281738e+003,3.5270512695e+003,3.5515385742e+003,3.5330769043e+003,3.5650000000e+003,3.4993588867e+003,3.4989743652e+003,3.5258974609e+003,3.5058974609e+003,3.5262819824e+003,
1.7031250000e+000,3.6205129395e+003,3.4973076172e+003,3.5365385742e+003,3.5057692871e+003,3.4933332520e+003,3.5337180176e+003,3.5558974609e+003,3.5382050781e+003,3.5658974609e+003,3.5002563477e+003,3.4915385742e+003,3.5344870605e+003,3.5166667480e+003,3.5351281738e+003,
1.7109375000e+000,3.6487180176e+003,3.5210256348e+003,3.5637180176e+003,3.5267949219e+003,3.5103845215e+003,3.5580769043e+003,3.5817949219e+003,3.5637180176e+003,3.5897436523e+003,3.5265385742e+003,3.5155129395e+003,3.5610256348e+003,3.5470512695e+003,3.5617949219e+003,
1.7187500000e+000,3.6782050781e+003,3.5498718262e+003,3.5916667480e+003,3.5530769043e+003,3.5417949219e+003,3.5853845215e+003,3.6105129395e+003,3.5926923828e+003,3.6191025391e+003,3.5592307129e+003,3.5470512695e+003,3.5903845215e+003,3.5793588867e+003,3.5912819824e+003,
1.7265625000e+000,3.7023076172e+003,3.5765385742e+003,3.6121794434e+003,3.5770512695e+003,3.5979487305e+003,3.6093588867e+003,3.6335898438e+003,3.6189743652e+003,3.6484614258e+003,3.5929487305e+003,3.5819230957e+003,3.6170512695e+003,3.6047436523e+003,3.6184614258e+003,
1.7343750000e+000,3.7412819824e+003,3.6010256348e+003,3.6433332520e+003,3.6038461914e+003,3.6428205566e+003,3.6364101563e+003,3.6579487305e+003,3.6491025391e+003,3.6712819824e+003,3.6206411133e+003,3.6153845215e+003,3.6505129395e+003,3.6267949219e+003,3.6482050781e+003,
1.7421875000e+000,3.7655129395e+003,3.6220512695e+003,3.6655129395e+003,3.6269230957e+003,3.6514101563e+003,3.6541025391e+003,3.6789743652e+003,3.6705129395e+003,3.6889743652e+003,3.6406411133e+003,3.6379487305e+003,3.6747436523e+003,3.6473076172e+003,3.6693588867e+003,
1.7500000000e+000,3.7850000000e+003,3.6430769043e+003,3.6837180176e+003,3.6469230957e+003,3.6592307129e+003,3.6689743652e+003,3.6970512695e+003,3.6880769043e+003,3.7047436523e+003,3.6579487305e+003,3.6574357910e+003,3.6960256348e+003,3.6666667480e+003,3.6884614258e+003,
1.7578125000e+000,3.8148718262e+003,3.6806411133e+003,3.7117949219e+003,3.6741025391e+003,3.6842307129e+003,3.6964101563e+003,3.7234614258e+003,3.7134614258e+003,3.7319230957e+003,3.6869230957e+003,3.6830769043e+003,3.7243588867e+003,3.7007692871e+003,3.7170512695e+003,
1.7656250000e+000,3.8264101563e+003,3.6921794434e+003,3.7234614258e+003,3.6825642090e+003,3.6951281738e+003,3.7091025391e+003,3.7329487305e+003,3.7230769043e+003,3.7428205566e+003,3.6992307129e+003,3.6916667480e+003,3.7332050781e+003,3.7126923828e+003,3.7256411133e+003,
1.7734375000e+000,3.8317949219e+003,3.6948718262e+003,3.7298718262e+003,3.6858974609e+003,3.6991025391e+003,3.7160256348e+003,3.7380769043e+003,3.7274357910e+003,3.7473076172e+003,3.7053845215e+003,3.6982050781e+003,3.7383332520e+003,3.7164101563e+003,3.7287180176e+003,
1.7812500000e+000,3.8982050781e+003,3.7733332520e+003,3.7976923828e+003,3.7711538086e+003,3.7647436523e+003,3.7860256348e+003,3.8097436523e+003,3.7974357910e+003,3.8129487305e+003,3.7817949219e+003,3.7852563477e+003,3.8150000000e+003,3.7915385742e+003,3.8084614258e+003,
1.7890625000e+000,3.8839743652e+003,3.7560256348e+003,3.7856411133e+003,3.7615385742e+003,3.7461538086e+003,3.7748718262e+003,3.7970512695e+003,3.7864101563e+003,3.8032050781e+003,3.7715385742e+003,3.7635898438e+003,3.8016667480e+003,3.7785898438e+003,3.7946154785e+003,
1.7968750000e+000,3.7670512695e+003,3.6376923828e+003,3.6665385742e+003,3.6376923828e+003,3.6576923828e+003,3.6576923828e+003,3.6851281738e+003,3.6703845215e+003,3.6906411133e+003,3.6501281738e+003,3.6446154785e+003,3.6810256348e+003,3.6532050781e+003,3.6738461914e+003,
1.8046875000e+000,3.8456411133e+003,3.7208974609e+003,3.7401281738e+003,3.7107692871e+003,3.7315385742e+003,3.7276923828e+003,3.7503845215e+003,3.7397436523e+003,3.7520512695e+003,3.7214101563e+003,3.7169230957e+003,3.7473076172e+003,3.7235898438e+003,3.7500000000e+003,
1.8125000000e+000,3.8782050781e+003,3.7452563477e+003,3.7707692871e+003,3.7420512695e+003,3.7448718262e+003,3.7516667480e+003,3.7719230957e+003,3.7628205566e+003,3.7748718262e+003,3.7462819824e+003,3.7424357910e+003,3.7734614258e+003,3.7500000000e+003,3.7787180176e+003,
1.8203125000e+000,3.8626923828e+003,3.7250000000e+003,3.7393588867e+003,3.7206411133e+003,3.6901281738e+003,3.7107692871e+003,3.7307692871e+003,3.7206411133e+003,3.7341025391e+003,3.7076923828e+003,3.7110256348e+003,3.7414101563e+003,3.7161538086e+003,3.7562819824e+003,
1.8281250000e+000,3.9416667480e+003,3.8008974609e+003,3.8023076172e+003,3.7779487305e+003,3.7758974609e+003,3.7674357910e+003,3.7864101563e+003,3.7762819824e+003,3.7823076172e+003,3.7666667480e+003,3.7566667480e+003,3.8042307129e+003,3.7820512695e+003,3.8296154785e+003,
1.8359375000e+000,3.9798718262e+003,3.8302563477e+003,3.8364101563e+003,3.8082050781e+003,3.8084614258e+003,3.7969230957e+003,3.8144870605e+003,3.8051281738e+003,3.8101281738e+003,3.7964101563e+003,3.7911538086e+003,3.8335898438e+003,3.8142307129e+003,3.8635898438e+003,
1.8437500000e+000,3.9985898438e+003,3.8444870605e+003,3.8519230957e+003,3.8241025391e+003,3.8123076172e+003,3.8098718262e+003,3.8256411133e+003,3.8169230957e+003,3.8220512695e+003,3.8069230957e+003,3.8115385742e+003,3.8444870605e+003,3.8253845215e+003,3.8793588867e+003,
1.8515625000e+000,4.0087180176e+003,3.8648718262e+003,3.8585898438e+003,3.8414101563e+003,3.7957692871e+003,3.8178205566e+003,3.8280769043e+003,3.8250000000e+003,3.8311538086e+003,3.8076923828e+003,3.8237180176e+003,3.8491025391e+003,3.8232050781e+003,3.8894870605e+003,
1.8593750000e+000,4.0223076172e+003,3.8853845215e+003,3.8726923828e+003,3.8582050781e+003,3.8142307129e+003,3.8312819824e+003,3.8385898438e+003,3.8400000000e+003,3.8467949219e+003,3.8214101563e+003,3.8346154785e+003,3.8643588867e+003,3.8357692871e+003,3.9042307129e+003,
1.8671875000e+000,4.0603845215e+003,3.9250000000e+003,3.9166667480e+003,3.8917949219e+003,3.8792307129e+003,3.8655129395e+003,3.8735898438e+003,3.8746154785e+003,3.8834614258e+003,3.8657692871e+003,3.8703845215e+003,3.9061538086e+003,3.8792307129e+003,3.9414101563e+003,
1.8750000000e+000,4.0780769043e+003,3.9434614258e+003,3.9378205566e+003,3.9066667480e+003,3.8998718262e+003,3.8830769043e+003,3.8939743652e+003,3.8888461914e+003,3.8996154785e+003,3.8885898438e+003,3.8917949219e+003,3.9244870605e+003,3.9005129395e+003,3.9575642090e+003,
1.8828125000e+000,4.1242309570e+003,4.0137180176e+003,3.9891025391e+003,3.9734614258e+003,3.9584614258e+003,3.9553845215e+003,3.9632050781e+003,3.9546154785e+003,3.9650000000e+003,3.9603845215e+003,3.9529487305e+003,3.9814101563e+003,3.9652563477e+003,4.0116667480e+003,
1.8906250000e+000,4.1226923828e+003,4.0152563477e+003,3.9924357910e+003,3.9826923828e+003,3.9767949219e+003,3.9641025391e+003,3.9711538086e+003,3.9665385742e+003,3.9744870605e+003,3.9688461914e+003,3.9571794434e+003,3.9887180176e+003,3.9717949219e+003,4.0155129395e+003,
1.8984375000e+000,4.1083334961e+003,3.9997436523e+003,3.9855129395e+003,3.9746154785e+003,3.9785898438e+003,3.9574357910e+003,3.9661538086e+003,3.9644870605e+003,3.9698718262e+003,3.9650000000e+003,3.9520512695e+003,3.9834614258e+003,3.9644870605e+003,4.0052563477e+003,
1.9062500000e+000,3.9279487305e+003,3.8379487305e+003,3.8306411133e+003,3.8260256348e+003,3.8146154785e+003,3.8224357910e+003,3.8357692871e+003,3.8324357910e+003,3.8332050781e+003,3.8184614258e+003,3.8056411133e+003,3.8323076172e+003,3.8124357910e+003,3.8401281738e+003,
1.9140625000e+000,3.9356411133e+003,3.8438461914e+003,3.8376923828e+003,3.8417949219e+003,3.8393588867e+003,3.8305129395e+003,3.8443588867e+003,3.8398718262e+003,3.8416667480e+003,3.8255129395e+003,3.8107692871e+003,3.8406411133e+003,3.8219230957e+003,3.8492307129e+003,
1.9218750000e+000,4.0002563477e+003,3.9093588867e+003,3.9024357910e+003,3.9032050781e+003,3.9028205566e+003,3.8966667480e+003,3.9106411133e+003,3.9116667480e+003,3.9135898438e+003,3.9073076172e+003,3.8957692871e+003,3.9155129395e+003,3.8971794434e+003,3.9201281738e+003,
1.9296875000e+000,3.9462819824e+003,3.8570512695e+003,3.8607692871e+003,3.8561538086e+003,3.8496154785e+003,3.8558974609e+003,3.8657692871e+003,3.8689743652e+003,3.8720512695e+003,3.8611538086e+003,3.8532050781e+003,3.8717949219e+003,3.8492307129e+003,3.8732050781e+003,
1.9375000000e+000,3.9388461914e+003,3.8478205566e+003,3.8520512695e+003,3.8525642090e+003,3.8575642090e+003,3.8484614258e+003,3.8576923828e+003,3.8585898438e+003,3.8661538086e+003,3.8530769043e+003,3.8457692871e+003,3.8598718262e+003,3.8438461914e+003,3.8633332520e+003,
1.9453125000e+000,3.9492307129e+003,3.8555129395e+003,3.8551281738e+003,3.8526923828e+003,3.8547436523e+003,3.8511538086e+003,3.8644870605e+003,3.8603845215e+003,3.8664101563e+003,3.8550000000e+003,3.8375642090e+003,3.8611538086e+003,3.8512819824e+003,3.8630769043e+003,
1.9531250000e+000,3.9698718262e+003,3.8767949219e+003,3.8769230957e+003,3.8565385742e+003,3.8591025391e+003,3.8679487305e+003,3.8834614258e+003,3.8862819824e+003,3.8866667480e+003,3.8807692871e+003,3.8550000000e+003,3.8884614258e+003,3.8666667480e+003,3.8855129395e+003,
1.9609375000e+000,3.9732050781e+003,3.8812819824e+003,3.8812819824e+003,3.8606411133e+003,3.8796154785e+003,3.8744870605e+003,3.8898718262e+003,3.8937180176e+003,3.8947436523e+003,3.8900000000e+003,3.8674357910e+003,3.8958974609e+003,3.8739743652e+003,3.8912819824e+003,
1.9687500000e+000,3.9897436523e+003,3.8988461914e+003,3.8991025391e+003,3.8783332520e+003,3.9139743652e+003,3.8958974609e+003,3.9102563477e+003,3.9128205566e+003,3.9143588867e+003,3.9114101563e+003,3.8929487305e+003,3.9148718262e+003,3.8955129395e+003,3.9092307129e+003,
1.9765625000e+000,4.0632050781e+003,3.9771794434e+003,3.9770512695e+003,3.9523076172e+003,3.9923076172e+003,3.9775642090e+003,3.9903845215e+003,3.9892307129e+003,3.9906411133e+003,3.9933332520e+003,3.9760256348e+003,3.9887180176e+003,3.9778205566e+003,3.9824357910e+003,
1.9843750000e+000,4.0320512695e+003,3.9558974609e+003,3.9496154785e+003,3.9335898438e+003,3.9519230957e+003,3.9508974609e+003,3.9688461914e+003,3.9703845215e+003,3.9719230957e+003,3.9678205566e+003,3.9400000000e+003,3.9576923828e+003,3.9519230957e+003,3.9503845215e+003,
1.9921875000e+000,3.9807692871e+003,3.9034614258e+003,3.8979487305e+003,3.8858974609e+003,3.9160256348e+003,3.9043588867e+003,3.9217949219e+003,3.9224357910e+003,3.9253845215e+003,3.9158974609e+003,3.8871794434e+003,3.9055129395e+003,3.8998718262e+003,3.8967949219e+003,
2.0000000000e+000,3.9361538086e+003,3.8555129395e+003,3.8551281738e+003,3.8420512695e+003,3.8850000000e+003,3.8671794434e+003,3.8819230957e+003,3.8797436523e+003,3.8844870605e+003,3.8710256348e+003,3.8435898438e+003,3.8606411133e+003,3.8532050781e+003,3.8501281738e+003,
2.0078125000e+000,3.8855129395e+003,3.7998718262e+003,3.8130769043e+003,3.7855129395e+003,3.8233332520e+003,3.8270512695e+003,3.8393588867e+003,3.8292307129e+003,3.8367949219e+003,3.8203845215e+003,3.7970512695e+003,3.8115385742e+003,3.7976923828e+003,3.7997436523e+003,
2.0156250000e+000,3.8742307129e+003,3.7910256348e+003,3.8028205566e+003,3.7719230957e+003,3.7942307129e+003,3.8139743652e+003,3.8291025391e+003,3.8175642090e+003,3.8258974609e+003,3.8092307129e+003,3.7857692871e+003,3.7997436523e+003,3.7866667480e+003,3.7900000000e+003,
2.0234375000e+000,3.8687180176e+003,3.7906411133e+003,3.7935898438e+003,3.7670512695e+003,3.7788461914e+003,3.8039743652e+003,3.8224357910e+003,3.8121794434e+003,3.8208974609e+003,3.8050000000e+003,3.7791025391e+003,3.7921794434e+003,3.7830769043e+003,3.7853845215e+003,
2.0312500000e+000,3.8724357910e+003,3.7823076172e+003,3.7988461914e+003,3.7741025391e+003,3.8270512695e+003,3.8124357910e+003,3.8230769043e+003,3.8180769043e+003,3.8306411133e+003,3.8125642090e+003,3.7756411133e+003,3.7978205566e+003,3.7908974609e+003,3.7933332520e+003,
2.0390625000e+000,3.8866667480e+003,3.7905129395e+003,3.8103845215e+003,3.7865385742e+003,3.8166667480e+003,3.8182050781e+003,3.8319230957e+003,3.8285898438e+003,3.8416667480e+003,3.8244870605e+003,3.7855129395e+003,3.8103845215e+003,3.8057692871e+003,3.8070512695e+003,
2.0468750000e+000,3.9765385742e+003,3.8876923828e+003,3.8889743652e+003,3.8771794434e+003,3.8865385742e+003,3.8952563477e+003,3.9105129395e+003,3.9065385742e+003,3.9189743652e+003,3.9100000000e+003,3.8826923828e+003,3.9025642090e+003,3.8933332520e+003,3.8939743652e+003,
2.0546875000e+000,4.1360258789e+003,4.0717949219e+003,4.0557692871e+003,4.0333332520e+003,4.0951281738e+003,4.0675642090e+003,4.0741025391e+003,4.0750000000e+003,4.0793588867e+003,4.0879487305e+003,4.0602563477e+003,4.0714101563e+003,4.0614101563e+003,4.0585898438e+003,
2.0625000000e+000,4.1441025391e+003,4.0810256348e+003,4.0661538086e+003,4.0439743652e+003,4.0985898438e+003,4.0756411133e+003,4.0825642090e+003,4.0869230957e+003,4.0874357910e+003,4.1014101563e+003,4.0696154785e+003,4.0830769043e+003,4.0728205566e+003,4.0679487305e+003,
2.0703125000e+000,4.1048715820e+003,4.0305129395e+003,4.0320512695e+003,4.0014101563e+003,4.0151281738e+003,4.0348718262e+003,4.0421794434e+003,4.0479487305e+003,4.0479487305e+003,4.0619230957e+003,4.0383332520e+003,4.0467949219e+003,4.0392307129e+003,4.0308974609e+003,
2.0781250000e+000,4.0953845215e+003,4.0230769043e+003,4.0255129395e+003,3.9896154785e+003,4.0151281738e+003,4.0265385742e+003,4.0351281738e+003,4.0405129395e+003,4.0433332520e+003,4.0552563477e+003,4.0334614258e+003,4.0375642090e+003,4.0320512695e+003,4.0232050781e+003,
2.0859375000e+000,4.0679487305e+003,4.0087180176e+003,4.0046154785e+003,3.9705129395e+003,4.0293588867e+003,3.9989743652e+003,4.0156411133e+003,4.0193588867e+003,4.0214101563e+003,4.0330769043e+003,4.0075642090e+003,4.0124357910e+003,4.0046154785e+003,3.9978205566e+003,
2.0937500000e+000,4.0646154785e+003,4.0102563477e+003,4.0032050781e+003,3.9744870605e+003,4.0317949219e+003,3.9960256348e+003,4.0146154785e+003,4.0192307129e+003,4.0161538086e+003,4.0292307129e+003,4.0010256348e+003,4.0094870605e+003,3.9994870605e+003,3.9944870605e+003,
2.1015625000e+000,4.1455126953e+003,4.0839743652e+003,4.0865385742e+003,4.0514101563e+003,4.0873076172e+003,4.0915385742e+003,4.0976923828e+003,4.1161538086e+003,4.1005126953e+003,4.1130771484e+003,4.0776923828e+003,4.0914101563e+003,4.0793588867e+003,4.0757692871e+003,
2.1093750000e+000,4.1761538086e+003,4.1142309570e+003,4.1188461914e+003,4.0789743652e+003,4.1293588867e+003,4.1279487305e+003,4.1312822266e+003,4.1523076172e+003,4.1382050781e+003,4.1501284180e+003,4.1120512695e+003,4.1242309570e+003,4.1144873047e+003,4.1070512695e+003,
2.1171875000e+000,4.2003847656e+003,4.1493588867e+003,4.1453847656e+003,4.1097436523e+003,4.1803847656e+003,4.1591025391e+003,4.1614101563e+003,4.1828203125e+003,4.1730771484e+003,4.1880771484e+003,4.1485898438e+003,4.1553847656e+003,4.1517949219e+003,4.1341025391e+003,
2.1250000000e+000,4.2010258789e+003,4.1561538086e+003,4.1469228516e+003,4.1170512695e+003,4.1751284180e+003,4.1607690430e+003,4.1644873047e+003,4.1860258789e+003,4.1741025391e+003,4.1929487305e+003,4.1556411133e+003,4.1602563477e+003,4.1569228516e+003,4.1385898438e+003,
2.1328125000e+000,4.2471796875e+003,4.2046152344e+003,4.1967949219e+003,4.1803847656e+003,4.2017949219e+003,4.1987177734e+003,4.2098715820e+003,4.2367949219e+003,4.2162822266e+003,4.2461538086e+003,4.2171796875e+003,4.2155126953e+003,4.2125639648e+003,4.1980771484e+003,
2.1406250000e+000,4.2643588867e+003,4.2229487305e+003,4.2164101563e+003,4.2043588867e+003,4.2383334961e+003,4.2139741211e+003,4.2252563477e+003,4.2534614258e+003,4.2356411133e+003,4.2665385742e+003,4.2388461914e+003,4.2329487305e+003,4.2361538086e+003,4.2156411133e+003,
2.1484375000e+000,4.2629487305e+003,4.2246152344e+003,4.2187177734e+003,4.2092309570e+003,4.2548715820e+003,4.2139741211e+003,4.2238461914e+003,4.2520512695e+003,4.2366665039e+003,4.2678203125e+003,4.2405126953e+003,4.2317949219e+003,4.2405126953e+003,4.2138461914e+003,
2.1562500000e+000,4.2401284180e+003,4.2046152344e+003,4.1998715820e+003,4.1893588867e+003,4.2347436523e+003,4.1950000000e+003,4.2026923828e+003,4.2297436523e+003,4.2138461914e+003,4.2455126953e+003,4.2178203125e+003,4.2101284180e+003,4.2193588867e+003,4.1914101563e+003,
2.1640625000e+000,4.1470512695e+003,4.1183334961e+003,4.1091025391e+003,4.1001284180e+003,4.1044873047e+003,4.1096152344e+003,4.1179487305e+003,4.1355126953e+003,4.1206411133e+003,4.1405126953e+003,4.1146152344e+003,4.1226923828e+003,4.1129487305e+003,4.1035898438e+003,
2.1718750000e+000,4.1850000000e+003,4.1501284180e+003,4.1511538086e+003,4.1176923828e+003,4.1682050781e+003,4.1456411133e+003,4.1515385742e+003,4.1744873047e+003,4.1574360352e+003,4.1853847656e+003,4.1607690430e+003,4.1562822266e+003,4.1596152344e+003,4.1437177734e+003,
2.1796875000e+000,4.1533334961e+003,4.1158974609e+003,4.1211538086e+003,4.0864101563e+003,4.1169228516e+003,4.1182050781e+003,4.1225639648e+003,4.1452563477e+003,4.1252563477e+003,4.1571796875e+003,4.1315385742e+003,4.1279487305e+003,4.1279487305e+003,4.1157690430e+003,
2.1875000000e+000,4.0707692871e+003,4.0367949219e+003,4.0375642090e+003,4.0203845215e+003,4.0257692871e+003,4.0401281738e+003,4.0467949219e+003,4.0628205566e+003,4.0467949219e+003,4.0666667480e+003,4.0452563477e+003,4.0500000000e+003,4.0430769043e+003,4.0365385742e+003,
2.1953125000e+000,4.0300000000e+003,3.9876923828e+003,3.9951281738e+003,3.9723076172e+003,4.0070512695e+003,3.9785898438e+003,3.9874357910e+003,4.0100000000e+003,4.0030769043e+003,4.0165385742e+003,3.9930769043e+003,4.0039743652e+003,3.9944870605e+003,3.9924357910e+003,
2.2031250000e+000,4.0184614258e+003,3.9702563477e+003,3.9879487305e+003,3.9632050781e+003,3.9726923828e+003,3.9673076172e+003,3.9762819824e+003,3.9975642090e+003,3.9894870605e+003,4.0070512695e+003,3.9865385742e+003,3.9957692871e+003,3.9898718262e+003,3.9879487305e+003,
2.2109375000e+000,4.0326923828e+003,3.9847436523e+003,3.9997436523e+003,3.9891025391e+003,3.9711538086e+003,3.9826923828e+003,3.9911538086e+003,4.0070512695e+003,4.0000000000e+003,4.0156411133e+003,4.0066667480e+003,4.0098718262e+003,4.0142307129e+003,4.0074357910e+003,
2.2187500000e+000,4.0523076172e+003,4.0082050781e+003,4.0137180176e+003,4.0101281738e+003,4.0035898438e+003,3.9997436523e+003,4.0079487305e+003,4.0235898438e+003,4.0179487305e+003,4.0325642090e+003,4.0238461914e+003,4.0266667480e+003,4.0320512695e+003,4.0238461914e+003,
2.2265625000e+000,4.0325642090e+003,3.9815385742e+003,3.9961538086e+003,3.9833332520e+003,3.9807692871e+003,3.9732050781e+003,3.9820512695e+003,3.9970512695e+003,3.9911538086e+003,4.0084614258e+003,3.9952563477e+003,4.0073076172e+003,3.9943588867e+003,3.9976923828e+003,
2.2343750000e+000,4.0279487305e+003,3.9719230957e+003,3.9960256348e+003,3.9797436523e+003,3.9619230957e+003,3.9693588867e+003,3.9771794434e+003,3.9902563477e+003,3.9842307129e+003,3.9994870605e+003,3.9898718262e+003,4.0010256348e+003,3.9874357910e+003,3.9917949219e+003,
2.2421875000e+000,4.0580769043e+003,4.0011538086e+003,4.0283332520e+003,4.0148718262e+003,3.9991025391e+003,4.0012819824e+003,4.0078205566e+003,4.0184614258e+003,4.0128205566e+003,4.0253845215e+003,4.0129487305e+003,4.0255129395e+003,4.0182050781e+003,4.0170512695e+003,
2.2500000000e+000,4.0702563477e+003,4.0165385742e+003,4.0394870605e+003,4.0275642090e+003,4.0273076172e+003,4.0133332520e+003,4.0215385742e+003,4.0305129395e+003,4.0251281738e+003,4.0393588867e+003,4.0216667480e+003,4.0385898438e+003,4.0301281738e+003,4.0297436523e+003,
2.2578125000e+000,4.0556411133e+003,4.0114101563e+003,4.0200000000e+003,4.0047436523e+003,4.0200000000e+003,3.9973076172e+003,4.0106411133e+003,4.0121794434e+003,4.0112819824e+003,4.0273076172e+003,4.0203845215e+003,4.0285898438e+003,4.0144870605e+003,4.0244870605e+003,
2.2656250000e+000,4.0619230957e+003,4.0193588867e+003,4.0250000000e+003,4.0114101563e+003,4.0180769043e+003,4.0060256348e+003,4.0170512695e+003,4.0165385742e+003,4.0175642090e+003,4.0323076172e+003,4.0294870605e+003,4.0311538086e+003,4.0217949219e+003,4.0296154785e+003,
2.2734375000e+000,4.0905129395e+003,4.0496154785e+003,4.0525642090e+003,4.0435898438e+003,4.0414101563e+003,4.0383332520e+003,4.0453845215e+003,4.0428205566e+003,4.0450000000e+003,4.0617949219e+003,4.0553845215e+003,4.0546154785e+003,4.0517949219e+003,4.0547436523e+003,
2.2812500000e+000,4.1411538086e+003,4.1026923828e+003,4.1017949219e+003,4.0985898438e+003,4.0915385742e+003,4.0925642090e+003,4.0950000000e+003,4.0910256348e+003,4.0934614258e+003,4.1171796875e+003,4.1006411133e+003,4.1011538086e+003,4.1046152344e+003,4.1020512695e+003,
2.2890625000e+000,4.2166665039e+003,4.1832050781e+003,4.1797436523e+003,4.1737177734e+003,4.1933334961e+003,4.1701284180e+003,4.1682050781e+003,4.1770512695e+003,4.1765385742e+003,4.2134614258e+003,4.1914101563e+003,4.1906411133e+003,4.1955126953e+003,4.1860258789e+003,
2.2968750000e+000,4.2334614258e+003,4.1993588867e+003,4.2048715820e+003,4.2028203125e+003,4.1876923828e+003,4.1841025391e+003,4.1848715820e+003,4.1956411133e+003,4.1905126953e+003,4.2196152344e+003,4.2171796875e+003,4.2155126953e+003,4.2101284180e+003,4.1997436523e+003,
2.3046875000e+000,4.2196152344e+003,4.1923076172e+003,4.1939741211e+003,4.1929487305e+003,4.1741025391e+003,4.1734614258e+003,4.1742309570e+003,4.1883334961e+003,4.1823076172e+003,4.2093588867e+003,4.2111538086e+003,4.2091025391e+003,4.2006411133e+003,4.1903847656e+003,
2.3125000000e+000,4.1429487305e+003,4.1187177734e+003,4.1188461914e+003,4.1144873047e+003,4.1314101563e+003,4.1037177734e+003,4.1062822266e+003,4.1205126953e+003,4.1191025391e+003,4.1387177734e+003,4.1305126953e+003,4.1382050781e+003,4.1357690430e+003,4.1169228516e+003,
2.3203125000e+000,4.3382050781e+003,4.3239741211e+003,4.3035898438e+003,4.3016665039e+003,4.3080771484e+003,4.3030771484e+003,4.3057690430e+003,4.3076923828e+003,4.3038461914e+003,4.3346152344e+003,4.3221796875e+003,4.3321796875e+003,4.3266665039e+003,4.3078203125e+003,
2.3281250000e+000,4.3788461914e+003,4.3707690430e+003,4.3482050781e+003,4.3469228516e+003,4.3452563477e+003,4.3441025391e+003,4.3467949219e+003,4.3501284180e+003,4.3446152344e+003,4.3782050781e+003,4.3770512695e+003,4.3766665039e+003,4.3734614258e+003,4.3525639648e+003,
2.3359375000e+000,4.3426923828e+003,4.3447436523e+003,4.3215385742e+003,4.3234614258e+003,4.3428203125e+003,4.3150000000e+003,4.3164101563e+003,4.3264101563e+003,4.3228203125e+003,4.3573076172e+003,4.3592309570e+003,4.3505126953e+003,4.3573076172e+003,4.3238461914e+003,
2.3437500000e+000,4.2952563477e+003,4.3011538086e+003,4.2776923828e+003,4.2788461914e+003,4.3075639648e+003,4.2739741211e+003,4.2751284180e+003,4.2862822266e+003,4.2839741211e+003,4.3160258789e+003,4.3128203125e+003,4.3094873047e+003,4.3142309570e+003,4.2785898438e+003,
2.3515625000e+000,4.2364101563e+003,4.2383334961e+003,4.2256411133e+003,4.2155126953e+003,4.2205126953e+003,4.2250000000e+003,4.2264101563e+003,4.2301284180e+003,4.2262822266e+003,4.2507690430e+003,4.2450000000e+003,4.2525639648e+003,4.2451284180e+003,4.2184614258e+003,
2.3593750000e+000,4.2433334961e+003,4.2398715820e+003,4.2324360352e+003,4.2269228516e+003,4.2287177734e+003,4.2285898438e+003,4.2306411133e+003,4.2317949219e+003,4.2265385742e+003,4.2535898438e+003,4.2475639648e+003,4.2534614258e+003,4.2524360352e+003,4.2229487305e+003,
2.3671875000e+000,4.2788461914e+003,4.2739741211e+003,4.2652563477e+003,4.2746152344e+003,4.2902563477e+003,4.2543588867e+003,4.2580771484e+003,4.2588461914e+003,4.2510258789e+003,4.2855126953e+003,4.2724360352e+003,4.2847436523e+003,4.2919228516e+003,4.2583334961e+003,
2.3750000000e+000,4.3135898438e+003,4.3124360352e+003,4.2992309570e+003,4.3080771484e+003,4.3323076172e+003,4.2874360352e+003,4.2898715820e+003,4.2925639648e+003,4.2855126953e+003,4.3197436523e+003,4.3053847656e+003,4.3230771484e+003,4.3250000000e+003,4.2961538086e+003,
2.3828125000e+000,4.3784614258e+003,4.3762822266e+003,4.3634614258e+003,4.3580771484e+003,4.3717949219e+003,4.3541025391e+003,4.3542309570e+003,4.3638461914e+003,4.3587177734e+003,4.3888461914e+003,4.3871796875e+003,4.3976923828e+003,4.3800000000e+003,4.3656411133e+003,
2.3906250000e+000,4.3567949219e+003,4.3524360352e+003,4.3403847656e+003,4.3393588867e+003,4.3430771484e+003,4.3316665039e+003,4.3335898438e+003,4.3443588867e+003,4.3358974609e+003,4.3696152344e+003,4.3719228516e+003,4.3755126953e+003,4.3605126953e+003,4.3428203125e+003,
2.3984375000e+000,4.3315385742e+003,4.3288461914e+003,4.3141025391e+003,4.3206411133e+003,4.3192309570e+003,4.3066665039e+003,4.3100000000e+003,4.3211538086e+003,4.3088461914e+003,4.3462822266e+003,4.3505126953e+003,4.3489741211e+003,4.3410258789e+003,4.3171796875e+003,
2.4062500000e+000,4.3250000000e+003,4.3278203125e+003,4.3087177734e+003,4.3219228516e+003,4.3206411133e+003,4.3033334961e+003,4.3066665039e+003,4.3174360352e+003,4.3029487305e+003,4.3421796875e+003,4.3456411133e+003,4.3421796875e+003,4.3421796875e+003,4.3126923828e+003,
2.4140625000e+000,4.4743588867e+003,4.4852563477e+003,4.4693588867e+003,4.4656411133e+003,4.4744873047e+003,4.4605126953e+003,4.4666665039e+003,4.4794873047e+003,4.4716665039e+003,4.5102563477e+003,4.5034614258e+003,4.5043588867e+003,4.4935898438e+003,4.4675639648e+003,
2.4218750000e+000,4.4669228516e+003,4.4797436523e+003,4.4615385742e+003,4.4560258789e+003,4.4694873047e+003,4.4547436523e+003,4.4603847656e+003,4.4778203125e+003,4.4697436523e+003,4.5108974609e+003,4.5034614258e+003,4.4983334961e+003,4.4869228516e+003,4.4587177734e+003,
2.4296875000e+000,4.4197436523e+003,4.4534614258e+003,4.4237177734e+003,4.4357690430e+003,4.4632050781e+003,4.4319228516e+003,4.4352563477e+003,4.4502563477e+003,4.4358974609e+003,4.4714101563e+003,4.4612822266e+003,4.4516665039e+003,4.4570512695e+003,4.4194873047e+003,
2.4375000000e+000,4.4260258789e+003,4.4511538086e+003,4.4297436523e+003,4.4512822266e+003,4.4711538086e+003,4.4437177734e+003,4.4502563477e+003,4.4621796875e+003,4.4498715820e+003,4.4820512695e+003,4.4650000000e+003,4.4538461914e+003,4.4608974609e+003,4.4247436523e+003,
2.4453125000e+000,4.3737177734e+003,4.3950000000e+003,4.3787177734e+003,4.3985898438e+003,4.4135898438e+003,4.3934614258e+003,4.3991025391e+003,4.4143588867e+003,4.4026923828e+003,4.4338461914e+003,4.4156411133e+003,4.4034614258e+003,4.4091025391e+003,4.3723076172e+003,
2.4531250000e+000,4.2482050781e+003,4.2697436523e+003,4.2684614258e+003,4.2748715820e+003,4.2742309570e+003,4.2760258789e+003,4.2815385742e+003,4.2952563477e+003,4.2856411133e+003,4.3000000000e+003,4.2819228516e+003,4.2857690430e+003,4.2843588867e+003,4.2528203125e+003,
2.4609375000e+000,4.1278203125e+003,4.1458974609e+003,4.1423076172e+003,4.1630771484e+003,4.1421796875e+003,4.1556411133e+003,4.1670512695e+003,4.1734614258e+003,4.1688461914e+003,4.1700000000e+003,4.1687177734e+003,4.1664101563e+003,4.1535898438e+003,4.1291025391e+003,
2.4687500000e+000,4.0930769043e+003,4.1087177734e+003,4.1041025391e+003,4.1267949219e+003,4.1114101563e+003,4.1221796875e+003,4.1330771484e+003,4.1355126953e+003,4.1306411133e+003,4.1300000000e+003,4.1323076172e+003,4.1298715820e+003,4.1166665039e+003,4.0933332520e+003,
2.4765625000e+000,4.2189741211e+003,4.2301284180e+003,4.2226923828e+003,4.2369228516e+003,4.2473076172e+003,4.2348715820e+003,4.2379487305e+003,4.2412822266e+003,4.2315385742e+003,4.2461538086e+003,4.2415385742e+003,4.2441025391e+003,4.2412822266e+003,4.2184614258e+003,
2.4843750000e+000,4.2482050781e+003,4.2598715820e+003,4.2510258789e+003,4.2624360352e+003,4.2767949219e+003,4.2550000000e+003,4.2571796875e+003,4.2653847656e+003,4.2556411133e+003,4.2775639648e+003,4.2689741211e+003,4.2728203125e+003,4.2698715820e+003,4.2479487305e+003,
2.4921875000e+000,4.1889741211e+003,4.2023076172e+003,4.1910258789e+003,4.2028203125e+003,4.2123076172e+003,4.1842309570e+003,4.1898715820e+003,4.2023076172e+003,4.1975639648e+003,4.2238461914e+003,4.2087177734e+003,4.2152563477e+003,4.2102563477e+003,4.1897436523e+003,
2.5000000000e+000,4.1573076172e+003,4.1693588867e+003,4.1589741211e+003,4.1734614258e+003,4.1744873047e+003,4.1514101563e+003,4.1589741211e+003,4.1691025391e+003,4.1669228516e+003,4.1914101563e+003,4.1760258789e+003,4.1826923828e+003,4.1783334961e+003,4.1584614258e+003,
2.5078125000e+000,4.2442309570e+003,4.2452563477e+003,4.2425639648e+003,4.2691025391e+003,4.2483334961e+003,4.2365385742e+003,4.2420512695e+003,4.2497436523e+003,4.2432050781e+003,4.2658974609e+003,4.2696152344e+003,4.2644873047e+003,4.2542309570e+003,4.2438461914e+003,
2.5156250000e+000,4.2841025391e+003,4.2874360352e+003,4.2821796875e+003,4.3092309570e+003,4.2853847656e+003,4.2774360352e+003,4.2811538086e+003,4.2908974609e+003,4.2817949219e+003,4.3046152344e+003,4.3141025391e+003,4.3044873047e+003,4.2920512695e+003,4.2825639648e+003,
2.5234375000e+000,4.3097436523e+003,4.3189741211e+003,4.3094873047e+003,4.3330771484e+003,4.3074360352e+003,4.3067949219e+003,4.3094873047e+003,4.3197436523e+003,4.3093588867e+003,4.3323076172e+003,4.3420512695e+003,4.3307690430e+003,4.3203847656e+003,4.3071796875e+003,
2.5312500000e+000,4.3334614258e+003,4.3487177734e+003,4.3362822266e+003,4.3547436523e+003,4.3298715820e+003,4.3355126953e+003,4.3378203125e+003,4.3461538086e+003,4.3356411133e+003,4.3593588867e+003,4.3652563477e+003,4.3542309570e+003,4.3506411133e+003,4.3302563477e+003,
2.5390625000e+000,4.7180771484e+003,4.7514101563e+003,4.7156411133e+003,4.7466665039e+003,4.7738461914e+003,4.7146152344e+003,4.7080771484e+003,4.7196152344e+003,4.7075639648e+003,4.7534614258e+003,4.7451284180e+003,4.7224360352e+003,4.7432050781e+003,4.7056411133e+003,
2.5468750000e+000,4.7824360352e+003,4.8216665039e+003,4.7805126953e+003,4.8179487305e+003,4.8465385742e+003,4.7802563477e+003,4.7682050781e+003,4.7878203125e+003,4.7717949219e+003,4.8282050781e+003,4.8146152344e+003,4.7924360352e+003,4.8048715820e+003,4.7721796875e+003,
2.5546875000e+000,4.5697436523e+003,4.6070512695e+003,4.5874360352e+003,4.6321796875e+003,4.6089741211e+003,4.5870512695e+003,4.5691025391e+003,4.5921796875e+003,4.5737177734e+003,4.6335898438e+003,4.6208974609e+003,4.6032050781e+003,4.6016665039e+003,4.5774360352e+003,
2.5625000000e+000,4.4047436523e+003,4.4570512695e+003,4.4284614258e+003,4.4843588867e+003,4.4603847656e+003,4.4355126953e+003,4.4246152344e+003,4.4361538086e+003,4.4201284180e+003,4.4473076172e+003,4.4626923828e+003,4.4410258789e+003,4.4469228516e+003,4.4216665039e+003,
2.5703125000e+000,4.4167949219e+003,4.4702563477e+003,4.4407690430e+003,4.4970512695e+003,4.4711538086e+003,4.4470512695e+003,4.4389741211e+003,4.4467949219e+003,4.4320512695e+003,4.4576923828e+003,4.4719228516e+003,4.4528203125e+003,4.4560258789e+003,4.4346152344e+003,
2.5781250000e+000,4.4958974609e+003,4.5339741211e+003,4.5150000000e+003,4.5697436523e+003,4.5152563477e+003,4.5144873047e+003,4.5112822266e+003,4.5220512695e+003,4.5158974609e+003,4.5600000000e+003,4.5467949219e+003,4.5343588867e+003,4.5398715820e+003,4.5173076172e+003,
2.5859375000e+000,4.3947436523e+003,4.4388461914e+003,4.4225639648e+003,4.4810258789e+003,4.4585898438e+003,4.4301284180e+003,4.4285898438e+003,4.4365385742e+003,4.4232050781e+003,4.4566665039e+003,4.4566665039e+003,4.4458974609e+003,4.4434614258e+003,4.4244873047e+003,
2.5937500000e+000,4.3920512695e+003,4.4371796875e+003,4.4216665039e+003,4.4771796875e+003,4.4638461914e+003,4.4300000000e+003,4.4275639648e+003,4.4328203125e+003,4.4196152344e+003,4.4501284180e+003,4.4523076172e+003,4.4397436523e+003,4.4373076172e+003,4.4194873047e+003,
2.6015625000e+000,4.4966665039e+003,4.5369228516e+003,4.5191025391e+003,4.5562822266e+003,4.5283334961e+003,4.5198715820e+003,4.5170512695e+003,4.5276923828e+003,4.5175639648e+003,4.5480771484e+003,4.5462822266e+003,4.5293588867e+003,4.5379487305e+003,4.5189741211e+003,
2.6093750000e+000,4.5478203125e+003,4.5919228516e+003,4.5693588867e+003,4.6074360352e+003,4.5835898438e+003,4.5689741211e+003,4.5652563477e+003,4.5789741211e+003,4.5656411133e+003,4.5974360352e+003,4.6007690430e+003,4.5819228516e+003,4.5907690430e+003,4.5725639648e+003,
2.6171875000e+000,4.6129487305e+003,4.6684614258e+003,4.6400000000e+003,4.6906411133e+003,4.6850000000e+003,4.6419228516e+003,4.6343588867e+003,4.6517949219e+003,4.6321796875e+003,4.6708974609e+003,4.6780771484e+003,4.6576923828e+003,4.6602563477e+003,4.6457690430e+003,
2.6250000000e+000,4.6157690430e+003,4.6750000000e+003,4.6470512695e+003,4.7007690430e+003,4.6914101563e+003,4.6487177734e+003,4.6416665039e+003,4.6575639648e+003,4.6382050781e+003,4.6797436523e+003,4.6806411133e+003,4.6637177734e+003,4.6642309570e+003,4.6503847656e+003,
2.6328125000e+000,4.6102563477e+003,4.6717949219e+003,4.6451284180e+003,4.6980771484e+003,4.6734614258e+003,4.6438461914e+003,4.6385898438e+003,4.6517949219e+003,4.6347436523e+003,4.6775639648e+003,4.6700000000e+003,4.6575639648e+003,4.6593588867e+003,4.6438461914e+003,
2.6406250000e+000,4.5870512695e+003,4.6542309570e+003,4.6291025391e+003,4.6847436523e+003,4.6232050781e+003,4.6210258789e+003,4.6150000000e+003,4.6264101563e+003,4.6141025391e+003,4.6579487305e+003,4.6460258789e+003,4.6320512695e+003,4.6387177734e+003,4.6182050781e+003,
2.6484375000e+000,4.5585898438e+003,4.6284614258e+003,4.6046152344e+003,4.6674360352e+003,4.6005126953e+003,4.5973076172e+003,4.5884614258e+003,4.5991025391e+003,4.5879487305e+003,4.6308974609e+003,4.6260258789e+003,4.6067949219e+003,4.6114101563e+003,4.5914101563e+003,
2.6562500000e+000,4.5270512695e+003,4.5982050781e+003,4.5760258789e+003,4.6464101563e+003,4.5860258789e+003,4.5724360352e+003,4.5615385742e+003,4.5693588867e+003,4.5583334961e+003,4.5989741211e+003,4.6023076172e+003,4.5801284180e+003,4.5801284180e+003,4.5629487305e+003,
2.6640625000e+000,4.6337177734e+003,4.7096152344e+003,4.6787177734e+003,4.7475639648e+003,4.7057690430e+003,4.6757690430e+003,4.6691025391e+003,4.6825639648e+003,4.6664101563e+003,4.7120512695e+003,4.7132050781e+003,4.6861538086e+003,4.6976923828e+003,4.6746152344e+003,
2.6718750000e+000,4.6588461914e+003,4.7348715820e+003,4.7051284180e+003,4.7734614258e+003,4.7326923828e+003,4.7006411133e+003,4.6948715820e+003,4.7060258789e+003,4.6898715820e+003,4.7385898438e+003,4.7374360352e+003,4.7116665039e+003,4.7198715820e+003,4.6996152344e+003,
2.6796875000e+000,4.8973076172e+003,4.9883334961e+003,4.9360258789e+003,5.0097436523e+003,4.9801284180e+003,4.9502563477e+003,4.9415385742e+003,4.9514101563e+003,4.9324360352e+003,4.9875639648e+003,4.9824360352e+003,4.9516665039e+003,4.9606411133e+003,4.9401284180e+003,
2.6875000000e+000,5.1337177734e+003,5.2476923828e+003,5.1885898438e+003,5.2593588867e+003,5.2271796875e+003,5.1941025391e+003,5.1788461914e+003,5.2000000000e+003,5.1702563477e+003,5.2470512695e+003,5.2506411133e+003,5.1989741211e+003,5.2196152344e+003,5.1792309570e+003,
2.6953125000e+000,5.1739741211e+003,5.2924360352e+003,5.2333334961e+003,5.3005126953e+003,5.2816665039e+003,5.2351284180e+003,5.2171796875e+003,5.2373076172e+003,5.2051284180e+003,5.2888461914e+003,5.2924360352e+003,5.2388461914e+003,5.2578203125e+003,5.2188461914e+003,
2.7031250000e+000,5.2250000000e+003,5.3752563477e+003,5.2980771484e+003,5.3632050781e+003,5.3557690430e+003,5.3029487305e+003,5.2782050781e+003,5.3033334961e+003,5.2685898438e+003,5.3530771484e+003,5.3521796875e+003,5.3037177734e+003,5.3150000000e+003,5.2870512695e+003,
2.7109375000e+000,5.0241025391e+003,5.1832050781e+003,5.1169228516e+003,5.1815385742e+003,5.1662822266e+003,5.1269228516e+003,5.0965385742e+003,5.1310258789e+003,5.1008974609e+003,5.1752563477e+003,5.1805126953e+003,5.1310258789e+003,5.1360258789e+003,5.1051284180e+003,
2.7187500000e+000,4.9570512695e+003,5.1142309570e+003,5.0521796875e+003,5.1111538086e+003,5.1061538086e+003,5.0623076172e+003,5.0339741211e+003,5.0650000000e+003,5.0367949219e+003,5.1105126953e+003,5.1123076172e+003,5.0637177734e+003,5.0701284180e+003,5.0393588867e+003,
2.7265625000e+000,4.9223076172e+003,5.0780771484e+003,5.0196152344e+003,5.0728203125e+003,5.0746152344e+003,5.0280771484e+003,5.0029487305e+003,5.0300000000e+003,5.0037177734e+003,5.0767949219e+003,5.0751284180e+003,5.0253847656e+003,5.0375639648e+003,5.0076923828e+003,
2.7343750000e+000,4.9212822266e+003,5.0730771484e+003,5.0247436523e+003,5.0765385742e+003,5.0696152344e+003,5.0279487305e+003,5.0057690430e+003,5.0325639648e+003,5.0083334961e+003,5.0748715820e+003,5.0816665039e+003,5.0217949219e+003,5.0489741211e+003,5.0164101563e+003,
2.7421875000e+000,4.8344873047e+003,4.9811538086e+003,4.9410258789e+003,5.0051284180e+003,4.9678203125e+003,4.9438461914e+003,4.9247436523e+003,4.9566665039e+003,4.9312822266e+003,4.9852563477e+003,4.9942309570e+003,4.9526923828e+003,4.9693588867e+003,4.9375639648e+003,
2.7500000000e+000,4.7761538086e+003,4.9257690430e+003,4.8801284180e+003,4.9484614258e+003,4.8991025391e+003,4.8855126953e+003,4.8700000000e+003,4.9000000000e+003,4.8761538086e+003,4.9282050781e+003,4.9274360352e+003,4.8951284180e+003,4.9092309570e+003,4.8808974609e+003,
2.7578125000e+000,4.7201284180e+003,4.8710258789e+003,4.8169228516e+003,4.8882050781e+003,4.8392309570e+003,4.8258974609e+003,4.8146152344e+003,4.8356411133e+003,4.8184614258e+003,4.8643588867e+003,4.8741025391e+003,4.8255126953e+003,4.8455126953e+003,4.8237177734e+003,
2.7656250000e+000,4.7412822266e+003,4.8892309570e+003,4.8391025391e+003,4.9067949219e+003,4.8712822266e+003,4.8442309570e+003,4.8321796875e+003,4.8515385742e+003,4.8335898438e+003,4.8791025391e+003,4.9001284180e+003,4.8460258789e+003,4.8650000000e+003,4.8448715820e+003,
2.7734375000e+000,4.7556411133e+003,4.9012822266e+003,4.8560258789e+003,4.9212822266e+003,4.8944873047e+003,4.8561538086e+003,4.8433334961e+003,4.8624360352e+003,4.8428203125e+003,4.8896152344e+003,4.9137177734e+003,4.8617949219e+003,4.8798715820e+003,4.8600000000e+003,
2.7812500000e+000,4.7471796875e+003,4.8908974609e+003,4.8498715820e+003,4.9160258789e+003,4.8867949219e+003,4.8465385742e+003,4.8332050781e+003,4.8538461914e+003,4.8323076172e+003,4.8805126953e+003,4.8982050781e+003,4.8538461914e+003,4.8737177734e+003,4.8516665039e+003,
2.7890625000e+000,4.6396152344e+003,4.7688461914e+003,4.7430771484e+003,4.8130771484e+003,4.7387177734e+003,4.7371796875e+003,4.7283334961e+003,4.7479487305e+003,4.7284614258e+003,4.7556411133e+003,4.7714101563e+003,4.7415385742e+003,4.7558974609e+003,4.7407690430e+003,
2.7968750000e+000,4.6596152344e+003,4.7882050781e+003,4.7603847656e+003,4.8291025391e+003,4.7615385742e+003,4.7510258789e+003,4.7444873047e+003,4.7633334961e+003,4.7451284180e+003,4.7719228516e+003,4.7924360352e+003,4.7603847656e+003,4.7712822266e+003,4.7602563477e+003,
2.8046875000e+000,4.6916665039e+003,4.8241025391e+003,4.7900000000e+003,4.8670512695e+003,4.8015385742e+003,4.7742309570e+003,4.7701284180e+003,4.7891025391e+003,4.7683334961e+003,4.8112822266e+003,4.8267949219e+003,4.7892309570e+003,4.8061538086e+003,4.7908974609e+003,
2.8125000000e+000,4.6992309570e+003,4.8147436523e+003,4.7989741211e+003,4.8776923828e+003,4.7960258789e+003,4.7775639648e+003,4.7678203125e+003,4.7858974609e+003,4.7661538086e+003,4.8062822266e+003,4.8271796875e+003,4.7924360352e+003,4.8055126953e+003,4.7934614258e+003,
2.8203125000e+000,4.6847436523e+003,4.7947436523e+003,4.7852563477e+003,4.8664101563e+003,4.7747436523e+003,4.7635898438e+003,4.7556411133e+003,4.7746152344e+003,4.7555126953e+003,4.7902563477e+003,4.8133334961e+003,4.7789741211e+003,4.7896152344e+003,4.7806411133e+003,
2.8281250000e+000,4.6684614258e+003,4.7851284180e+003,4.7671796875e+003,4.8482050781e+003,4.7688461914e+003,4.7651284180e+003,4.7582050781e+003,4.7747436523e+003,4.7547436523e+003,4.7746152344e+003,4.7957690430e+003,4.7710258789e+003,4.7755126953e+003,4.7682050781e+003,
2.8359375000e+000,4.6998715820e+003,4.8228203125e+003,4.7979487305e+003,4.8687177734e+003,4.8106411133e+003,4.8008974609e+003,4.7907690430e+003,4.8080771484e+003,4.7894873047e+003,4.8094873047e+003,4.8252563477e+003,4.8035898438e+003,4.8078203125e+003,4.7987177734e+003,
2.8437500000e+000,4.7312822266e+003,4.8508974609e+003,4.8347436523e+003,4.8870512695e+003,4.8457690430e+003,4.8302563477e+003,4.8202563477e+003,4.8412822266e+003,4.8230771484e+003,4.8494873047e+003,4.8624360352e+003,4.8369228516e+003,4.8365385742e+003,4.8303847656e+003,
2.8515625000e+000,4.7229487305e+003,4.8346152344e+003,4.8289741211e+003,4.8823076172e+003,4.8293588867e+003,4.8171796875e+003,4.8112822266e+003,4.8328203125e+003,4.8125639648e+003,4.8415385742e+003,4.8598715820e+003,4.8285898438e+003,4.8244873047e+003,4.8225639648e+003,
2.8593750000e+000,4.7438461914e+003,4.8629487305e+003,4.8429487305e+003,4.9223076172e+003,4.8556411133e+003,4.8373076172e+003,4.8316665039e+003,4.8507690430e+003,4.8261538086e+003,4.8573076172e+003,4.8785898438e+003,4.8433334961e+003,4.8474360352e+003,4.8461538086e+003,
2.8671875000e+000,4.7594873047e+003,4.8851284180e+003,4.8582050781e+003,4.9389741211e+003,4.8829487305e+003,4.8573076172e+003,4.8465385742e+003,4.8650000000e+003,4.8400000000e+003,4.8725639648e+003,4.8860258789e+003,4.8566665039e+003,4.8666665039e+003,4.8623076172e+003,
2.8750000000e+000,4.7482050781e+003,4.8689741211e+003,4.8516665039e+003,4.9243588867e+003,4.8614101563e+003,4.8488461914e+003,4.8358974609e+003,4.8511538086e+003,4.8255126953e+003,4.8573076172e+003,4.8620512695e+003,4.8426923828e+003,4.8528203125e+003,4.8457690430e+003,
2.8828125000e+000,4.7216665039e+003,4.8375639648e+003,4.8264101563e+003,4.8958974609e+003,4.8187177734e+003,4.8224360352e+003,4.8119228516e+003,4.8257690430e+003,4.8002563477e+003,4.8275639648e+003,4.8348715820e+003,4.8169228516e+003,4.8221796875e+003,4.8161538086e+003,
2.8906250000e+000,4.6393588867e+003,4.7616665039e+003,4.7467949219e+003,4.8102563477e+003,4.7519228516e+003,4.7496152344e+003,4.7397436523e+003,4.7491025391e+003,4.7252563477e+003,4.7380771484e+003,4.7603847656e+003,4.7385898438e+003,4.7356411133e+003,4.7378203125e+003,
2.8984375000e+000,4.6444873047e+003,4.7675639648e+003,4.7533334961e+003,4.8153847656e+003,4.7725639648e+003,4.7550000000e+003,4.7441025391e+003,4.7520512695e+003,4.7292309570e+003,4.7429487305e+003,4.7675639648e+003,4.7407690430e+003,4.7410258789e+003,4.7435898438e+003,
2.9062500000e+000,4.6661538086e+003,4.7864101563e+003,4.7741025391e+003,4.8378203125e+003,4.7984614258e+003,4.7734614258e+003,4.7621796875e+003,4.7708974609e+003,4.7492309570e+003,4.7657690430e+003,4.7902563477e+003,4.7585898438e+003,4.7628203125e+003,4.7629487305e+003,
2.9140625000e+000,4.5353847656e+003,4.6480771484e+003,4.6342309570e+003,4.7187177734e+003,4.6415385742e+003,4.6387177734e+003,4.6310258789e+003,4.6462822266e+003,4.6229487305e+003,4.6361538086e+003,4.6458974609e+003,4.6288461914e+003,4.6211538086e+003,4.6266665039e+003,
2.9218750000e+000,4.4957690430e+003,4.6033334961e+003,4.5952563477e+003,4.6770512695e+003,4.6117949219e+003,4.5998715820e+003,4.5946152344e+003,4.6066665039e+003,4.5848715820e+003,4.5941025391e+003,4.6058974609e+003,4.5876923828e+003,4.5793588867e+003,4.5903847656e+003,
2.9296875000e+000,4.4396152344e+003,4.5279487305e+003,4.5347436523e+003,4.6221796875e+003,4.5256411133e+003,4.5321796875e+003,4.5329487305e+003,4.5417949219e+003,4.5279487305e+003,4.5229487305e+003,4.5371796875e+003,4.5203847656e+003,4.5211538086e+003,4.5302563477e+003,
2.9375000000e+000,4.4893588867e+003,4.5785898438e+003,4.5721796875e+003,4.6694873047e+003,4.5761538086e+003,4.5625639648e+003,4.5644873047e+003,4.5687177734e+003,4.5519228516e+003,4.5520512695e+003,4.5730771484e+003,4.5533334961e+003,4.5460258789e+003,4.5644873047e+003,
2.9453125000e+000,4.5202563477e+003,4.6076923828e+003,4.6008974609e+003,4.6933334961e+003,4.6146152344e+003,4.5887177734e+003,4.5921796875e+003,4.5926923828e+003,4.5744873047e+003,4.5778203125e+003,4.5952563477e+003,4.5802563477e+003,4.5693588867e+003,4.5910258789e+003,
2.9531250000e+000,4.5203847656e+003,4.5975639648e+003,4.5992309570e+003,4.6826923828e+003,4.5811538086e+003,4.5848715820e+003,4.5830771484e+003,4.5880771484e+003,4.5707690430e+003,4.5824360352e+003,4.5828203125e+003,4.5753847656e+003,4.5748715820e+003,4.5865385742e+003,
2.9609375000e+000,4.4875639648e+003,4.5610258789e+003,4.5667949219e+003,4.6484614258e+003,4.5370512695e+003,4.5530771484e+003,4.5510258789e+003,4.5571796875e+003,4.5410258789e+003,4.5515385742e+003,4.5578203125e+003,4.5439741211e+003,4.5457690430e+003,4.5558974609e+003,
2.9687500000e+000,4.4541025391e+003,4.5252563477e+003,4.5293588867e+003,4.6032050781e+003,4.5174360352e+003,4.5200000000e+003,4.5238461914e+003,4.5242309570e+003,4.5115385742e+003,4.5144873047e+003,4.5370512695e+003,4.5128203125e+003,4.5128203125e+003,4.5247436523e+003,
2.9765625000e+000,4.4520512695e+003,4.5252563477e+003,4.5226923828e+003,4.5948715820e+003,4.5260258789e+003,4.5165385742e+003,4.5223076172e+003,4.5203847656e+003,4.5098715820e+003,4.5108974609e+003,4.5330771484e+003,4.5096152344e+003,4.5097436523e+003,4.5214101563e+003,
2.9843750000e+000,4.3437177734e+003,4.4034614258e+003,4.4078203125e+003,4.4780771484e+003,4.3784614258e+003,4.3967949219e+003,4.3997436523e+003,4.4002563477e+003,4.3928203125e+003,4.3901284180e+003,4.4037177734e+003,4.3939741211e+003,4.3935898438e+003,4.4106411133e+003,
2.9921875000e+000,4.2914101563e+003,4.3408974609e+003,4.3555126953e+003,4.4185898438e+003,4.3144873047e+003,4.3392309570e+003,4.3441025391e+003,4.3450000000e+003,4.3375639648e+003,4.3284614258e+003,4.3482050781e+003,4.3398715820e+003,4.3365385742e+003,4.3592309570e+003,
3.0000000000e+000,4.2335898438e+003,4.2715385742e+003,4.2934614258e+003,4.3521796875e+003,4.2684614258e+003,4.2766665039e+003,4.2897436523e+003,4.2914101563e+003,4.2826923828e+003,4.2605126953e+003,4.2833334961e+003,4.2803847656e+003,4.2710258789e+003,4.3003847656e+003,
3.0078125000e+000,4.2246152344e+003,4.2593588867e+003,4.2814101563e+003,4.3501284180e+003,4.2665385742e+003,4.2696152344e+003,4.2847436523e+003,4.2860258789e+003,4.2770512695e+003,4.2525639648e+003,4.2680771484e+003,4.2712822266e+003,4.2607690430e+003,4.2896152344e+003,
3.0156250000e+000,4.2907690430e+003,4.3139741211e+003,4.3364101563e+003,4.4383334961e+003,4.3121796875e+003,4.3316665039e+003,4.3415385742e+003,4.3371796875e+003,4.3342309570e+003,4.3144873047e+003,4.3262822266e+003,4.3252563477e+003,4.3292309570e+003,4.3462822266e+003,
3.0234375000e+000,4.3516665039e+003,4.3751284180e+003,4.3915385742e+003,4.4905126953e+003,4.3693588867e+003,4.3825639648e+003,4.3916665039e+003,4.3885898438e+003,4.3864101563e+003,4.3683334961e+003,4.3883334961e+003,4.3778203125e+003,4.3888461914e+003,4.4011538086e+003,
3.0312500000e+000,4.4117949219e+003,4.4370512695e+003,4.4471796875e+003,4.5375639648e+003,4.4326923828e+003,4.4326923828e+003,4.4423076172e+003,4.4429487305e+003,4.4383334961e+003,4.4229487305e+003,4.4487177734e+003,4.4321796875e+003,4.4460258789e+003,4.4551284180e+003,
3.0390625000e+000,4.4497436523e+003,4.4762822266e+003,4.4838461914e+003,4.5650000000e+003,4.4764101563e+003,4.4647436523e+003,4.4753847656e+003,4.4802563477e+003,4.4712822266e+003,4.4600000000e+003,4.4861538086e+003,4.4694873047e+003,4.4806411133e+003,4.4889741211e+003,
3.0468750000e+000,4.4000000000e+003,4.4262822266e+003,4.4408974609e+003,4.5258974609e+003,4.4089741211e+003,4.4348715820e+003,4.4407690430e+003,4.4343588867e+003,4.4266665039e+003,4.4193588867e+003,4.4302563477e+003,4.4300000000e+003,4.4394873047e+003,4.4407690430e+003,
3.0546875000e+000,4.6544873047e+003,4.6785898438e+003,4.6828203125e+003,4.7644873047e+003,4.6742309570e+003,4.6733334961e+003,4.6808974609e+003,4.6757690430e+003,4.6614101563e+003,4.6682050781e+003,4.6952563477e+003,4.6769228516e+003,4.6901284180e+003,4.6780771484e+003,
3.0625000000e+000,4.6898715820e+003,4.7348715820e+003,4.7266665039e+003,4.7883334961e+003,4.7167949219e+003,4.7156411133e+003,4.7220512695e+003,4.7276923828e+003,4.7110258789e+003,4.7278203125e+003,4.7429487305e+003,4.7252563477e+003,4.7414101563e+003,4.7266665039e+003,
3.0703125000e+000,4.6630771484e+003,4.7102563477e+003,4.6994873047e+003,4.7623076172e+003,4.6979487305e+003,4.6888461914e+003,4.6939741211e+003,4.7021796875e+003,4.6874360352e+003,4.7008974609e+003,4.7152563477e+003,4.6984614258e+003,4.7166665039e+003,4.7014101563e+003,
3.0781250000e+000,4.5075639648e+003,4.5457690430e+003,4.5525639648e+003,4.6266665039e+003,4.5533334961e+003,4.5391025391e+003,4.5416665039e+003,4.5500000000e+003,4.5324360352e+003,4.5429487305e+003,4.5515385742e+003,4.5557690430e+003,4.5574360352e+003,4.5489741211e+003,
3.0859375000e+000,4.4528203125e+003,4.4908974609e+003,4.5028203125e+003,4.5752563477e+003,4.4942309570e+003,4.4892309570e+003,4.4934614258e+003,4.4966665039e+003,4.4771796875e+003,4.4839741211e+003,4.4934614258e+003,4.5041025391e+003,4.5000000000e+003,4.4982050781e+003,
3.0937500000e+000,4.4061538086e+003,4.4483334961e+003,4.4539741211e+003,4.5273076172e+003,4.4443588867e+003,4.4523076172e+003,4.4589741211e+003,4.4517949219e+003,4.4342309570e+003,4.4303847656e+003,4.4535898438e+003,4.4515385742e+003,4.4534614258e+003,4.4587177734e+003,
3.1015625000e+000,4.4029487305e+003,4.4458974609e+003,4.4462822266e+003,4.5250000000e+003,4.4443588867e+003,4.4528203125e+003,4.4592309570e+003,4.4510258789e+003,4.4361538086e+003,4.4288461914e+003,4.4591025391e+003,4.4464101563e+003,4.4535898438e+003,4.4575639648e+003,
3.1093750000e+000,4.4196152344e+003,4.4532050781e+003,4.4582050781e+003,4.5416665039e+003,4.4532050781e+003,4.4646152344e+003,4.4733334961e+003,4.4743588867e+003,4.4630771484e+003,4.4520512695e+003,4.4733334961e+003,4.4694873047e+003,4.4735898438e+003,4.4696152344e+003,
3.1171875000e+000,4.4478203125e+003,4.4787177734e+003,4.4858974609e+003,4.5644873047e+003,4.4710258789e+003,4.4880771484e+003,4.4989741211e+003,4.5024360352e+003,4.4905126953e+003,4.4796152344e+003,4.4956411133e+003,4.4957690430e+003,4.4982050781e+003,4.4934614258e+003,
3.1250000000e+000,4.5037177734e+003,4.5323076172e+003,4.5406411133e+003,4.6097436523e+003,4.5094873047e+003,4.5387177734e+003,4.5521796875e+003,4.5553847656e+003,4.5405126953e+003,4.5332050781e+003,4.5475639648e+003,4.5447436523e+003,4.5432050781e+003,4.5400000000e+003,
3.1328125000e+000,4.5179487305e+003,4.5453847656e+003,4.5543588867e+003,4.6215385742e+003,4.5241025391e+003,4.5521796875e+003,4.5643588867e+003,4.5666665039e+003,4.5500000000e+003,4.5447436523e+003,4.5589741211e+003,4.5565385742e+003,4.5526923828e+003,4.5500000000e+003,
3.1406250000e+000,4.5644873047e+003,4.5937177734e+003,4.5991025391e+003,4.6680771484e+003,4.6225639648e+003,4.5965385742e+003,4.6011538086e+003,4.6116665039e+003,4.5911538086e+003,4.5830771484e+003,4.6007690430e+003,4.5985898438e+003,4.5989741211e+003,4.5948715820e+003,
3.1484375000e+000,4.5724360352e+003,4.6053847656e+003,4.6089741211e+003,4.6791025391e+003,4.6424360352e+003,4.6057690430e+003,4.6108974609e+003,4.6241025391e+003,4.6029487305e+003,4.5953847656e+003,4.6187177734e+003,4.6101284180e+003,4.6098715820e+003,4.6084614258e+003,
3.1562500000e+000,4.5601284180e+003,4.5957690430e+003,4.5998715820e+003,4.6708974609e+003,4.6262822266e+003,4.5947436523e+003,4.6019228516e+003,4.6160258789e+003,4.5939741211e+003,4.5887177734e+003,4.6171796875e+003,4.6028203125e+003,4.5991025391e+003,4.6014101563e+003,
3.1640625000e+000,4.5284614258e+003,4.5642309570e+003,4.5708974609e+003,4.6424360352e+003,4.5782050781e+003,4.5628203125e+003,4.5719228516e+003,4.5858974609e+003,4.5630771484e+003,4.5596152344e+003,4.5905126953e+003,4.5742309570e+003,4.5665385742e+003,4.5714101563e+003,
3.1718750000e+000,4.4423076172e+003,4.4715385742e+003,4.4838461914e+003,4.5448715820e+003,4.4765385742e+003,4.4760258789e+003,4.4832050781e+003,4.4935898438e+003,4.4755126953e+003,4.4596152344e+003,4.4861538086e+003,4.4793588867e+003,4.4864101563e+003,4.4793588867e+003,
3.1796875000e+000,4.3948715820e+003,4.4242309570e+003,4.4397436523e+003,4.4950000000e+003,4.3815385742e+003,4.4302563477e+003,4.4417949219e+003,4.4526923828e+003,4.4312822266e+003,4.4200000000e+003,4.4437177734e+003,4.4371796875e+003,4.4302563477e+003,4.4375639648e+003,
3.1875000000e+000,4.3523076172e+003,4.3791025391e+003,4.3941025391e+003,4.4555126953e+003,4.3475639648e+003,4.3875639648e+003,4.4006411133e+003,4.4069228516e+003,4.3876923828e+003,4.3705126953e+003,4.3993588867e+003,4.3933334961e+003,4.3866665039e+003,4.3943588867e+003,
3.1953125000e+000,4.3360258789e+003,4.3616665039e+003,4.3701284180e+003,4.4358974609e+003,4.3821796875e+003,4.3714101563e+003,4.3839741211e+003,4.3842309570e+003,4.3697436523e+003,4.3497436523e+003,4.3820512695e+003,4.3730771484e+003,4.3797436523e+003,4.3773076172e+003,
3.2031250000e+000,4.3264101563e+003,4.3316665039e+003,4.3669228516e+003,4.4132050781e+003,4.3307690430e+003,4.3446152344e+003,4.3560258789e+003,4.3629487305e+003,4.3535898438e+003,4.3276923828e+003,4.3521796875e+003,4.3651284180e+003,4.3433334961e+003,4.3691025391e+003,
3.2109375000e+000,4.3043588867e+003,4.3105126953e+003,4.3414101563e+003,4.3882050781e+003,4.3003847656e+003,4.3182050781e+003,4.3294873047e+003,4.3385898438e+003,4.3321796875e+003,4.3014101563e+003,4.3269228516e+003,4.3384614258e+003,4.3164101563e+003,4.3432050781e+003,
3.2187500000e+000,4.1467949219e+003,4.1538461914e+003,4.1811538086e+003,4.2317949219e+003,4.1567949219e+003,4.1601284180e+003,4.1751284180e+003,4.1917949219e+003,4.1862822266e+003,4.1528203125e+003,4.1750000000e+003,4.1805126953e+003,4.1655126953e+003,4.1829487305e+003,
3.2265625000e+000,3.9964101563e+003,3.9953845215e+003,4.0342307129e+003,4.0869230957e+003,4.0025642090e+003,4.0139743652e+003,4.0330769043e+003,4.0491025391e+003,4.0423076172e+003,4.0044870605e+003,4.0253845215e+003,4.0341025391e+003,4.0174357910e+003,4.0351281738e+003,
3.2343750000e+000,3.7274357910e+003,3.6880769043e+003,3.7578205566e+003,3.8142307129e+003,3.6624357910e+003,3.7466667480e+003,3.7751281738e+003,3.7683332520e+003,3.7671794434e+003,3.6958974609e+003,3.7294870605e+003,3.7556411133e+003,3.7232050781e+003,3.7605129395e+003,
3.2421875000e+000,3.7607692871e+003,3.7115385742e+003,3.7824357910e+003,3.8344870605e+003,3.6924357910e+003,3.7694870605e+003,3.8002563477e+003,3.7908974609e+003,3.7923076172e+003,3.7155129395e+003,3.7519230957e+003,3.7803845215e+003,3.7438461914e+003,3.7850000000e+003,
3.2500000000e+000,3.8117949219e+003,3.7497436523e+003,3.8246154785e+003,3.8662819824e+003,3.7800000000e+003,3.7996154785e+003,3.8347436523e+003,3.8338461914e+003,3.8346154785e+003,3.7628205566e+003,3.7896154785e+003,3.8215385742e+003,3.7823076172e+003,3.8233332520e+003,
3.2578125000e+000,3.7801281738e+003,3.7173076172e+003,3.7921794434e+003,3.8357692871e+003,3.7651281738e+003,3.7671794434e+003,3.8025642090e+003,3.8053845215e+003,3.8048718262e+003,3.7376923828e+003,3.7544870605e+003,3.7888461914e+003,3.7534614258e+003,3.7910256348e+003,
3.2656250000e+000,3.6544870605e+003,3.5914101563e+003,3.6543588867e+003,3.7138461914e+003,3.6053845215e+003,3.6460256348e+003,3.6823076172e+003,3.6753845215e+003,3.6815385742e+003,3.6070512695e+003,3.6143588867e+003,3.6528205566e+003,3.6284614258e+003,3.6610256348e+003,
3.2734375000e+000,3.6528205566e+003,3.5817949219e+003,3.6457692871e+003,3.7042307129e+003,3.5861538086e+003,3.6348718262e+003,3.6746154785e+003,3.6643588867e+003,3.6739743652e+003,3.5946154785e+003,3.6101281738e+003,3.6447436523e+003,3.6174357910e+003,3.6534614258e+003,
3.2812500000e+000,3.6505129395e+003,3.5701281738e+003,3.6387180176e+003,3.6962819824e+003,3.5789743652e+003,3.6235898438e+003,3.6657692871e+003,3.6544870605e+003,3.6658974609e+003,3.5842307129e+003,3.6093588867e+003,3.6379487305e+003,3.6073076172e+003,3.6462819824e+003,
3.2890625000e+000,3.6300000000e+003,3.5414101563e+003,3.6162819824e+003,3.6757692871e+003,3.5639743652e+003,3.5997436523e+003,3.6412819824e+003,3.6300000000e+003,3.6415385742e+003,3.5592307129e+003,3.5911538086e+003,3.6153845215e+003,3.5838461914e+003,3.6232050781e+003,
3.2968750000e+000,3.6264101563e+003,3.5138461914e+003,3.5952563477e+003,3.6555129395e+003,3.5157692871e+003,3.5797436523e+003,3.6161538086e+003,3.6000000000e+003,3.6111538086e+003,3.5294870605e+003,3.5529487305e+003,3.5898718262e+003,3.5769230957e+003,3.6053845215e+003,
3.3046875000e+000,3.6698718262e+003,3.5541025391e+003,3.6283332520e+003,3.6870512695e+003,3.5393588867e+003,3.6089743652e+003,3.6479487305e+003,3.6361538086e+003,3.6478205566e+003,3.5693588867e+003,3.5867949219e+003,3.6266667480e+003,3.6130769043e+003,3.6435898438e+003,
3.3125000000e+000,3.6333332520e+003,3.5202563477e+003,3.5807692871e+003,3.6378205566e+003,3.5366667480e+003,3.5703845215e+003,3.6067949219e+003,3.6024357910e+003,3.6096154785e+003,3.5379487305e+003,3.5488461914e+003,3.5876923828e+003,3.5650000000e+003,3.6012819824e+003,
3.3203125000e+000,3.6642307129e+003,3.5392307129e+003,3.6085898438e+003,3.6714101563e+003,3.5767949219e+003,3.5928205566e+003,3.6293588867e+003,3.6180769043e+003,3.6314101563e+003,3.5523076172e+003,3.5708974609e+003,3.6003845215e+003,3.5866667480e+003,3.6152563477e+003,
3.3281250000e+000,3.6933332520e+003,3.5674357910e+003,3.6337180176e+003,3.7046154785e+003,3.5891025391e+003,3.6170512695e+003,3.6562819824e+003,3.6460256348e+003,3.6588461914e+003,3.5791025391e+003,3.5984614258e+003,3.6303845215e+003,3.6103845215e+003,3.6417949219e+003,
3.3359375000e+000,3.6893588867e+003,3.5655129395e+003,3.6238461914e+003,3.7043588867e+003,3.5783332520e+003,3.6152563477e+003,3.6546154785e+003,3.6469230957e+003,3.6541025391e+003,3.5810256348e+003,3.6050000000e+003,3.6328205566e+003,3.6038461914e+003,3.6358974609e+003,
3.3437500000e+000,3.7828205566e+003,3.6467949219e+003,3.7078205566e+003,3.7767949219e+003,3.6498718262e+003,3.6958974609e+003,3.7329487305e+003,3.7133332520e+003,3.7275642090e+003,3.6583332520e+003,3.6655129395e+003,3.7032050781e+003,3.6902563477e+003,3.7134614258e+003,
3.3515625000e+000,3.8684614258e+003,3.7406411133e+003,3.7898718262e+003,3.8589743652e+003,3.7260256348e+003,3.7798718262e+003,3.8156411133e+003,3.7956411133e+003,3.8084614258e+003,3.7453845215e+003,3.7516667480e+003,3.7866667480e+003,3.7733332520e+003,3.7973076172e+003,
3.3593750000e+000,3.9414101563e+003,3.8228205566e+003,3.8691025391e+003,3.9370512695e+003,3.8412819824e+003,3.8643588867e+003,3.8943588867e+003,3.8897436523e+003,3.8894870605e+003,3.8396154785e+003,3.8589743652e+003,3.8656411133e+003,3.8484614258e+003,3.8703845215e+003,
3.3671875000e+000,3.8876923828e+003,3.7594870605e+003,3.8174357910e+003,3.8841025391e+003,3.8053845215e+003,3.8135898438e+003,3.8411538086e+003,3.8371794434e+003,3.8380769043e+003,3.7832050781e+003,3.8002563477e+003,3.8102563477e+003,3.7929487305e+003,3.8152563477e+003,
3.3750000000e+000,3.8121794434e+003,3.6778205566e+003,3.7367949219e+003,3.8083332520e+003,3.7333332520e+003,3.7385898438e+003,3.7592307129e+003,3.7511538086e+003,3.7594870605e+003,3.6950000000e+003,3.7037180176e+003,3.7308974609e+003,3.7130769043e+003,3.7378205566e+003,
3.3828125000e+000,3.8087180176e+003,3.6807692871e+003,3.7308974609e+003,3.8066667480e+003,3.7175642090e+003,3.7335898438e+003,3.7519230957e+003,3.7428205566e+003,3.7517949219e+003,3.6884614258e+003,3.7001281738e+003,3.7289743652e+003,3.7097436523e+003,3.7356411133e+003,
3.3906250000e+000,3.8170512695e+003,3.6958974609e+003,3.7416667480e+003,3.8169230957e+003,3.7046154785e+003,3.7316667480e+003,3.7538461914e+003,3.7447436523e+003,3.7497436523e+003,3.6946154785e+003,3.7157692871e+003,3.7383332520e+003,3.7183332520e+003,3.7469230957e+003,
3.3984375000e+000,3.8079487305e+003,3.6835898438e+003,3.7311538086e+003,3.8042307129e+003,3.6989743652e+003,3.7223076172e+003,3.7458974609e+003,3.7364101563e+003,3.7438461914e+003,3.6891025391e+003,3.7006411133e+003,3.7262819824e+003,3.7089743652e+003,3.7376923828e+003,
3.4062500000e+000,3.7897436523e+003,3.6637180176e+003,3.7112819824e+003,3.7841025391e+003,3.6806411133e+003,3.7064101563e+003,3.7303845215e+003,3.7207692871e+003,3.7317949219e+003,3.6773076172e+003,3.6794870605e+003,3.7071794434e+003,3.6917949219e+003,3.7206411133e+003,
3.4140625000e+000,3.7602563477e+003,3.6332050781e+003,3.6814101563e+003,3.7564101563e+003,3.6443588867e+003,3.6793588867e+003,3.7034614258e+003,3.6944870605e+003,3.7079487305e+003,3.6533332520e+003,3.6535898438e+003,3.6792307129e+003,3.6638461914e+003,3.6933332520e+003,
3.4218750000e+000,3.6526923828e+003,3.5114101563e+003,3.5701281738e+003,3.6506411133e+003,3.5224357910e+003,3.5608974609e+003,3.5900000000e+003,3.5767949219e+003,3.5908974609e+003,3.5255129395e+003,3.5475642090e+003,3.5682050781e+003,3.5547436523e+003,3.5817949219e+003,
3.4296875000e+000,3.6703845215e+003,3.5283332520e+003,3.5860256348e+003,3.6629487305e+003,3.5471794434e+003,3.5765385742e+003,3.6082050781e+003,3.5919230957e+003,3.6078205566e+003,3.5403845215e+003,3.5593588867e+003,3.5837180176e+003,3.5700000000e+003,3.5973076172e+003,
