Time (s);AF3;F7;F3;FC5;T7;P7;O1;O2;P8;T8;FC6;F4;F8;AF4;Sampling Rate
0.0000000000e+000;4.9764101563e+003;5.1100000000e+003;5.0514101563e+003;5.0743588867e+003;5.1506411133e+003;5.0450000000e+003;5.0284614258e+003;5.0333334961e+003;5.0185898438e+003;4.9355126953e+003;5.0578203125e+003;5.0233334961e+003;5.0169228516e+003;5.0160258789e+003;128
7.8125000000e-003;5.0834614258e+003;5.2202563477e+003;5.1576923828e+003;5.1767949219e+003;5.2617949219e+003;5.1475639648e+003;5.1335898438e+003;5.1374360352e+003;5.1279487305e+003;5.0466665039e+003;5.1611538086e+003;5.1261538086e+003;5.1243588867e+003;5.1205126953e+003;
1.5625000000e-002;5.1908974609e+003;5.3356411133e+003;5.2671796875e+003;5.2837177734e+003;5.3755126953e+003;5.2519228516e+003;5.2382050781e+003;5.2498715820e+003;5.2455126953e+003;5.1660258789e+003;5.2714101563e+003;5.2344873047e+003;5.2374360352e+003;5.2279487305e+003;
2.3437500000e-002;5.1515385742e+003;5.3288461914e+003;5.2630771484e+003;5.2715385742e+003;5.3588461914e+003;5.2264101563e+003;5.2133334961e+003;5.2557690430e+003;5.2453847656e+003;5.1870512695e+003;5.2894873047e+003;5.2360258789e+003;5.2287177734e+003;5.2193588867e+003;
3.1250000000e-002;5.1251284180e+003;5.3069228516e+003;5.2414101563e+003;5.2489741211e+003;5.3351284180e+003;5.2034614258e+003;5.1910258789e+003;5.2339741211e+003;5.2215385742e+003;5.1674360352e+003;5.2698715820e+003;5.2158974609e+003;5.2070512695e+003;5.1993588867e+003;
3.9062500000e-002;4.8971796875e+003;5.0792309570e+003;5.0225639648e+003;5.0165385742e+003;5.1039741211e+003;4.9858974609e+003;4.9725639648e+003;5.0144873047e+003;5.0117949219e+003;4.9405126953e+003;5.0253847656e+003;4.9983334961e+003;4.9898715820e+003;4.9805126953e+003;
4.6875000000e-002;4.7312822266e+003;4.8892309570e+003;4.8589741211e+003;4.8570512695e+003;4.9130771484e+003;4.8201284180e+003;4.8148715820e+003;4.8360258789e+003;4.8287177734e+003;4.7619228516e+003;4.8534614258e+003;4.8264101563e+003;4.8178203125e+003;4.8085898438e+003;
5.4687500000e-002;4.7356411133e+003;4.8908974609e+003;4.8638461914e+003;4.8597436523e+003;4.9162822266e+003;4.8270512695e+003;4.8212822266e+003;4.8402563477e+003;4.8265385742e+003;4.7634614258e+003;4.8617949219e+003;4.8335898438e+003;4.8176923828e+003;4.8147436523e+003;
6.2500000000e-002;4.6057690430e+003;4.7548715820e+003;4.7334614258e+003;4.7293588867e+003;4.7973076172e+003;4.7151284180e+003;4.6991025391e+003;4.7152563477e+003;4.6903847656e+003;4.6211538086e+003;4.7265385742e+003;4.7026923828e+003;4.6824360352e+003;4.6858974609e+003;
7.0312500000e-002;4.4452563477e+003;4.5910258789e+003;4.5638461914e+003;4.5850000000e+003;4.6382050781e+003;4.5823076172e+003;4.5612822266e+003;4.5538461914e+003;4.5288461914e+003;4.4608974609e+003;4.5638461914e+003;4.5424360352e+003;4.5265385742e+003;4.5306411133e+003;
7.8125000000e-002;4.4256411133e+003;4.5694873047e+003;4.5434614258e+003;4.5642309570e+003;4.6183334961e+003;4.5684614258e+003;4.5464101563e+003;4.5337177734e+003;4.5098715820e+003;4.4423076172e+003;4.5428203125e+003;4.5250000000e+003;4.5075639648e+003;4.5144873047e+003;
8.5937500000e-002;4.4610258789e+003;4.5938461914e+003;4.5756411133e+003;4.5967949219e+003;4.6526923828e+003;4.6025639648e+003;4.5755126953e+003;4.5650000000e+003;4.5453847656e+003;4.4816665039e+003;4.5666665039e+003;4.5485898438e+003;4.5407690430e+003;4.5424360352e+003;
9.3750000000e-002;4.5293588867e+003;4.6601284180e+003;4.6401284180e+003;4.6633334961e+003;4.7191025391e+003;4.6688461914e+003;4.6412822266e+003;4.6296152344e+003;4.6116665039e+003;4.5512822266e+003;4.6338461914e+003;4.6100000000e+003;4.6039741211e+003;4.6051284180e+003;
1.0156250000e-001;4.8520512695e+003;4.9883334961e+003;4.9534614258e+003;4.9623076172e+003;5.0446152344e+003;4.9829487305e+003;4.9589741211e+003;4.9455126953e+003;4.9320512695e+003;4.8816665039e+003;4.9569228516e+003;4.9221796875e+003;4.9192309570e+003;4.9205126953e+003;
1.0937500000e-001;5.1030771484e+003;5.2456411133e+003;5.2015385742e+003;5.1961538086e+003;5.3014101563e+003;5.2234614258e+003;5.2034614258e+003;5.1950000000e+003;5.1830771484e+003;5.1415385742e+003;5.2096152344e+003;5.1710258789e+003;5.1720512695e+003;5.1697436523e+003;
1.1718750000e-001;5.8347436523e+003;6.0111538086e+003;5.9406411133e+003;5.9173076172e+003;6.0619228516e+003;5.9215385742e+003;5.9070512695e+003;5.9394873047e+003;5.9219228516e+003;5.9275639648e+003;5.9785898438e+003;5.9212822266e+003;5.9284614258e+003;5.9135898438e+003;
1.2500000000e-001;5.9370512695e+003;6.1332050781e+003;6.0528203125e+003;6.0282050781e+003;6.1757690430e+003;6.0266665039e+003;6.0089741211e+003;6.0589741211e+003;6.0369228516e+003;6.0571796875e+003;6.1012822266e+003;6.0405126953e+003;6.0442309570e+003;6.0288461914e+003;
1.3281250000e-001;5.9370512695e+003;6.1526923828e+003;6.0657690430e+003;6.0375639648e+003;6.1846152344e+003;6.0375639648e+003;6.0166665039e+003;6.0798715820e+003;6.0535898438e+003;6.0828203125e+003;6.1169228516e+003;6.0591025391e+003;6.0591025391e+003;6.0432050781e+003;
1.4062500000e-001;5.8689741211e+003;6.0988461914e+003;6.0111538086e+003;5.9785898438e+003;6.1211538086e+003;5.9823076172e+003;5.9614101563e+003;6.0292309570e+003;6.0000000000e+003;6.0328203125e+003;6.0560258789e+003;6.0060258789e+003;6.0044873047e+003;5.9865385742e+003;
1.4843750000e-001;5.7637177734e+003;6.0005126953e+003;5.9269228516e+003;5.8964101563e+003;6.0189741211e+003;5.8820512695e+003;5.8739741211e+003;5.9342309570e+003;5.9062822266e+003;5.9419228516e+003;5.9728203125e+003;5.9076923828e+003;5.9061538086e+003;5.8932050781e+003;
1.5625000000e-001;5.7576923828e+003;5.9943588867e+003;5.9261538086e+003;5.8911538086e+003;6.0112822266e+003;5.8789741211e+003;5.8689741211e+003;5.9310258789e+003;5.9020512695e+003;5.9402563477e+003;5.9764101563e+003;5.9093588867e+003;5.9006411133e+003;5.8947436523e+003;
1.6406250000e-001;5.7160258789e+003;5.9719228516e+003;5.9046152344e+003;5.8394873047e+003;5.9801284180e+003;5.8632050781e+003;5.8482050781e+003;5.8982050781e+003;5.8602563477e+003;5.9085898438e+003;5.9292309570e+003;5.8884614258e+003;5.8853847656e+003;5.8726923828e+003;
1.7187500000e-001;5.6844873047e+003;5.9521796875e+003;5.8817949219e+003;5.8228203125e+003;5.9748715820e+003;5.8582050781e+003;5.8365385742e+003;5.8733334961e+003;5.8332050781e+003;5.8851284180e+003;5.9200000000e+003;5.8625639648e+003;5.8576923828e+003;5.8473076172e+003;
1.7968750000e-001;5.6660258789e+003;5.9330771484e+003;5.8669228516e+003;5.8102563477e+003;5.9576923828e+003;5.8480771484e+003;5.8241025391e+003;5.8570512695e+003;5.8193588867e+003;5.8689741211e+003;5.9042309570e+003;5.8478203125e+003;5.8383334961e+003;5.8321796875e+003;
1.8750000000e-001;5.5894873047e+003;5.8634614258e+003;5.8005126953e+003;5.7379487305e+003;5.8883334961e+003;5.7980771484e+003;5.7667949219e+003;5.7970512695e+003;5.7721796875e+003;5.8132050781e+003;5.8208974609e+003;5.7815385742e+003;5.7746152344e+003;5.7683334961e+003;
1.9531250000e-001;5.5569228516e+003;5.8348715820e+003;5.7707690430e+003;5.7085898438e+003;5.8620512695e+003;5.7748715820e+003;5.7416665039e+003;5.7717949219e+003;5.7492309570e+003;5.7858974609e+003;5.7993588867e+003;5.7507690430e+003;5.7426923828e+003;5.7400000000e+003;
2.0312500000e-001;5.5317949219e+003;5.8162822266e+003;5.7491025391e+003;5.6905126953e+003;5.8438461914e+003;5.7619228516e+003;5.7273076172e+003;5.7601284180e+003;5.7402563477e+003;5.7694873047e+003;5.7997436523e+003;5.7237177734e+003;5.7171796875e+003;5.7174360352e+003;
2.1093750000e-001;5.5283334961e+003;5.8157690430e+003;5.7478203125e+003;5.6897436523e+003;5.8410258789e+003;5.7616665039e+003;5.7283334961e+003;5.7641025391e+003;5.7462822266e+003;5.7742309570e+003;5.7967949219e+003;5.7197436523e+003;5.7201284180e+003;5.7135898438e+003;
2.1875000000e-001;5.4650000000e+003;5.7470512695e+003;5.6935898438e+003;5.6388461914e+003;5.7780771484e+003;5.7030771484e+003;5.6773076172e+003;5.7208974609e+003;5.7005126953e+003;5.7215385742e+003;5.7129487305e+003;5.6700000000e+003;5.6730771484e+003;5.6523076172e+003;
2.2656250000e-001;5.4584614258e+003;5.7348715820e+003;5.6869228516e+003;5.6365385742e+003;5.7693588867e+003;5.6961538086e+003;5.6712822266e+003;5.7180771484e+003;5.6935898438e+003;5.7115385742e+003;5.7112822266e+003;5.6680771484e+003;5.6628203125e+003;5.6474360352e+003;
2.3437500000e-001;5.4632050781e+003;5.7360258789e+003;5.6906411133e+003;5.6429487305e+003;5.7697436523e+003;5.6992309570e+003;5.6741025391e+003;5.7250000000e+003;5.6974360352e+003;5.7142309570e+003;5.7225639648e+003;5.6748715820e+003;5.6641025391e+003;5.6542309570e+003;
2.4218750000e-001;5.3148715820e+003;5.5987177734e+003;5.5505126953e+003;5.4975639648e+003;5.6082050781e+003;5.5306411133e+003;5.5153847656e+003;5.5732050781e+003;5.5406411133e+003;5.5585898438e+003;5.5638461914e+003;5.5219228516e+003;5.5121796875e+003;5.5112822266e+003;
2.5000000000e-001;5.3355126953e+003;5.6171796875e+003;5.5691025391e+003;5.5183334961e+003;5.6289741211e+003;5.5503847656e+003;5.5350000000e+003;5.5901284180e+003;5.5561538086e+003;5.5801284180e+003;5.5912822266e+003;5.5467949219e+003;5.5297436523e+003;5.5353847656e+003;
2.5781250000e-001;5.4335898438e+003;5.6979487305e+003;5.6711538086e+003;5.5987177734e+003;5.7083334961e+003;5.6444873047e+003;5.6264101563e+003;5.6726923828e+003;5.6366665039e+003;5.6708974609e+003;5.6869228516e+003;5.6455126953e+003;5.6250000000e+003;5.6351284180e+003;
2.6562500000e-001;5.3498715820e+003;5.6176923828e+003;5.5932050781e+003;5.5207690430e+003;5.6361538086e+003;5.5728203125e+003;5.5529487305e+003;5.5912822266e+003;5.5420512695e+003;5.5812822266e+003;5.5950000000e+003;5.5605126953e+003;5.5428203125e+003;5.5512822266e+003;
2.7343750000e-001;5.3352563477e+003;5.6052563477e+003;5.5796152344e+003;5.5091025391e+003;5.6252563477e+003;5.5661538086e+003;5.5451284180e+003;5.5782050781e+003;5.5283334961e+003;5.5702563477e+003;5.5833334961e+003;5.5491025391e+003;5.5307690430e+003;5.5405126953e+003;
2.8125000000e-001;5.2887177734e+003;5.5619228516e+003;5.5337177734e+003;5.4673076172e+003;5.5789741211e+003;5.5411538086e+003;5.5129487305e+003;5.5378203125e+003;5.5038461914e+003;5.5380771484e+003;5.5470512695e+003;5.4952563477e+003;5.4989741211e+003;5.4962822266e+003;
2.8906250000e-001;5.2501284180e+003;5.5206411133e+003;5.4951284180e+003;5.4328203125e+003;5.5425639648e+003;5.5065385742e+003;5.4769228516e+003;5.5012822266e+003;5.4721796875e+003;5.4982050781e+003;5.5052563477e+003;5.4524360352e+003;5.4573076172e+003;5.4550000000e+003;
2.9687500000e-001;5.1755126953e+003;5.4355126953e+003;5.4206411133e+003;5.3573076172e+003;5.4717949219e+003;5.4353847656e+003;5.4029487305e+003;5.4332050781e+003;5.4103847656e+003;5.4216665039e+003;5.4157690430e+003;5.3752563477e+003;5.3693588867e+003;5.3771796875e+003;
3.0468750000e-001;5.1265385742e+003;5.3815385742e+003;5.3708974609e+003;5.3033334961e+003;5.4214101563e+003;5.3901284180e+003;5.3552563477e+003;5.3920512695e+003;5.3707690430e+003;5.3758974609e+003;5.3617949219e+003;5.3273076172e+003;5.3178203125e+003;5.3285898438e+003;
3.1250000000e-001;4.9517949219e+003;5.2026923828e+003;5.1885898438e+003;5.1324360352e+003;5.2417949219e+003;5.2350000000e+003;5.1984614258e+003;5.2393588867e+003;5.2147436523e+003;5.2020512695e+003;5.1883334961e+003;5.1493588867e+003;5.1483334961e+003;5.1550000000e+003;
3.2031250000e-001;4.9617949219e+003;5.2130771484e+003;5.1941025391e+003;5.1476923828e+003;5.2529487305e+003;5.2447436523e+003;5.2105126953e+003;5.2473076172e+003;5.2214101563e+003;5.2096152344e+003;5.1966665039e+003;5.1548715820e+003;5.1575639648e+003;5.1629487305e+003;
3.2812500000e-001;5.0879487305e+003;5.3339741211e+003;5.3132050781e+003;5.2782050781e+003;5.3724360352e+003;5.3544873047e+003;5.3244873047e+003;5.3596152344e+003;5.3343588867e+003;5.3356411133e+003;5.3170512695e+003;5.2730771484e+003;5.2780771484e+003;5.2834614258e+003;
3.3593750000e-001;5.1441025391e+003;5.3834614258e+003;5.3671796875e+003;5.3348715820e+003;5.4180771484e+003;5.3979487305e+003;5.3696152344e+003;5.4075639648e+003;5.3838461914e+003;5.3900000000e+003;5.3732050781e+003;5.3266665039e+003;5.3298715820e+003;5.3375639648e+003;
3.4375000000e-001;5.1555126953e+003;5.3828203125e+003;5.3757690430e+003;5.3456411133e+003;5.4037177734e+003;5.3806411133e+003;5.3582050781e+003;5.4044873047e+003;5.3841025391e+003;5.3871796875e+003;5.3946152344e+003;5.3365385742e+003;5.3353847656e+003;5.3498715820e+003;
3.5156250000e-001;5.1521796875e+003;5.3839741211e+003;5.3741025391e+003;5.3389741211e+003;5.4003847656e+003;5.3750000000e+003;5.3532050781e+003;5.4007690430e+003;5.3787177734e+003;5.3835898438e+003;5.3924360352e+003;5.3350000000e+003;5.3358974609e+003;5.3488461914e+003;
3.5937500000e-001;5.1630771484e+003;5.4003847656e+003;5.3875639648e+003;5.3452563477e+003;5.4130771484e+003;5.3850000000e+003;5.3632050781e+003;5.4117949219e+003;5.3857690430e+003;5.3956411133e+003;5.4003847656e+003;5.3478203125e+003;5.3507690430e+003;5.3617949219e+003;
3.6718750000e-001;5.1838461914e+003;5.4238461914e+003;5.4098715820e+003;5.3611538086e+003;5.4348715820e+003;5.4034614258e+003;5.3817949219e+003;5.4308974609e+003;5.3998715820e+003;5.4158974609e+003;5.4143588867e+003;5.3689741211e+003;5.3728203125e+003;5.3826923828e+003;
3.7500000000e-001;5.1930771484e+003;5.4165385742e+003;5.4091025391e+003;5.3669228516e+003;5.4335898438e+003;5.3962822266e+003;5.3800000000e+003;5.4201284180e+003;5.3715385742e+003;5.4019228516e+003;5.4157690430e+003;5.3651284180e+003;5.3712822266e+003;5.3820512695e+003;
3.8281250000e-001;5.1444873047e+003;5.3750000000e+003;5.3611538086e+003;5.3032050781e+003;5.3855126953e+003;5.3629487305e+003;5.3341025391e+003;5.3685898438e+003;5.3225639648e+003;5.3516665039e+003;5.3593588867e+003;5.3206411133e+003;5.3238461914e+003;5.3394873047e+003;
3.9062500000e-001;5.1371796875e+003;5.3633334961e+003;5.3519228516e+003;5.2955126953e+003;5.3776923828e+003;5.3565385742e+003;5.3262822266e+003;5.3612822266e+003;5.3187177734e+003;5.3423076172e+003;5.3505126953e+003;5.3146152344e+003;5.3084614258e+003;5.3297436523e+003;
3.9843750000e-001;5.1097436523e+003;5.3351284180e+003;5.3217949219e+003;5.2747436523e+003;5.3523076172e+003;5.3353847656e+003;5.3002563477e+003;5.3330771484e+003;5.3024360352e+003;5.3166665039e+003;5.3279487305e+003;5.2820512695e+003;5.2797436523e+003;5.3032050781e+003;
4.0625000000e-001;5.0379487305e+003;5.2515385742e+003;5.2483334961e+003;5.1987177734e+003;5.2714101563e+003;5.2752563477e+003;5.2337177734e+003;5.2638461914e+003;5.2466665039e+003;5.2452563477e+003;5.2448715820e+003;5.1943588867e+003;5.2092309570e+003;5.2229487305e+003;
4.1406250000e-001;5.0291025391e+003;5.2356411133e+003;5.2389741211e+003;5.1905126953e+003;5.2623076172e+003;5.2647436523e+003;5.2260258789e+003;5.2575639648e+003;5.2371796875e+003;5.2330771484e+003;5.2337177734e+003;5.1855126953e+003;5.1938461914e+003;5.2093588867e+003;
4.2187500000e-001;5.0160258789e+003;5.2256411133e+003;5.2251284180e+003;5.1850000000e+003;5.2589741211e+003;5.2532050781e+003;5.2208974609e+003;5.2596152344e+003;5.2325639648e+003;5.2230771484e+003;5.2205126953e+003;5.1724360352e+003;5.1816665039e+003;5.1938461914e+003;
4.2968750000e-001;5.0019228516e+003;5.2173076172e+003;5.2115385742e+003;5.1715385742e+003;5.2479487305e+003;5.2424360352e+003;5.2141025391e+003;5.2544873047e+003;5.2257690430e+003;5.2120512695e+003;5.2057690430e+003;5.1598715820e+003;5.1710258789e+003;5.1814101563e+003;
4.3750000000e-001;4.9757690430e+003;5.1858974609e+003;5.1806411133e+003;5.1229487305e+003;5.2039741211e+003;5.2069228516e+003;5.1879487305e+003;5.2265385742e+003;5.1955126953e+003;5.1833334961e+003;5.1815385742e+003;5.1310258789e+003;5.1408974609e+003;5.1530771484e+003;
4.4531250000e-001;4.9803847656e+003;5.1834614258e+003;5.1801284180e+003;5.1235898438e+003;5.1996152344e+003;5.2002563477e+003;5.1825639648e+003;5.2228203125e+003;5.1906411133e+003;5.1839741211e+003;5.1878203125e+003;5.1297436523e+003;5.1434614258e+003;5.1555126953e+003;
4.5312500000e-001;4.9843588867e+003;5.1724360352e+003;5.1783334961e+003;5.1316665039e+003;5.1867949219e+003;5.1816665039e+003;5.1666665039e+003;5.2083334961e+003;5.1733334961e+003;5.1707690430e+003;5.1821796875e+003;5.1251284180e+003;5.1442309570e+003;5.1576923828e+003;
4.6093750000e-001;4.9862822266e+003;5.1679487305e+003;5.1812822266e+003;5.1344873047e+003;5.1821796875e+003;5.1752563477e+003;5.1611538086e+003;5.2011538086e+003;5.1652563477e+003;5.1612822266e+003;5.1755126953e+003;5.1262822266e+003;5.1437177734e+003;5.1592309570e+003;
4.6875000000e-001;5.0053847656e+003;5.1865385742e+003;5.2048715820e+003;5.1452563477e+003;5.1978203125e+003;5.1830771484e+003;5.1637177734e+003;5.1982050781e+003;5.1589741211e+003;5.1658974609e+003;5.1903847656e+003;5.1508974609e+003;5.1578203125e+003;5.1819228516e+003;
4.7656250000e-001;5.0085898438e+003;5.1925639648e+003;5.2071796875e+003;5.1487177734e+003;5.1994873047e+003;5.1843588867e+003;5.1626923828e+003;5.1952563477e+003;5.1528203125e+003;5.1674360352e+003;5.1955126953e+003;5.1548715820e+003;5.1611538086e+003;5.1862822266e+003;
4.8437500000e-001;5.0130771484e+003;5.1973076172e+003;5.2085898438e+003;5.1541025391e+003;5.1994873047e+003;5.1855126953e+003;5.1625639648e+003;5.1937177734e+003;5.1466665039e+003;5.1675639648e+003;5.2003847656e+003;5.1578203125e+003;5.1651284180e+003;5.1893588867e+003;
4.9218750000e-001;5.0192309570e+003;5.2002563477e+003;5.2101284180e+003;5.1592309570e+003;5.2006411133e+003;5.1871796875e+003;5.1639741211e+003;5.1942309570e+003;5.1433334961e+003;5.1673076172e+003;5.2064101563e+003;5.1608974609e+003;5.1694873047e+003;5.1919228516e+003;
5.0000000000e-001;4.9820512695e+003;5.1458974609e+003;5.1644873047e+003;5.1055126953e+003;5.1670512695e+003;5.1502563477e+003;5.1276923828e+003;5.1520512695e+003;5.1169228516e+003;5.1253847656e+003;5.1678203125e+003;5.1223076172e+003;5.1291025391e+003;5.1456411133e+003;
5.0781250000e-001;4.9284614258e+003;5.0894873047e+003;5.1061538086e+003;5.0621796875e+003;5.1057690430e+003;5.1162822266e+003;5.0948715820e+003;5.1300000000e+003;5.1019228516e+003;5.0812822266e+003;5.1048715820e+003;5.0660258789e+003;5.0678203125e+003;5.0851284180e+003;
5.1562500000e-001;4.8950000000e+003;5.0520512695e+003;5.0716665039e+003;5.0279487305e+003;5.0700000000e+003;5.0858974609e+003;5.0666665039e+003;5.0992309570e+003;5.0707690430e+003;5.0462822266e+003;5.0730771484e+003;5.0303847656e+003;5.0329487305e+003;5.0464101563e+003;
5.2343750000e-001;4.8461538086e+003;5.0008974609e+003;5.0166665039e+003;4.9729487305e+003;5.0178203125e+003;5.0351284180e+003;5.0196152344e+003;5.0473076172e+003;5.0221796875e+003;4.9917949219e+003;5.0214101563e+003;4.9726923828e+003;4.9915385742e+003;4.9869228516e+003;
5.3125000000e-001;4.8764101563e+003;5.0203847656e+003;5.0387177734e+003;5.0173076172e+003;5.0374360352e+003;5.0532050781e+003;5.0348715820e+003;5.0712822266e+003;5.0434614258e+003;5.0087177734e+003;5.0342309570e+003;5.0024360352e+003;4.9988461914e+003;5.0108974609e+003;
5.3906250000e-001;4.8694873047e+003;5.0156411133e+003;5.0312822266e+003;5.0139741211e+003;5.0297436523e+003;5.0467949219e+003;5.0294873047e+003;5.0638461914e+003;5.0378203125e+003;5.0035898438e+003;5.0297436523e+003;4.9964101563e+003;4.9900000000e+003;5.0044873047e+003;
5.4687500000e-001;4.8425639648e+003;4.9930771484e+003;5.0012822266e+003;4.9820512695e+003;4.9982050781e+003;5.0141025391e+003;5.0012822266e+003;5.0308974609e+003;5.0065385742e+003;4.9738461914e+003;5.0046152344e+003;4.9685898438e+003;4.9696152344e+003;4.9762822266e+003;
5.5468750000e-001;4.8425639648e+003;4.9894873047e+003;4.9982050781e+003;4.9758974609e+003;4.9952563477e+003;5.0051284180e+003;4.9947436523e+003;5.0241025391e+003;4.9978203125e+003;4.9664101563e+003;5.0012822266e+003;4.9662822266e+003;4.9679487305e+003;4.9742309570e+003;
5.6250000000e-001;4.8643588867e+003;4.9953847656e+003;5.0171796875e+003;4.9885898438e+003;5.0157690430e+003;5.0079487305e+003;4.9948715820e+003;5.0246152344e+003;4.9919228516e+003;4.9684614258e+003;5.0117949219e+003;4.9764101563e+003;4.9680771484e+003;4.9897436523e+003;
5.7031250000e-001;4.8562822266e+003;4.9878203125e+003;5.0110258789e+003;4.9756411133e+003;5.0055126953e+003;4.9997436523e+003;4.9843588867e+003;5.0116665039e+003;4.9773076172e+003;4.9578203125e+003;5.0008974609e+003;4.9667949219e+003;4.9585898438e+003;4.9814101563e+003;
5.7812500000e-001;4.8483334961e+003;4.9812822266e+003;5.0014101563e+003;4.9511538086e+003;4.9873076172e+003;4.9848715820e+003;4.9710258789e+003;4.9938461914e+003;4.9551284180e+003;4.9428203125e+003;4.9841025391e+003;4.9565385742e+003;4.9510258789e+003;4.9708974609e+003;
5.8593750000e-001;4.8501284180e+003;4.9807690430e+003;4.9987177734e+003;4.9488461914e+003;4.9847436523e+003;4.9798715820e+003;4.9701284180e+003;4.9919228516e+003;4.9506411133e+003;4.9400000000e+003;4.9824360352e+003;4.9562822266e+003;4.9501284180e+003;4.9694873047e+003;
5.9375000000e-001;4.8423076172e+003;4.9653847656e+003;4.9784614258e+003;4.9460258789e+003;4.9680771484e+003;4.9705126953e+003;4.9715385742e+003;4.9858974609e+003;4.9426923828e+003;4.9271796875e+003;4.9746152344e+003;4.9451284180e+003;4.9338461914e+003;4.9552563477e+003;
6.0156250000e-001;4.8465385742e+003;4.9680771484e+003;4.9793588867e+003;4.9461538086e+003;4.9684614258e+003;4.9785898438e+003;4.9793588867e+003;4.9934614258e+003;4.9537177734e+003;4.9350000000e+003;4.9808974609e+003;4.9480771484e+003;4.9387177734e+003;4.9592309570e+003;
6.0937500000e-001;4.8417949219e+003;4.9615385742e+003;4.9720512695e+003;4.9360258789e+003;4.9619228516e+003;4.9774360352e+003;4.9764101563e+003;4.9939741211e+003;4.9596152344e+003;4.9355126953e+003;4.9778203125e+003;4.9421796875e+003;4.9353847656e+003;4.9547436523e+003;
6.1718750000e-001;4.8133334961e+003;4.9302563477e+003;4.9426923828e+003;4.9050000000e+003;4.9347436523e+003;4.9523076172e+003;4.9491025391e+003;4.9728203125e+003;4.9434614258e+003;4.9106411133e+003;4.9491025391e+003;4.9135898438e+003;4.9069228516e+003;4.9269228516e+003;
6.2500000000e-001;4.6855126953e+003;4.7926923828e+003;4.8137177734e+003;4.7867949219e+003;4.8094873047e+003;4.8358974609e+003;4.8269228516e+003;4.8526923828e+003;4.8230771484e+003;4.7694873047e+003;4.8020512695e+003;4.7714101563e+003;4.7635898438e+003;4.7897436523e+003;
6.3281250000e-001;4.7175639648e+003;4.8280771484e+003;4.8408974609e+003;4.8167949219e+003;4.8402563477e+003;4.8675639648e+003;4.8575639648e+003;4.8810258789e+003;4.8520512695e+003;4.8010258789e+003;4.8310258789e+003;4.7965385742e+003;4.7971796875e+003;4.8176923828e+003;
6.4062500000e-001;4.7665385742e+003;4.8710258789e+003;4.8874360352e+003;4.8529487305e+003;4.8826923828e+003;4.9078203125e+003;4.9028203125e+003;4.9307690430e+003;4.9078203125e+003;4.8516665039e+003;4.8805126953e+003;4.8450000000e+003;4.8426923828e+003;4.8662822266e+003;
6.4843750000e-001;4.6123076172e+003;4.6979487305e+003;4.7371796875e+003;4.7017949219e+003;4.7166665039e+003;4.7516665039e+003;4.7479487305e+003;4.7832050781e+003;4.7561538086e+003;4.6948715820e+003;4.7338461914e+003;4.6985898438e+003;4.6869228516e+003;4.7116665039e+003;
6.5625000000e-001;4.5238461914e+003;4.6084614258e+003;4.6457690430e+003;4.6156411133e+003;4.6208974609e+003;4.6621796875e+003;4.6569228516e+003;4.6932050781e+003;4.6633334961e+003;4.6001284180e+003;4.6434614258e+003;4.6089741211e+003;4.5983334961e+003;4.6229487305e+003;
6.6406250000e-001;4.3312822266e+003;4.4007690430e+003;4.4421796875e+003;4.4202563477e+003;4.4034614258e+003;4.4530771484e+003;4.4505126953e+003;4.4674360352e+003;4.4370512695e+003;4.3719228516e+003;4.4260258789e+003;4.4037177734e+003;4.3851284180e+003;4.4233334961e+003;
6.7187500000e-001;4.3608974609e+003;4.4094873047e+003;4.4571796875e+003;4.4423076172e+003;4.4238461914e+003;4.4543588867e+003;4.4552563477e+003;4.4548715820e+003;4.4264101563e+003;4.3716665039e+003;4.4256411133e+003;4.4169228516e+003;4.3971796875e+003;4.4387177734e+003;
6.7968750000e-001;4.3621796875e+003;4.4065385742e+003;4.4507690430e+003;4.4400000000e+003;4.4182050781e+003;4.4465385742e+003;4.4455126953e+003;4.4491025391e+003;4.4188461914e+003;4.3625639648e+003;4.4185898438e+003;4.4119228516e+003;4.3919228516e+003;4.4347436523e+003;
6.8750000000e-001;4.3556411133e+003;4.3815385742e+003;4.4329487305e+003;4.4221796875e+003;4.3771796875e+003;4.4215385742e+003;4.4203847656e+003;4.4288461914e+003;4.4003847656e+003;4.3401284180e+003;4.4005126953e+003;4.3987177734e+003;4.3624360352e+003;4.4226923828e+003;
6.9531250000e-001;4.3556411133e+003;4.3764101563e+003;4.4306411133e+003;4.4182050781e+003;4.3716665039e+003;4.4175639648e+003;4.4179487305e+003;4.4256411133e+003;4.4010258789e+003;4.3406411133e+003;4.3993588867e+003;4.3942309570e+003;4.3626923828e+003;4.4226923828e+003;
7.0312500000e-001;4.3398715820e+003;4.3570512695e+003;4.4011538086e+003;4.3905126953e+003;4.3574360352e+003;4.3985898438e+003;4.3992309570e+003;4.4132050781e+003;4.3917949219e+003;4.3271796875e+003;4.3776923828e+003;4.3605126953e+003;4.3543588867e+003;4.4002563477e+003;
7.1093750000e-001;4.3319228516e+003;4.3466665039e+003;4.3862822266e+003;4.3757690430e+003;4.3498715820e+003;4.3908974609e+003;4.3908974609e+003;4.4087177734e+003;4.3856411133e+003;4.3182050781e+003;4.3648715820e+003;4.3451284180e+003;4.3452563477e+003;4.3866665039e+003;
7.1875000000e-001;4.4352563477e+003;4.4358974609e+003;4.4793588867e+003;4.4762822266e+003;4.4371796875e+003;4.4878203125e+003;4.4864101563e+003;4.4996152344e+003;4.4712822266e+003;4.4044873047e+003;4.4506411133e+003;4.4348715820e+003;4.4219228516e+003;4.4716665039e+003;
7.2656250000e-001;4.4939741211e+003;4.4953847656e+003;4.5358974609e+003;4.5408974609e+003;4.4944873047e+003;4.5458974609e+003;4.5424360352e+003;4.5573076172e+003;4.5284614258e+003;4.4644873047e+003;4.5066665039e+003;4.4915385742e+003;4.4776923828e+003;4.5284614258e+003;
7.3437500000e-001;4.5174360352e+003;4.5215385742e+003;4.5587177734e+003;4.5697436523e+003;4.5217949219e+003;4.5725639648e+003;4.5667949219e+003;4.5867949219e+003;4.5575639648e+003;4.4955126953e+003;4.5316665039e+003;4.5169228516e+003;4.5037177734e+003;4.5535898438e+003;
7.4218750000e-001;4.4891025391e+003;4.4950000000e+003;4.5315385742e+003;4.5430771484e+003;4.5005126953e+003;4.5506411133e+003;4.5441025391e+003;4.5687177734e+003;4.5391025391e+003;4.4762822266e+003;4.5085898438e+003;4.4937177734e+003;4.4801284180e+003;4.5289741211e+003;
7.5000000000e-001;4.4288461914e+003;4.4264101563e+003;4.4697436523e+003;4.4635898438e+003;4.4388461914e+003;4.4907690430e+003;4.4983334961e+003;4.5128203125e+003;4.4817949219e+003;4.4092309570e+003;4.4484614258e+003;4.4328203125e+003;4.4196152344e+003;4.4623076172e+003;
7.5781250000e-001;4.4273076172e+003;4.4234614258e+003;4.4682050781e+003;4.4648715820e+003;4.4284614258e+003;4.4832050781e+003;4.4896152344e+003;4.5098715820e+003;4.4788461914e+003;4.4088461914e+003;4.4442309570e+003;4.4302563477e+003;4.4185898438e+003;4.4593588867e+003;
7.6562500000e-001;3.9206411133e+003;3.8841025391e+003;3.9591025391e+003;3.9620512695e+003;3.8929487305e+003;3.9765385742e+003;3.9720512695e+003;3.9966667480e+003;3.9707692871e+003;3.8883332520e+003;3.9316667480e+003;3.9244870605e+003;3.8947436523e+003;3.9526923828e+003;
7.7343750000e-001;3.5052563477e+003;3.4206411133e+003;3.5174357910e+003;3.5328205566e+003;3.4360256348e+003;3.5453845215e+003;3.5441025391e+003;3.5276923828e+003;3.5011538086e+003;3.3914101563e+003;3.4647436523e+003;3.4760256348e+003;3.4447436523e+003;3.5119230957e+003;
7.8125000000e-001;3.4776923828e+003;3.3885898438e+003;3.4767949219e+003;3.5026923828e+003;3.3975642090e+003;3.5079487305e+003;3.5064101563e+003;3.4874357910e+003;3.4619230957e+003;3.3482050781e+003;3.4223076172e+003;3.4351281738e+003;3.4103845215e+003;3.4725642090e+003;
7.8906250000e-001;3.3544870605e+003;3.2337180176e+003;3.3201281738e+003;3.3505129395e+003;3.2428205566e+003;3.3576923828e+003;3.3493588867e+003;3.3374357910e+003;3.3246154785e+003;3.2052563477e+003;3.2762819824e+003;3.2796154785e+003;3.2553845215e+003;3.3196154785e+003;
7.9687500000e-001;3.4305129395e+003;3.2680769043e+003;3.3648718262e+003;3.3930769043e+003;3.2907692871e+003;3.3908974609e+003;3.3920512695e+003;3.3716667480e+003;3.3617949219e+003;3.2405129395e+003;3.3112819824e+003;3.3205129395e+003;3.3056411133e+003;3.3662819824e+003;
8.0468750000e-001;3.4926923828e+003;3.3260256348e+003;3.4174357910e+003;3.4473076172e+003;3.3457692871e+003;3.4446154785e+003;3.4457692871e+003;3.4312819824e+003;3.4187180176e+003;3.3000000000e+003;3.3667949219e+003;3.3761538086e+003;3.3623076172e+003;3.4189743652e+003;
8.1250000000e-001;3.5083332520e+003;3.3378205566e+003;3.4266667480e+003;3.4578205566e+003;3.3541025391e+003;3.4589743652e+003;3.4566667480e+003;3.4497436523e+003;3.4348718262e+003;3.3180769043e+003;3.3808974609e+003;3.3891025391e+003;3.3712819824e+003;3.4284614258e+003;
8.2031250000e-001;3.4064101563e+003;3.2238461914e+003;3.3166667480e+003;3.3564101563e+003;3.2437180176e+003;3.3656411133e+003;3.3544870605e+003;3.3524357910e+003;3.3397436523e+003;3.2200000000e+003;3.2778205566e+003;3.2819230957e+003;3.2561538086e+003;3.3226923828e+003;
8.2812500000e-001;3.2901281738e+003;3.0883332520e+003;3.1807692871e+003;3.2383332520e+003;3.1176923828e+003;3.2382050781e+003;3.2335898438e+003;3.2214101563e+003;3.2215385742e+003;3.0873076172e+003;3.1492307129e+003;3.1469230957e+003;3.1291025391e+003;3.1944870605e+003;
8.3593750000e-001;3.2751281738e+003;3.0648718262e+003;3.1584614258e+003;3.2157692871e+003;3.0898718262e+003;3.2147436523e+003;3.2114101563e+003;3.1982050781e+003;3.1991025391e+003;3.0620512695e+003;3.1251281738e+003;3.1237180176e+003;3.1075642090e+003;3.1701281738e+003;
8.4375000000e-001;3.2601281738e+003;3.0423076172e+003;3.1366667480e+003;3.1933332520e+003;3.0626923828e+003;3.1948718262e+003;3.1889743652e+003;3.1757692871e+003;3.1758974609e+003;3.0379487305e+003;3.0993588867e+003;3.0991025391e+003;3.0852563477e+003;3.1455129395e+003;
8.5156250000e-001;3.2328205566e+003;3.0074357910e+003;3.0985898438e+003;3.1582050781e+003;3.0305129395e+003;3.1678205566e+003;3.1541025391e+003;3.1412819824e+003;3.1389743652e+003;3.0006411133e+003;3.0529487305e+003;3.0538461914e+003;3.0479487305e+003;3.1060256348e+003;
8.5937500000e-001;3.2267949219e+003;2.9978205566e+003;3.0882050781e+003;3.1505129395e+003;3.0274357910e+003;3.1588461914e+003;3.1470512695e+003;3.1328205566e+003;3.1287180176e+003;2.9897436523e+003;3.0401281738e+003;3.0425642090e+003;3.0358974609e+003;3.0967949219e+003;
8.6718750000e-001;3.2292307129e+003;2.9925642090e+003;3.0852563477e+003;3.1508974609e+003;3.0279487305e+003;3.1512819824e+003;3.1457692871e+003;3.1293588867e+003;3.1228205566e+003;2.9838461914e+003;3.0371794434e+003;3.0412819824e+003;3.0280769043e+003;3.0946154785e+003;
8.7500000000e-001;3.2038461914e+003;2.9334614258e+003;3.0291025391e+003;3.1247436523e+003;2.9555129395e+003;3.0758974609e+003;3.0808974609e+003;3.0548718262e+003;3.0315385742e+003;2.9144870605e+003;2.9816667480e+003;2.9939743652e+003;2.9776923828e+003;3.0417949219e+003;
8.8281250000e-001;3.2026923828e+003;2.9316667480e+003;3.0267949219e+003;3.1152563477e+003;2.9561538086e+003;3.0716667480e+003;3.0743588867e+003;3.0475642090e+003;3.0275642090e+003;2.9093588867e+003;2.9734614258e+003;2.9888461914e+003;2.9755129395e+003;3.0388461914e+003;
8.9062500000e-001;3.1907692871e+003;2.9003845215e+003;3.0129487305e+003;3.0751281738e+003;2.9262819824e+003;3.0476923828e+003;3.0448718262e+003;3.0255129395e+003;3.0239743652e+003;2.8988461914e+003;2.9543588867e+003;2.9776923828e+003;2.9492307129e+003;3.0182050781e+003;
8.9843750000e-001;3.1574357910e+003;2.8461538086e+003;2.9660256348e+003;3.0364101563e+003;2.8712819824e+003;2.9948718262e+003;2.9910256348e+003;2.9728205566e+003;2.9771794434e+003;2.8574357910e+003;2.9128205566e+003;2.9346154785e+003;2.9011538086e+003;2.9723076172e+003;
9.0625000000e-001;3.1635898438e+003;2.8517949219e+003;2.9642307129e+003;3.0348718262e+003;2.8771794434e+003;2.9939743652e+003;2.9906411133e+003;2.9735898438e+003;2.9816667480e+003;2.8612819824e+003;2.9228205566e+003;2.9326923828e+003;2.9053845215e+003;2.9743588867e+003;
9.1406250000e-001;3.1275642090e+003;2.8180769043e+003;2.9126923828e+003;2.9769230957e+003;2.8356411133e+003;2.9556411133e+003;2.9483332520e+003;2.9338461914e+003;2.9471794434e+003;2.8173076172e+003;2.8838461914e+003;2.8837180176e+003;2.8708974609e+003;2.9307692871e+003;
9.2187500000e-001;3.1169230957e+003;2.8060256348e+003;2.8989743652e+003;2.9723076172e+003;2.8242307129e+003;2.9469230957e+003;2.9393588867e+003;2.9235898438e+003;2.9335898438e+003;2.8039743652e+003;2.8626923828e+003;2.8694870605e+003;2.8597436523e+003;2.9170512695e+003;
9.2968750000e-001;3.1293588867e+003;2.8087180176e+003;2.9060256348e+003;3.0108974609e+003;2.8378205566e+003;2.9580769043e+003;2.9546154785e+003;2.9353845215e+003;2.9367949219e+003;2.8128205566e+003;2.8628205566e+003;2.8726923828e+003;2.8615385742e+003;2.9198718262e+003;
9.3750000000e-001;3.1414101563e+003;2.8147436523e+003;2.9153845215e+003;3.0301281738e+003;2.8473076172e+003;2.9671794434e+003;2.9660256348e+003;2.9447436523e+003;2.9434614258e+003;2.8228205566e+003;2.8741025391e+003;2.8807692871e+003;2.8655129395e+003;2.9274357910e+003;
9.4531250000e-001;3.1626923828e+003;2.8297436523e+003;2.9261538086e+003;3.0224357910e+003;2.8526923828e+003;2.9794870605e+003;2.9835898438e+003;2.9585898438e+003;2.9564101563e+003;2.8411538086e+003;2.8796154785e+003;2.8956411133e+003;2.8812819824e+003;2.9416667480e+003;
9.5312500000e-001;3.1612819824e+003;2.8278205566e+003;2.9232050781e+003;3.0107692871e+003;2.8507692871e+003;2.9770512695e+003;2.9835898438e+003;2.9582050781e+003;2.9552563477e+003;2.8379487305e+003;2.8744870605e+003;2.8935898438e+003;2.8787180176e+003;2.9379487305e+003;
9.6093750000e-001;3.1606411133e+003;2.8270512695e+003;2.9217949219e+003;3.0067949219e+003;2.8524357910e+003;2.9751281738e+003;2.9834614258e+003;2.9578205566e+003;2.9532050781e+003;2.8338461914e+003;2.8765385742e+003;2.8919230957e+003;2.8742307129e+003;2.9343588867e+003;
9.6875000000e-001;3.1779487305e+003;2.8410256348e+003;2.9307692871e+003;3.0307692871e+003;2.8623076172e+003;2.9708974609e+003;2.9784614258e+003;2.9403845215e+003;2.9278205566e+003;2.8424357910e+003;2.8852563477e+003;2.9001281738e+003;2.8852563477e+003;2.9414101563e+003;
9.7656250000e-001;3.1576923828e+003;2.8152563477e+003;2.9084614258e+003;3.0051281738e+003;2.8411538086e+003;2.9470512695e+003;2.9565385742e+003;2.9153845215e+003;2.9074357910e+003;2.8205129395e+003;2.8591025391e+003;2.8780769043e+003;2.8661538086e+003;2.9202563477e+003;
9.8437500000e-001;3.1615385742e+003;2.8138461914e+003;2.9021794434e+003;2.9915385742e+003;2.8417949219e+003;2.9434614258e+003;2.9503845215e+003;2.9119230957e+003;2.9162819824e+003;2.8187180176e+003;2.8678205566e+003;2.8792307129e+003;2.8687180176e+003;2.9203845215e+003;
9.9218750000e-001;3.1894870605e+003;2.8425642090e+003;2.9265385742e+003;3.0128205566e+003;2.8661538086e+003;2.9683332520e+003;2.9711538086e+003;2.9362819824e+003;2.9448718262e+003;2.8458974609e+003;2.8991025391e+003;2.9093588867e+003;2.8933332520e+003;2.9482050781e+003;
1.0000000000e+000;3.2641025391e+003;2.9233332520e+003;3.0051281738e+003;3.0848718262e+003;2.9370512695e+003;3.0364101563e+003;3.0356411133e+003;3.0023076172e+003;3.0139743652e+003;2.9253845215e+003;2.9637180176e+003;2.9894870605e+003;2.9625642090e+003;3.0266667480e+003;
1.0078125000e+000;3.2751281738e+003;2.9351281738e+003;3.0156411133e+003;3.0947436523e+003;2.9478205566e+003;3.0437180176e+003;3.0451281738e+003;3.0119230957e+003;3.0229487305e+003;2.9353845215e+003;2.9738461914e+003;2.9971794434e+003;2.9744870605e+003;3.0357692871e+003;
1.0156250000e+000;3.3856411133e+003;3.0429487305e+003;3.1182050781e+003;3.1916667480e+003;3.0542307129e+003;3.1437180176e+003;3.1482050781e+003;3.1178205566e+003;3.1269230957e+003;3.0426923828e+003;3.0903845215e+003;3.1035898438e+003;3.0808974609e+003;3.1371794434e+003;
1.0234375000e+000;3.5194870605e+003;3.1976923828e+003;3.2620512695e+003;3.3289743652e+003;3.2117949219e+003;3.2828205566e+003;3.2828205566e+003;3.2584614258e+003;3.2697436523e+003;3.1975642090e+003;3.2283332520e+003;3.2432050781e+003;3.2214101563e+003;3.2779487305e+003;
1.0312500000e+000;3.5230769043e+003;3.2082050781e+003;3.2689743652e+003;3.3334614258e+003;3.2179487305e+003;3.2871794434e+003;3.2889743652e+003;3.2637180176e+003;3.2746154785e+003;3.2019230957e+003;3.2305129395e+003;3.2483332520e+003;3.2262819824e+003;3.2844870605e+003;
1.0390625000e+000;3.5310256348e+003;3.2192307129e+003;3.2774357910e+003;3.3396154785e+003;3.2233332520e+003;3.2934614258e+003;3.2992307129e+003;3.2717949219e+003;3.2820512695e+003;3.2083332520e+003;3.2358974609e+003;3.2567949219e+003;3.2335898438e+003;3.2926923828e+003;
1.0468750000e+000;3.5952563477e+003;3.2865385742e+003;3.3411538086e+003;3.4079487305e+003;3.2869230957e+003;3.3589743652e+003;3.3675642090e+003;3.3410256348e+003;3.3505129395e+003;3.2819230957e+003;3.3050000000e+003;3.3221794434e+003;3.3024357910e+003;3.3551281738e+003;
1.0546875000e+000;3.6211538086e+003;3.3307692871e+003;3.3800000000e+003;3.4570512695e+003;3.3415385742e+003;3.4108974609e+003;3.4130769043e+003;3.3889743652e+003;3.3964101563e+003;3.3339743652e+003;3.3576923828e+003;3.3560256348e+003;3.3520512695e+003;3.3926923828e+003;
1.0625000000e+000;3.6107692871e+003;3.3248718262e+003;3.3735898438e+003;3.4448718262e+003;3.3364101563e+003;3.4037180176e+003;3.4082050781e+003;3.3821794434e+003;3.3896154785e+003;3.3256411133e+003;3.3516667480e+003;3.3462819824e+003;3.3444870605e+003;3.3841025391e+003;
1.0703125000e+000;3.6041025391e+003;3.3206411133e+003;3.3691025391e+003;3.4341025391e+003;3.3302563477e+003;3.3966667480e+003;3.4037180176e+003;3.3775642090e+003;3.3846154785e+003;3.3217949219e+003;3.3473076172e+003;3.3408974609e+003;3.3379487305e+003;3.3769230957e+003;
1.0781250000e+000;3.5898718262e+003;3.3076923828e+003;3.3557692871e+003;3.4178205566e+003;3.3137180176e+003;3.3820512695e+003;3.3893588867e+003;3.3647436523e+003;3.3706411133e+003;3.3121794434e+003;3.3348718262e+003;3.3312819824e+003;3.3232050781e+003;3.3619230957e+003;
1.0859375000e+000;3.3826923828e+003;3.0984614258e+003;3.1485898438e+003;3.2166667480e+003;3.1079487305e+003;3.1889743652e+003;3.1841025391e+003;3.1593588867e+003;3.1630769043e+003;3.1021794434e+003;3.1182050781e+003;3.1366667480e+003;3.1215385742e+003;3.1525642090e+003;
1.0937500000e+000;3.3500000000e+003;3.0612819824e+003;3.1161538086e+003;3.1802563477e+003;3.0748718262e+003;3.1514101563e+003;3.1511538086e+003;3.1252563477e+003;3.1337180176e+003;3.0667949219e+003;3.0847436523e+003;3.1015385742e+003;3.0866667480e+003;3.1155129395e+003;
1.1015625000e+000;3.3134614258e+003;3.0147436523e+003;3.0769230957e+003;3.1330769043e+003;3.0219230957e+003;3.0955129395e+003;3.1007692871e+003;3.0737180176e+003;3.0921794434e+003;3.0229487305e+003;3.0535898438e+003;3.0629487305e+003;3.0430769043e+003;3.0685898438e+003;
1.1093750000e+000;3.2546154785e+003;2.9538461914e+003;3.0112819824e+003;3.0762819824e+003;2.9611538086e+003;3.0420512695e+003;3.0401281738e+003;3.0179487305e+003;3.0338461914e+003;2.9574357910e+003;2.9801281738e+003;3.0052563477e+003;2.9776923828e+003;3.0064101563e+003;
1.1171875000e+000;3.2334614258e+003;2.9301281738e+003;2.9893588867e+003;3.0552563477e+003;2.9389743652e+003;3.0191025391e+003;3.0191025391e+003;2.9956411133e+003;3.0135898438e+003;2.9348718262e+003;2.9597436523e+003;2.9842307129e+003;2.9502563477e+003;2.9833332520e+003;
1.1250000000e+000;3.2714101563e+003;2.9608974609e+003;3.0211538086e+003;3.0803845215e+003;2.9603845215e+003;3.0462819824e+003;3.0501281738e+003;3.0146154785e+003;3.0382050781e+003;2.9684614258e+003;2.9917949219e+003;3.0103845215e+003;2.9887180176e+003;3.0107692871e+003;
1.1328125000e+000;3.3223076172e+003;3.0105129395e+003;3.0710256348e+003;3.1274357910e+003;3.0108974609e+003;3.0979487305e+003;3.1007692871e+003;3.0642307129e+003;3.0856411133e+003;3.0178205566e+003;3.0360256348e+003;3.0579487305e+003;3.0450000000e+003;3.0592307129e+003;
1.1406250000e+000;3.5433332520e+003;3.2439743652e+003;3.2861538086e+003;3.3512819824e+003;3.2555129395e+003;3.3188461914e+003;3.3220512695e+003;3.3001281738e+003;3.3137180176e+003;3.2526923828e+003;3.2710256348e+003;3.2771794434e+003;3.2683332520e+003;3.2814101563e+003;
1.1484375000e+000;3.5894870605e+003;3.2976923828e+003;3.3316667480e+003;3.3979487305e+003;3.3082050781e+003;3.3648718262e+003;3.3700000000e+003;3.3535898438e+003;3.3662819824e+003;3.3102563477e+003;3.3306411133e+003;3.3283332520e+003;3.3150000000e+003;3.3314101563e+003;
1.1562500000e+000;3.5860256348e+003;3.3025642090e+003;3.3343588867e+003;3.4011538086e+003;3.3105129395e+003;3.3700000000e+003;3.3773076172e+003;3.3626923828e+003;3.3712819824e+003;3.3233332520e+003;3.3351281738e+003;3.3370512695e+003;3.3203845215e+003;3.3360256348e+003;
1.1640625000e+000;3.5767949219e+003;3.2946154785e+003;3.3291025391e+003;3.4006411133e+003;3.3043588867e+003;3.3669230957e+003;3.3739743652e+003;3.3576923828e+003;3.3621794434e+003;3.3166667480e+003;3.3206411133e+003;3.3296154785e+003;3.3161538086e+003;3.3276923828e+003;
1.1718750000e+000;3.6788461914e+003;3.4084614258e+003;3.4364101563e+003;3.5201281738e+003;3.4251281738e+003;3.4737180176e+003;3.4778205566e+003;3.4624357910e+003;3.4593588867e+003;3.4232050781e+003;3.4207692871e+003;3.4303845215e+003;3.4246154785e+003;3.4307692871e+003;
1.1796875000e+000;3.7156411133e+003;3.4510256348e+003;3.4750000000e+003;3.5546154785e+003;3.4648718262e+003;3.5097436523e+003;3.5133332520e+003;3.4983332520e+003;3.4962819824e+003;3.4646154785e+003;3.4612819824e+003;3.4702563477e+003;3.4652563477e+003;3.4715385742e+003;
1.1875000000e+000;3.7375642090e+003;3.4823076172e+003;3.5024357910e+003;3.5716667480e+003;3.4871794434e+003;3.5384614258e+003;3.5407692871e+003;3.5253845215e+003;3.5258974609e+003;3.5005129395e+003;3.4956411133e+003;3.5019230957e+003;3.4982050781e+003;3.5035898438e+003;
1.1953125000e+000;3.7320512695e+003;3.4825642090e+003;3.5011538086e+003;3.5693588867e+003;3.4862819824e+003;3.5405129395e+003;3.5417949219e+003;3.5270512695e+003;3.5275642090e+003;3.5028205566e+003;3.5007692871e+003;3.5032050781e+003;3.4975642090e+003;3.5041025391e+003;
1.2031250000e+000;3.7282050781e+003;3.4851281738e+003;3.5017949219e+003;3.5711538086e+003;3.4906411133e+003;3.5429487305e+003;3.5437180176e+003;3.5294870605e+003;3.5291025391e+003;3.5046154785e+003;3.5067949219e+003;3.5069230957e+003;3.4967949219e+003;3.5064101563e+003;
1.2109375000e+000;3.8648718262e+003;3.6223076172e+003;3.6455129395e+003;3.6926923828e+003;3.6262819824e+003;3.6553845215e+003;3.6560256348e+003;3.6469230957e+003;3.6541025391e+003;3.6497436523e+003;3.6403845215e+003;3.6533332520e+003;3.6439743652e+003;3.6460256348e+003;
1.2187500000e+000;3.8817949219e+003;3.6428205566e+003;3.6647436523e+003;3.7119230957e+003;3.6428205566e+003;3.6716667480e+003;3.6711538086e+003;3.6625642090e+003;3.6732050781e+003;3.6710256348e+003;3.6646154785e+003;3.6717949219e+003;3.6641025391e+003;3.6655129395e+003;
1.2265625000e+000;3.9505129395e+003;3.7306411133e+003;3.7402563477e+003;3.8026923828e+003;3.7255129395e+003;3.7521794434e+003;3.7503845215e+003;3.7411538086e+003;3.7582050781e+003;3.7501281738e+003;3.7534614258e+003;3.7474357910e+003;3.7444870605e+003;3.7453845215e+003;
1.2343750000e+000;4.0960258789e+003;3.8815385742e+003;3.8902563477e+003;3.9624357910e+003;3.8785898438e+003;3.9025642090e+003;3.9000000000e+003;3.8934614258e+003;3.9010256348e+003;3.9007692871e+003;3.8847436523e+003;3.8984614258e+003;3.8866667480e+003;3.8898718262e+003;
1.2421875000e+000;4.1542309570e+003;3.9453845215e+003;3.9523076172e+003;4.0167949219e+003;3.9430769043e+003;3.9614101563e+003;3.9605129395e+003;3.9557692871e+003;3.9611538086e+003;3.9634614258e+003;3.9491025391e+003;3.9607692871e+003;3.9452563477e+003;3.9507692871e+003;
1.2500000000e+000;4.1705126953e+003;3.9776923828e+003;3.9875642090e+003;4.0214101563e+003;3.9780769043e+003;3.9951281738e+003;3.9996154785e+003;3.9984614258e+003;4.0019230957e+003;4.0021794434e+003;3.9970512695e+003;3.9915385742e+003;3.9850000000e+003;3.9865385742e+003;
1.2578125000e+000;4.1402563477e+003;3.9500000000e+003;3.9615385742e+003;3.9948718262e+003;3.9521794434e+003;3.9728205566e+003;3.9765385742e+003;3.9748718262e+003;3.9762819824e+003;3.9750000000e+003;3.9664101563e+003;3.9617949219e+003;3.9557692871e+003;3.9587180176e+003;
1.2656250000e+000;4.0767949219e+003;3.9067949219e+003;3.9033332520e+003;3.9503845215e+003;3.9111538086e+003;3.9274357910e+003;3.9234614258e+003;3.9264101563e+003;3.9210256348e+003;3.9208974609e+003;3.8993588867e+003;3.9016667480e+003;3.8903845215e+003;3.8971794434e+003;
1.2734375000e+000;4.0433332520e+003;3.8755129395e+003;3.8726923828e+003;3.9175642090e+003;3.8792307129e+003;3.8974357910e+003;3.8932050781e+003;3.8935898438e+003;3.8879487305e+003;3.8887180176e+003;3.8688461914e+003;3.8712819824e+003;3.8621794434e+003;3.8667949219e+003;
1.2812500000e+000;3.9960256348e+003;3.8233332520e+003;3.8289743652e+003;3.8670512695e+003;3.8260256348e+003;3.8525642090e+003;3.8503845215e+003;3.8398718262e+003;3.8394870605e+003;3.8416667480e+003;3.8248718262e+003;3.8237180176e+003;3.8269230957e+003;3.8255129395e+003;
1.2890625000e+000;3.9894870605e+003;3.8162819824e+003;3.8232050781e+003;3.8614101563e+003;3.8192307129e+003;3.8465385742e+003;3.8444870605e+003;3.8320512695e+003;3.8356411133e+003;3.8383332520e+003;3.8173076172e+003;3.8161538086e+003;3.8242307129e+003;3.8217949219e+003;
1.2968750000e+000;3.9265385742e+003;3.7570512695e+003;3.7705129395e+003;3.8052563477e+003;3.7567949219e+003;3.7865385742e+003;3.7823076172e+003;3.7723076172e+003;3.7780769043e+003;3.7747436523e+003;3.7517949219e+003;3.7601281738e+003;3.7525642090e+003;3.7660256348e+003;
1.3046875000e+000;4.0091025391e+003;3.8371794434e+003;3.8457692871e+003;3.8796154785e+003;3.8319230957e+003;3.8558974609e+003;3.8502563477e+003;3.8380769043e+003;3.8429487305e+003;3.8447436523e+003;3.8407692871e+003;3.8402563477e+003;3.8365385742e+003;3.8453845215e+003;
1.3125000000e+000;4.0462819824e+003;3.8764101563e+003;3.8816667480e+003;3.9137180176e+003;3.8708974609e+003;3.8887180176e+003;3.8852563477e+003;3.8753845215e+003;3.8801281738e+003;3.8861538086e+003;3.8776923828e+003;3.8785898438e+003;3.8806411133e+003;3.8841025391e+003;
1.3203125000e+000;4.0574357910e+003;3.8897436523e+003;3.8952563477e+003;3.9247436523e+003;3.8847436523e+003;3.8974357910e+003;3.8974357910e+003;3.8893588867e+003;3.8944870605e+003;3.9020512695e+003;3.8896154785e+003;3.8919230957e+003;3.8952563477e+003;3.8970512695e+003;
1.3281250000e+000;4.0515385742e+003;3.8853845215e+003;3.8938461914e+003;3.9220512695e+003;3.8819230957e+003;3.8911538086e+003;3.8942307129e+003;3.8857692871e+003;3.8921794434e+003;3.8988461914e+003;3.8874357910e+003;3.8876923828e+003;3.8869230957e+003;3.8911538086e+003;
1.3359375000e+000;4.1806411133e+003;4.0302563477e+003;4.0292307129e+003;4.0578205566e+003;4.0253845215e+003;4.0337180176e+003;4.0303845215e+003;4.0211538086e+003;4.0182050781e+003;4.0329487305e+003;4.0193588867e+003;4.0215385742e+003;4.0164101563e+003;4.0221794434e+003;
1.3437500000e+000;4.2212822266e+003;4.0783332520e+003;4.0720512695e+003;4.0946154785e+003;4.0685898438e+003;4.0766667480e+003;4.0738461914e+003;4.0711538086e+003;4.0610256348e+003;4.0797436523e+003;4.0560256348e+003;4.0662819824e+003;4.0676923828e+003;4.0679487305e+003;
1.3515625000e+000;4.1814101563e+003;4.0483332520e+003;4.0410256348e+003;4.0610256348e+003;4.0412819824e+003;4.0502563477e+003;4.0483332520e+003;4.0515385742e+003;4.0423076172e+003;4.0576923828e+003;4.0387180176e+003;4.0412819824e+003;4.0330769043e+003;4.0374357910e+003;
1.3593750000e+000;4.1107690430e+003;3.9778205566e+003;3.9787180176e+003;4.0021794434e+003;3.9750000000e+003;3.9955129395e+003;3.9894870605e+003;3.9885898438e+003;3.9861538086e+003;3.9937180176e+003;3.9730769043e+003;3.9766667480e+003;3.9708974609e+003;3.9706411133e+003;
1.3671875000e+000;4.0920512695e+003;3.9601281738e+003;3.9647436523e+003;3.9848718262e+003;3.9576923828e+003;3.9803845215e+003;3.9753845215e+003;3.9757692871e+003;3.9708974609e+003;3.9773076172e+003;3.9493588867e+003;3.9585898438e+003;3.9560256348e+003;3.9553845215e+003;
1.3750000000e+000;4.1037177734e+003;3.9812819824e+003;3.9739743652e+003;4.0130769043e+003;3.9833332520e+003;3.9914101563e+003;3.9860256348e+003;3.9796154785e+003;3.9756411133e+003;3.9926923828e+003;3.9648718262e+003;3.9671794434e+003;3.9610256348e+003;3.9707692871e+003;
1.3828125000e+000;4.1235898438e+003;4.0052563477e+003;3.9893588867e+003;4.0374357910e+003;4.0064101563e+003;4.0102563477e+003;4.0037180176e+003;3.9960256348e+003;3.9921794434e+003;4.0153845215e+003;3.9858974609e+003;3.9847436523e+003;3.9833332520e+003;3.9894870605e+003;
1.3906250000e+000;4.0785898438e+003;3.9547436523e+003;3.9510256348e+003;3.9869230957e+003;3.9543588867e+003;3.9733332520e+003;3.9717949219e+003;3.9626923828e+003;3.9514101563e+003;3.9716667480e+003;3.9437180176e+003;3.9524357910e+003;3.9524357910e+003;3.9507692871e+003;
1.3984375000e+000;4.0656411133e+003;3.9366667480e+003;3.9417949219e+003;3.9712819824e+003;3.9403845215e+003;3.9614101563e+003;3.9587180176e+003;3.9482050781e+003;3.9391025391e+003;3.9566667480e+003;3.9387180176e+003;3.9453845215e+003;3.9365385742e+003;3.9407692871e+003;
1.4062500000e+000;4.0843588867e+003;3.9514101563e+003;3.9603845215e+003;3.9856411133e+003;3.9582050781e+003;3.9728205566e+003;3.9647436523e+003;3.9532050781e+003;3.9539743652e+003;3.9773076172e+003;3.9732050781e+003;3.9662819824e+003;3.9506411133e+003;3.9629487305e+003;
1.4140625000e+000;4.0932050781e+003;3.9611538086e+003;3.9683332520e+003;3.9901281738e+003;3.9623076172e+003;3.9778205566e+003;3.9705129395e+003;3.9571794434e+003;3.9616667480e+003;3.9889743652e+003;3.9823076172e+003;3.9739743652e+003;3.9634614258e+003;3.9728205566e+003;
1.4218750000e+000;4.1496152344e+003;4.0243588867e+003;4.0280769043e+003;4.0351281738e+003;4.0158974609e+003;4.0402563477e+003;4.0408974609e+003;4.0265385742e+003;4.0323076172e+003;4.0561538086e+003;4.0219230957e+003;4.0324357910e+003;4.0421794434e+003;4.0308974609e+003;
1.4296875000e+000;4.1938461914e+003;4.0705129395e+003;4.0750000000e+003;4.0832050781e+003;4.0675642090e+003;4.0855129395e+003;4.0855129395e+003;4.0769230957e+003;4.0825642090e+003;4.1071796875e+003;4.0705129395e+003;4.0802563477e+003;4.0889743652e+003;4.0775642090e+003;
1.4375000000e+000;4.2469228516e+003;4.1285898438e+003;4.1356411133e+003;4.1441025391e+003;4.1323076172e+003;4.1332050781e+003;4.1328203125e+003;4.1357690430e+003;4.1420512695e+003;4.1693588867e+003;4.1456411133e+003;4.1417949219e+003;4.1441025391e+003;4.1396152344e+003;
1.4453125000e+000;4.2462822266e+003;4.1325639648e+003;4.1370512695e+003;4.1405126953e+003;4.1337177734e+003;4.1308974609e+003;4.1323076172e+003;4.1376923828e+003;4.1438461914e+003;4.1696152344e+003;4.1516665039e+003;4.1432050781e+003;4.1457690430e+003;4.1426923828e+003;
1.4531250000e+000;4.2380771484e+003;4.1298715820e+003;4.1292309570e+003;4.1271796875e+003;4.1260258789e+003;4.1247436523e+003;4.1276923828e+003;4.1342309570e+003;4.1388461914e+003;4.1625639648e+003;4.1455126953e+003;4.1362822266e+003;4.1393588867e+003;4.1367949219e+003;
1.4609375000e+000;4.2303847656e+003;4.1269228516e+003;4.1216665039e+003;4.1173076172e+003;4.1180771484e+003;4.1225639648e+003;4.1255126953e+003;4.1328203125e+003;4.1343588867e+003;4.1576923828e+003;4.1383334961e+003;4.1307690430e+003;4.1305126953e+003;4.1311538086e+003;
1.4687500000e+000;4.2753847656e+003;4.1800000000e+003;4.1746152344e+003;4.1871796875e+003;4.1771796875e+003;4.1824360352e+003;4.1820512695e+003;4.1873076172e+003;4.1867949219e+003;4.2171796875e+003;4.1974360352e+003;4.1824360352e+003;4.1808974609e+003;4.1846152344e+003;
1.4765625000e+000;4.3412822266e+003;4.2573076172e+003;4.2529487305e+003;4.2551284180e+003;4.2665385742e+003;4.2775639648e+003;4.2711538086e+003;4.2712822266e+003;4.2756411133e+003;4.3021796875e+003;4.2516665039e+003;4.2511538086e+003;4.2583334961e+003;4.2562822266e+003;
1.4843750000e+000;4.3342309570e+003;4.2558974609e+003;4.2491025391e+003;4.2478203125e+003;4.2678203125e+003;4.2750000000e+003;4.2655126953e+003;4.2701284180e+003;4.2755126953e+003;4.3029487305e+003;4.2569228516e+003;4.2510258789e+003;4.2506411133e+003;4.2551284180e+003;
1.4921875000e+000;4.2942309570e+003;4.2244873047e+003;4.2096152344e+003;4.2161538086e+003;4.2329487305e+003;4.2302563477e+003;4.2189741211e+003;4.2264101563e+003;4.2373076172e+003;4.2705126953e+003;4.2343588867e+003;4.2164101563e+003;4.2225639648e+003;4.2202563477e+003;
1.5000000000e+000;4.2753847656e+003;4.2052563477e+003;4.1908974609e+003;4.2037177734e+003;4.2094873047e+003;4.2060258789e+003;4.1956411133e+003;4.1978203125e+003;4.2091025391e+003;4.2461538086e+003;4.2097436523e+003;4.1935898438e+003;4.2092309570e+003;4.1998715820e+003;
1.5078125000e+000;4.2960258789e+003;4.2285898438e+003;4.2148715820e+003;4.2228203125e+003;4.2252563477e+003;4.2226923828e+003;4.2124360352e+003;4.2015385742e+003;4.2135898438e+003;4.2507690430e+003;4.2235898438e+003;4.2084614258e+003;4.2243588867e+003;4.2234614258e+003;
1.5156250000e+000;4.2871796875e+003;4.2228203125e+003;4.2091025391e+003;4.2103847656e+003;4.2193588867e+003;4.2179487305e+003;4.2061538086e+003;4.1975639648e+003;4.2132050781e+003;4.2465385742e+003;4.2261538086e+003;4.2074360352e+003;4.2164101563e+003;4.2194873047e+003;
1.5234375000e+000;4.1805126953e+003;4.1092309570e+003;4.1102563477e+003;4.1064101563e+003;4.1069228516e+003;4.1155126953e+003;4.1043588867e+003;4.0973076172e+003;4.1108974609e+003;4.1446152344e+003;4.1160258789e+003;4.1124360352e+003;4.1208974609e+003;4.1156411133e+003;
1.5312500000e+000;4.1666665039e+003;4.0993588867e+003;4.0923076172e+003;4.0867949219e+003;4.0915385742e+003;4.1015385742e+003;4.0951281738e+003;4.0878205566e+003;4.0942307129e+003;4.1200000000e+003;4.0993588867e+003;4.1000000000e+003;4.1051284180e+003;4.1064101563e+003;
1.5390625000e+000;4.1732050781e+003;4.1069228516e+003;4.0979487305e+003;4.0887180176e+003;4.0950000000e+003;4.1070512695e+003;4.1055126953e+003;4.0983334961e+003;4.1050000000e+003;4.1246152344e+003;4.1120512695e+003;4.1078203125e+003;4.1091025391e+003;4.1121796875e+003;
1.5468750000e+000;4.2134614258e+003;4.1423076172e+003;4.1414101563e+003;4.1388461914e+003;4.1333334961e+003;4.1451284180e+003;4.1517949219e+003;4.1462822266e+003;4.1484614258e+003;4.1733334961e+003;4.1457690430e+003;4.1424360352e+003;4.1503847656e+003;4.1425639648e+003;
1.5546875000e+000;4.2237177734e+003;4.1556411133e+003;4.1534614258e+003;4.1584614258e+003;4.1506411133e+003;4.1569228516e+003;4.1629487305e+003;4.1589741211e+003;4.1580771484e+003;4.1873076172e+003;4.1515385742e+003;4.1519228516e+003;4.1619228516e+003;4.1534614258e+003;
1.5625000000e+000;4.2279487305e+003;4.1739741211e+003;4.1608974609e+003;4.1685898438e+003;4.1691025391e+003;4.1676923828e+003;4.1705126953e+003;4.1696152344e+003;4.1660258789e+003;4.1941025391e+003;4.1605126953e+003;4.1575639648e+003;4.1693588867e+003;4.1639741211e+003;
1.5703125000e+000;4.2192309570e+003;4.1708974609e+003;4.1537177734e+003;4.1547436523e+003;4.1638461914e+003;4.1646152344e+003;4.1650000000e+003;4.1650000000e+003;4.1608974609e+003;4.1861538086e+003;4.1585898438e+003;4.1514101563e+003;4.1619228516e+003;4.1579487305e+003;
1.5781250000e+000;4.2032050781e+003;4.1562822266e+003;4.1393588867e+003;4.1329487305e+003;4.1484614258e+003;4.1541025391e+003;4.1517949219e+003;4.1514101563e+003;4.1465385742e+003;4.1702563477e+003;4.1466665039e+003;4.1384614258e+003;4.1447436523e+003;4.1430771484e+003;
1.5859375000e+000;4.2135898438e+003;4.1616665039e+003;4.1516665039e+003;4.1750000000e+003;4.1642309570e+003;4.1646152344e+003;4.1574360352e+003;4.1383334961e+003;4.1446152344e+003;4.1783334961e+003;4.1462822266e+003;4.1455126953e+003;4.1607690430e+003;4.1532050781e+003;
1.5937500000e+000;4.2301284180e+003;4.1867949219e+003;4.1691025391e+003;4.1903847656e+003;4.1861538086e+003;4.1860258789e+003;4.1775639648e+003;4.1574360352e+003;4.1632050781e+003;4.1993588867e+003;4.1723076172e+003;4.1674360352e+003;4.1812822266e+003;4.1750000000e+003;
1.6015625000e+000;4.3301284180e+003;4.2917949219e+003;4.2661538086e+003;4.2793588867e+003;4.2816665039e+003;4.2842309570e+003;4.2728203125e+003;4.2492309570e+003;4.2539741211e+003;4.2984614258e+003;4.2760258789e+003;4.2635898438e+003;4.2784614258e+003;4.2751284180e+003;
1.6093750000e+000;4.3723076172e+003;4.3321796875e+003;4.3092309570e+003;4.3261538086e+003;4.3214101563e+003;4.3188461914e+003;4.3098715820e+003;4.2882050781e+003;4.2921796875e+003;4.3403847656e+003;4.3170512695e+003;4.3046152344e+003;4.3221796875e+003;4.3161538086e+003;
1.6171875000e+000;4.4291025391e+003;4.3942309570e+003;4.3728203125e+003;4.3911538086e+003;4.3867949219e+003;4.3670512695e+003;4.3643588867e+003;4.3493588867e+003;4.3500000000e+003;4.4030771484e+003;4.3808974609e+003;4.3762822266e+003;4.3861538086e+003;4.3802563477e+003;
1.6250000000e+000;4.4470512695e+003;4.4108974609e+003;4.4056411133e+003;4.3844873047e+003;4.4097436523e+003;4.3975639648e+003;4.3946152344e+003;4.3896152344e+003;4.3875639648e+003;4.4389741211e+003;4.4089741211e+003;4.4108974609e+003;4.4135898438e+003;4.4078203125e+003;
1.6328125000e+000;4.4146152344e+003;4.3787177734e+003;4.3760258789e+003;4.3510258789e+003;4.3762822266e+003;4.3684614258e+003;4.3673076172e+003;4.3643588867e+003;4.3619228516e+003;4.4097436523e+003;4.3870512695e+003;4.3832050781e+003;4.3839741211e+003;4.3798715820e+003;
1.6406250000e+000;4.3612822266e+003;4.3417949219e+003;4.3275639648e+003;4.3092309570e+003;4.3342309570e+003;4.3225639648e+003;4.3252563477e+003;4.3288461914e+003;4.3232050781e+003;4.3664101563e+003;4.3467949219e+003;4.3430771484e+003;4.3453847656e+003;4.3370512695e+003;
1.6484375000e+000;4.3673076172e+003;4.3510258789e+003;4.3369228516e+003;4.3164101563e+003;4.3428203125e+003;4.3317949219e+003;4.3330771484e+003;4.3378203125e+003;4.3308974609e+003;4.3732050781e+003;4.3457690430e+003;4.3489741211e+003;4.3530771484e+003;4.3415385742e+003;
1.6562500000e+000;4.4062822266e+003;4.3917949219e+003;4.3767949219e+003;4.3485898438e+003;4.3823076172e+003;4.3756411133e+003;4.3726923828e+003;4.3775639648e+003;4.3703847656e+003;4.4124360352e+003;4.3811538086e+003;4.3833334961e+003;4.3846152344e+003;4.3742309570e+003;
1.6640625000e+000;4.4461538086e+003;4.4337177734e+003;4.4143588867e+003;4.3842309570e+003;4.4243588867e+003;4.4161538086e+003;4.4124360352e+003;4.4174360352e+003;4.4115385742e+003;4.4558974609e+003;4.4283334961e+003;4.4216665039e+003;4.4207690430e+003;4.4124360352e+003;
1.6718750000e+000;4.4944873047e+003;4.4850000000e+003;4.4617949219e+003;4.4302563477e+003;4.4769228516e+003;4.4641025391e+003;4.4607690430e+003;4.4661538086e+003;4.4616665039e+003;4.5096152344e+003;4.4839741211e+003;4.4698715820e+003;4.4688461914e+003;4.4610258789e+003;
1.6796875000e+000;4.5634614258e+003;4.5615385742e+003;4.5389741211e+003;4.5038461914e+003;4.5585898438e+003;4.5343588867e+003;4.5306411133e+003;4.5357690430e+003;4.5320512695e+003;4.5878203125e+003;4.5535898438e+003;4.5411538086e+003;4.5480771484e+003;4.5335898438e+003;
1.6875000000e+000;4.5592309570e+003;4.5757690430e+003;4.5434614258e+003;4.5151284180e+003;4.5742309570e+003;4.5476923828e+003;4.5396152344e+003;4.5396152344e+003;4.5364101563e+003;4.6043588867e+003;4.5628203125e+003;4.5467949219e+003;4.5633334961e+003;4.5319228516e+003;
1.6953125000e+000;4.5628203125e+003;4.5834614258e+003;4.5460258789e+003;4.5182050781e+003;4.5802563477e+003;4.5570512695e+003;4.5492309570e+003;4.5460258789e+003;4.5450000000e+003;4.6151284180e+003;4.5771796875e+003;4.5551284180e+003;4.5702563477e+003;4.5369228516e+003;
1.7031250000e+000;4.5744873047e+003;4.5953847656e+003;4.5571796875e+003;4.5273076172e+003;4.5916665039e+003;4.5705126953e+003;4.5629487305e+003;4.5571796875e+003;4.5587177734e+003;4.6300000000e+003;4.5947436523e+003;4.5688461914e+003;4.5833334961e+003;4.5497436523e+003;
1.7109375000e+000;4.5810258789e+003;4.5989741211e+003;4.5644873047e+003;4.5325639648e+003;4.5967949219e+003;4.5757690430e+003;4.5670512695e+003;4.5606411133e+003;4.5641025391e+003;4.6360258789e+003;4.6005126953e+003;4.5742309570e+003;4.5900000000e+003;4.5567949219e+003;
1.7187500000e+000;4.4053847656e+003;4.4185898438e+003;4.3992309570e+003;4.3715385742e+003;4.4112822266e+003;4.4105126953e+003;4.3943588867e+003;4.3903847656e+003;4.3888461914e+003;4.4542309570e+003;4.4005126953e+003;4.4043588867e+003;4.4071796875e+003;4.3835898438e+003;
1.7265625000e+000;4.3782050781e+003;4.3938461914e+003;4.3728203125e+003;4.3406411133e+003;4.3825639648e+003;4.3858974609e+003;4.3741025391e+003;4.3682050781e+003;4.3666665039e+003;4.4270512695e+003;4.3741025391e+003;4.3832050781e+003;4.3753847656e+003;4.3591025391e+003;
1.7343750000e+000;4.3898715820e+003;4.4034614258e+003;4.3808974609e+003;4.3438461914e+003;4.4039741211e+003;4.3889741211e+003;4.3834614258e+003;4.3857690430e+003;4.3838461914e+003;4.4428203125e+003;4.4020512695e+003;4.3969228516e+003;4.3912822266e+003;4.3774360352e+003;
1.7421875000e+000;4.3450000000e+003;4.3416665039e+003;4.3374360352e+003;4.3102563477e+003;4.3402563477e+003;4.3289741211e+003;4.3280771484e+003;4.3326923828e+003;4.3352563477e+003;4.3876923828e+003;4.3533334961e+003;4.3405126953e+003;4.3473076172e+003;4.3261538086e+003;
1.7500000000e+000;4.3142309570e+003;4.3088461914e+003;4.3075639648e+003;4.2802563477e+003;4.3026923828e+003;4.2979487305e+003;4.2966665039e+003;4.3041025391e+003;4.3075639648e+003;4.3557690430e+003;4.3205126953e+003;4.3111538086e+003;4.3117949219e+003;4.2955126953e+003;
1.7578125000e+000;4.2682050781e+003;4.2653847656e+003;4.2558974609e+003;4.2333334961e+003;4.2644873047e+003;4.2580771484e+003;4.2530771484e+003;4.2598715820e+003;4.2565385742e+003;4.3037177734e+003;4.2642309570e+003;4.2653847656e+003;4.2641025391e+003;4.2498715820e+003;
1.7656250000e+000;4.3037177734e+003;4.3030771484e+003;4.2889741211e+003;4.2624360352e+003;4.3041025391e+003;4.2935898438e+003;4.2887177734e+003;4.2946152344e+003;4.2903847656e+003;4.3401284180e+003;4.2988461914e+003;4.2956411133e+003;4.3039741211e+003;4.2834614258e+003;
1.7734375000e+000;4.2824360352e+003;4.2791025391e+003;4.2741025391e+003;4.2387177734e+003;4.2767949219e+003;4.2805126953e+003;4.2693588867e+003;4.2765385742e+003;4.2805126953e+003;4.3283334961e+003;4.2838461914e+003;4.2716665039e+003;4.2826923828e+003;4.2642309570e+003;
1.7812500000e+000;4.1576923828e+003;4.1539741211e+003;4.1429487305e+003;4.1347436523e+003;4.1578203125e+003;4.1582050781e+003;4.1414101563e+003;4.1401284180e+003;4.1480771484e+003;4.1815385742e+003;4.1496152344e+003;4.1403847656e+003;4.1521796875e+003;4.1341025391e+003;
1.7890625000e+000;4.1500000000e+003;4.1465385742e+003;4.1310258789e+003;4.1205126953e+003;4.1492309570e+003;4.1483334961e+003;4.1324360352e+003;4.1312822266e+003;4.1389741211e+003;4.1723076172e+003;4.1416665039e+003;4.1321796875e+003;4.1450000000e+003;4.1247436523e+003;
1.7968750000e+000;4.1238461914e+003;4.1174360352e+003;4.1044873047e+003;4.0851281738e+003;4.1175639648e+003;4.1215385742e+003;4.1070512695e+003;4.1053847656e+003;4.1128203125e+003;4.1485898438e+003;4.1179487305e+003;4.1087177734e+003;4.1187177734e+003;4.0994873047e+003;
1.8046875000e+000;3.9982050781e+003;3.9774357910e+003;3.9860256348e+003;3.9503845215e+003;3.9797436523e+003;3.9997436523e+003;3.9853845215e+003;3.9751281738e+003;3.9844870605e+003;4.0216667480e+003;3.9955129395e+003;3.9864101563e+003;3.9864101563e+003;3.9762819824e+003;
1.8125000000e+000;3.9785898438e+003;3.9442307129e+003;3.9573076172e+003;3.9326923828e+003;3.9580769043e+003;3.9737180176e+003;3.9623076172e+003;3.9337180176e+003;3.9451281738e+003;3.9675642090e+003;3.9467949219e+003;3.9539743652e+003;3.9492307129e+003;3.9435898438e+003;
1.8203125000e+000;4.0570512695e+003;4.0224357910e+003;4.0303845215e+003;4.0079487305e+003;4.0335898438e+003;4.0446154785e+003;4.0364101563e+003;4.0064101563e+003;4.0156411133e+003;4.0402563477e+003;4.0164101563e+003;4.0297436523e+003;4.0246154785e+003;4.0197436523e+003;
1.8281250000e+000;4.1423076172e+003;4.1074360352e+003;4.1126923828e+003;4.0888461914e+003;4.1139741211e+003;4.1221796875e+003;4.1165385742e+003;4.0878205566e+003;4.0942307129e+003;4.1261538086e+003;4.0994873047e+003;4.1137177734e+003;4.1079487305e+003;4.1048715820e+003;
1.8359375000e+000;4.2070512695e+003;4.1717949219e+003;4.1778203125e+003;4.1506411133e+003;4.1743588867e+003;4.1815385742e+003;4.1769228516e+003;4.1508974609e+003;4.1550000000e+003;4.1955126953e+003;4.1687177734e+003;4.1780771484e+003;4.1721796875e+003;4.1707690430e+003;
1.8437500000e+000;4.2873076172e+003;4.2548715820e+003;4.2630771484e+003;4.2367949219e+003;4.2526923828e+003;4.2505126953e+003;4.2471796875e+003;4.2361538086e+003;4.2346152344e+003;4.2806411133e+003;4.2648715820e+003;4.2634614258e+003;4.2635898438e+003;4.2541025391e+003;
1.8515625000e+000;4.3879487305e+003;4.3620512695e+003;4.3603847656e+003;4.3330771484e+003;4.3566665039e+003;4.3451284180e+003;4.3446152344e+003;4.3530771484e+003;4.3492309570e+003;4.3961538086e+003;4.3761538086e+003;4.3748715820e+003;4.3661538086e+003;4.3698715820e+003;
1.8593750000e+000;4.4117949219e+003;4.3862822266e+003;4.3865385742e+003;4.3566665039e+003;4.3828203125e+003;4.3706411133e+003;4.3691025391e+003;4.3780771484e+003;4.3726923828e+003;4.4215385742e+003;4.4029487305e+003;4.3973076172e+003;4.3889741211e+003;4.3958974609e+003;
1.8671875000e+000;4.4358974609e+003;4.4184614258e+003;4.4167949219e+003;4.3856411133e+003;4.4139741211e+003;4.4010258789e+003;4.3967949219e+003;4.4084614258e+003;4.4007690430e+003;4.4541025391e+003;4.4310258789e+003;4.4219228516e+003;4.4238461914e+003;4.4232050781e+003;
1.8750000000e+000;4.4071796875e+003;4.3952563477e+003;4.3921796875e+003;4.3579487305e+003;4.3876923828e+003;4.3779487305e+003;4.3712822266e+003;4.3841025391e+003;4.3767949219e+003;4.4302563477e+003;4.4038461914e+003;4.3958974609e+003;4.4034614258e+003;4.3980771484e+003;
1.8828125000e+000;4.2500000000e+003;4.2467949219e+003;4.2364101563e+003;4.1987177734e+003;4.2415385742e+003;4.2430771484e+003;4.2264101563e+003;4.2287177734e+003;4.2319228516e+003;4.2751284180e+003;4.2488461914e+003;4.2366665039e+003;4.2551284180e+003;4.2465385742e+003;
1.8906250000e+000;4.2276923828e+003;4.2241025391e+003;4.2130771484e+003;4.1798715820e+003;4.2239741211e+003;4.2247436523e+003;4.2067949219e+003;4.2046152344e+003;4.2102563477e+003;4.2501284180e+003;4.2258974609e+003;4.2114101563e+003;4.2302563477e+003;4.2224360352e+003;
1.8984375000e+000;4.1892309570e+003;4.1741025391e+003;4.1787177734e+003;4.1550000000e+003;4.1751284180e+003;4.1802563477e+003;4.1633334961e+003;4.1558974609e+003;4.1607690430e+003;4.1993588867e+003;4.1787177734e+003;4.1685898438e+003;4.1783334961e+003;4.1766665039e+003;
1.9062500000e+000;4.0141025391e+003;3.9930769043e+003;3.9996154785e+003;3.9846154785e+003;3.9879487305e+003;4.0058974609e+003;3.9855129395e+003;3.9716667480e+003;3.9821794434e+003;4.0178205566e+003;3.9944870605e+003;3.9946154785e+003;3.9920512695e+003;3.9979487305e+003;
1.9140625000e+000;3.9452563477e+003;3.9219230957e+003;3.9296154785e+003;3.9194870605e+003;3.9196154785e+003;3.9356411133e+003;3.9164101563e+003;3.8984614258e+003;3.9092307129e+003;3.9415385742e+003;3.9242307129e+003;3.9247436523e+003;3.9208974609e+003;3.9274357910e+003;
1.9218750000e+000;3.9006411133e+003;3.8719230957e+003;3.8826923828e+003;3.8787180176e+003;3.8732050781e+003;3.8853845215e+003;3.8694870605e+003;3.8474357910e+003;3.8578205566e+003;3.8864101563e+003;3.8764101563e+003;3.8748718262e+003;3.8748718262e+003;3.8789743652e+003;
1.9296875000e+000;3.8974357910e+003;3.8524357910e+003;3.8700000000e+003;3.8841025391e+003;3.8565385742e+003;3.8660256348e+003;3.8584614258e+003;3.8319230957e+003;3.8402563477e+003;3.8650000000e+003;3.8602563477e+003;3.8557692871e+003;3.8696154785e+003;3.8661538086e+003;
1.9375000000e+000;3.9076923828e+003;3.8467949219e+003;3.8710256348e+003;3.8987180176e+003;3.8483332520e+003;3.8696154785e+003;3.8626923828e+003;3.8428205566e+003;3.8432050781e+003;3.8684614258e+003;3.8537180176e+003;3.8615385742e+003;3.8617949219e+003;3.8665385742e+003;
1.9453125000e+000;3.8912819824e+003;3.8303845215e+003;3.8510256348e+003;3.8770512695e+003;3.8312819824e+003;3.8535898438e+003;3.8435898438e+003;3.8292307129e+003;3.8275642090e+003;3.8505129395e+003;3.8356411133e+003;3.8447436523e+003;3.8407692871e+003;3.8465385742e+003;
1.9531250000e+000;3.8705129395e+003;3.8103845215e+003;3.8258974609e+003;3.8489743652e+003;3.8108974609e+003;3.8319230957e+003;3.8198718262e+003;3.8108974609e+003;3.8087180176e+003;3.8274357910e+003;3.8135898438e+003;3.8220512695e+003;3.8193588867e+003;3.8230769043e+003;
1.9609375000e+000;3.8444870605e+003;3.7828205566e+003;3.7961538086e+003;3.8160256348e+003;3.7837180176e+003;3.8034614258e+003;3.7917949219e+003;3.7861538086e+003;3.7847436523e+003;3.7983332520e+003;3.7856411133e+003;3.7934614258e+003;3.7946154785e+003;3.7958974609e+003;
1.9687500000e+000;3.7056411133e+003;3.6192307129e+003;3.6444870605e+003;3.6762819824e+003;3.6252563477e+003;3.6569230957e+003;3.6544870605e+003;3.6429487305e+003;3.6464101563e+003;3.6407692871e+003;3.6337180176e+003;3.6458974609e+003;3.6429487305e+003;3.6511538086e+003;
1.9765625000e+000;3.6810256348e+003;3.5910256348e+003;3.6133332520e+003;3.6514101563e+003;3.5984614258e+003;3.6319230957e+003;3.6279487305e+003;3.6160256348e+003;3.6178205566e+003;3.6093588867e+003;3.6034614258e+003;3.6178205566e+003;3.6123076172e+003;3.6219230957e+003;
1.9843750000e+000;3.6216667480e+003;3.5184614258e+003;3.5417949219e+003;3.5753845215e+003;3.5385898438e+003;3.5711538086e+003;3.5630769043e+003;3.5482050781e+003;3.5523076172e+003;3.5405129395e+003;3.5289743652e+003;3.5415385742e+003;3.5423076172e+003;3.5500000000e+003;
1.9921875000e+000;3.6026923828e+003;3.4896154785e+003;3.5151281738e+003;3.5550000000e+003;3.5079487305e+003;3.5506411133e+003;3.5426923828e+003;3.5169230957e+003;3.5314101563e+003;3.5160256348e+003;3.5038461914e+003;3.5093588867e+003;3.5196154785e+003;3.5251281738e+003;
2.0000000000e+000;3.6317949219e+003;3.5185898438e+003;3.5360256348e+003;3.5823076172e+003;3.5335898438e+003;3.5738461914e+003;3.5670512695e+003;3.5382050781e+003;3.5530769043e+003;3.5382050781e+003;3.5255129395e+003;3.5319230957e+003;3.5429487305e+003;3.5491025391e+003;
2.0078125000e+000;3.7380769043e+003;3.6269230957e+003;3.6353845215e+003;3.6814101563e+003;3.6405129395e+003;3.6687180176e+003;3.6598718262e+003;3.6358974609e+003;3.6497436523e+003;3.6426923828e+003;3.6238461914e+003;3.6346154785e+003;3.6480769043e+003;3.6484614258e+003;
2.0156250000e+000;3.7423076172e+003;3.6298718262e+003;3.6460256348e+003;3.6898718262e+003;3.6442307129e+003;3.6728205566e+003;3.6637180176e+003;3.6397436523e+003;3.6537180176e+003;3.6494870605e+003;3.6308974609e+003;3.6461538086e+003;3.6553845215e+003;3.6564101563e+003;
2.0234375000e+000;3.7526923828e+003;3.6358974609e+003;3.6579487305e+003;3.7158974609e+003;3.6508974609e+003;3.6756411133e+003;3.6708974609e+003;3.6361538086e+003;3.6460256348e+003;3.6569230957e+003;3.6480769043e+003;3.6560256348e+003;3.6562819824e+003;3.6642307129e+003;
2.0312500000e+000;3.7615385742e+003;3.6347436523e+003;3.6629487305e+003;3.7110256348e+003;3.6489743652e+003;3.6838461914e+003;3.6771794434e+003;3.6414101563e+003;3.6457692871e+003;3.6600000000e+003;3.6511538086e+003;3.6594870605e+003;3.6592307129e+003;3.6660256348e+003;
2.0390625000e+000;3.7748718262e+003;3.6455129395e+003;3.6752563477e+003;3.7196154785e+003;3.6608974609e+003;3.6915385742e+003;3.6853845215e+003;3.6528205566e+003;3.6588461914e+003;3.6703845215e+003;3.6607692871e+003;3.6743588867e+003;3.6750000000e+003;3.6806411133e+003;
2.0468750000e+000;3.7923076172e+003;3.6626923828e+003;3.6911538086e+003;3.7353845215e+003;3.6782050781e+003;3.7010256348e+003;3.6960256348e+003;3.6678205566e+003;3.6769230957e+003;3.6870512695e+003;3.6779487305e+003;3.6934614258e+003;3.6950000000e+003;3.7006411133e+003;
2.0546875000e+000;3.7976923828e+003;3.6737180176e+003;3.6943588867e+003;3.7426923828e+003;3.6841025391e+003;3.6974357910e+003;3.6951281738e+003;3.6739743652e+003;3.6878205566e+003;3.6974357910e+003;3.6903845215e+003;3.7002563477e+003;3.7026923828e+003;3.7106411133e+003;
2.0625000000e+000;3.7757692871e+003;3.6593588867e+003;3.6694870605e+003;3.7108974609e+003;3.6658974609e+003;3.6891025391e+003;3.6862819824e+003;3.6720512695e+003;3.6789743652e+003;3.6837180176e+003;3.6670512695e+003;3.6747436523e+003;3.6864101563e+003;3.6869230957e+003;
2.0703125000e+000;3.7812819824e+003;3.6655129395e+003;3.6744870605e+003;3.7125642090e+003;3.6747436523e+003;3.6985898438e+003;3.6978205566e+003;3.6829487305e+003;3.6866667480e+003;3.6902563477e+003;3.6692307129e+003;3.6793588867e+003;3.6930769043e+003;3.6919230957e+003;
2.0781250000e+000;3.7980769043e+003;3.6832050781e+003;3.6920512695e+003;3.7285898438e+003;3.6955129395e+003;3.7176923828e+003;3.7193588867e+003;3.7012819824e+003;3.7039743652e+003;3.7070512695e+003;3.6839743652e+003;3.6958974609e+003;3.7084614258e+003;3.7096154785e+003;
2.0859375000e+000;3.8352563477e+003;3.7221794434e+003;3.7303845215e+003;3.7674357910e+003;3.7364101563e+003;3.7555129395e+003;3.7584614258e+003;3.7367949219e+003;3.7406411133e+003;3.7447436523e+003;3.7212819824e+003;3.7329487305e+003;3.7423076172e+003;3.7479487305e+003;
2.0937500000e+000;4.0787180176e+003;3.9710256348e+003;3.9747436523e+003;4.0096154785e+003;3.9803845215e+003;3.9973076172e+003;3.9919230957e+003;3.9766667480e+003;3.9832050781e+003;4.0039743652e+003;3.9746154785e+003;3.9796154785e+003;3.9885898438e+003;3.9923076172e+003;
2.1015625000e+000;4.0926923828e+003;3.9864101563e+003;3.9919230957e+003;4.0221794434e+003;3.9937180176e+003;4.0114101563e+003;4.0056411133e+003;3.9903845215e+003;3.9965385742e+003;4.0188461914e+003;3.9910256348e+003;3.9948718262e+003;4.0067949219e+003;4.0078205566e+003;
2.1093750000e+000;4.1262822266e+003;4.0398718262e+003;4.0353845215e+003;4.0701281738e+003;4.0470512695e+003;4.0460256348e+003;4.0444870605e+003;4.0239743652e+003;4.0367949219e+003;4.0641025391e+003;4.0328205566e+003;4.0332050781e+003;4.0507692871e+003;4.0475642090e+003;
2.1171875000e+000;4.3379487305e+003;4.2619228516e+003;4.2473076172e+003;4.2807690430e+003;4.2738461914e+003;4.2555126953e+003;4.2473076172e+003;4.2280771484e+003;4.2411538086e+003;4.2806411133e+003;4.2555126953e+003;4.2492309570e+003;4.2676923828e+003;4.2648715820e+003;
2.1250000000e+000;4.3921796875e+003;4.3212822266e+003;4.3053847656e+003;4.3284614258e+003;4.3308974609e+003;4.3112822266e+003;4.3000000000e+003;4.2833334961e+003;4.2951284180e+003;4.3385898438e+003;4.3150000000e+003;4.3044873047e+003;4.3258974609e+003;4.3229487305e+003;
2.1328125000e+000;4.3814101563e+003;4.3251284180e+003;4.3116665039e+003;4.3211538086e+003;4.3283334961e+003;4.3093588867e+003;4.2983334961e+003;4.2824360352e+003;4.2883334961e+003;4.3443588867e+003;4.3102563477e+003;4.3079487305e+003;4.3173076172e+003;4.3191025391e+003;
2.1406250000e+000;4.3537177734e+003;4.2983334961e+003;4.2858974609e+003;4.3007690430e+003;4.3003847656e+003;4.2820512695e+003;4.2729487305e+003;4.2570512695e+003;4.2594873047e+003;4.3182050781e+003;4.2848715820e+003;4.2843588867e+003;4.2898715820e+003;4.2915385742e+003;
2.1484375000e+000;4.2343588867e+003;4.1796152344e+003;4.1741025391e+003;4.1951284180e+003;4.1784614258e+003;4.1714101563e+003;4.1674360352e+003;4.1535898438e+003;4.1508974609e+003;4.1971796875e+003;4.1789741211e+003;4.1714101563e+003;4.1844873047e+003;4.1796152344e+003;
2.1562500000e+000;4.2203847656e+003;4.1652563477e+003;4.1647436523e+003;4.1785898438e+003;4.1648715820e+003;4.1608974609e+003;4.1580771484e+003;4.1435898438e+003;4.1425639648e+003;4.1824360352e+003;4.1652563477e+003;4.1602563477e+003;4.1738461914e+003;4.1692309570e+003;
2.1640625000e+000;4.2761538086e+003;4.2271796875e+003;4.2256411133e+003;4.2289741211e+003;4.2274360352e+003;4.2180771484e+003;4.2147436523e+003;4.2057690430e+003;4.2073076172e+003;4.2470512695e+003;4.2228203125e+003;4.2235898438e+003;4.2333334961e+003;4.2330771484e+003;
2.1718750000e+000;4.3029487305e+003;4.2615385742e+003;4.2528203125e+003;4.2574360352e+003;4.2597436523e+003;4.2460258789e+003;4.2407690430e+003;4.2376923828e+003;4.2382050781e+003;4.2821796875e+003;4.2534614258e+003;4.2542309570e+003;4.2623076172e+003;4.2648715820e+003;
2.1796875000e+000;4.3080771484e+003;4.2743588867e+003;4.2576923828e+003;4.2656411133e+003;4.2697436523e+003;4.2535898438e+003;4.2471796875e+003;4.2480771484e+003;4.2471796875e+003;4.2928203125e+003;4.2616665039e+003;4.2610258789e+003;4.2696152344e+003;4.2739741211e+003;
2.1875000000e+000;4.3065385742e+003;4.2778203125e+003;4.2550000000e+003;4.2650000000e+003;4.2715385742e+003;4.2552563477e+003;4.2489741211e+003;4.2498715820e+003;4.2485898438e+003;4.2915385742e+003;4.2602563477e+003;4.2575639648e+003;4.2691025391e+003;4.2732050781e+003;
2.1953125000e+000;4.4867949219e+003;4.4603847656e+003;4.4393588867e+003;4.4379487305e+003;4.4625639648e+003;4.4457690430e+003;4.4394873047e+003;4.4396152344e+003;4.4402563477e+003;4.4823076172e+003;4.4473076172e+003;4.4366665039e+003;4.4529487305e+003;4.4493588867e+003;
2.2031250000e+000;4.5075639648e+003;4.4873076172e+003;4.4661538086e+003;4.4616665039e+003;4.4883334961e+003;4.4691025391e+003;4.4607690430e+003;4.4629487305e+003;4.4629487305e+003;4.5121796875e+003;4.4773076172e+003;4.4641025391e+003;4.4800000000e+003;4.4758974609e+003;
2.2109375000e+000;4.4765385742e+003;4.4769228516e+003;4.4487177734e+003;4.4344873047e+003;4.4715385742e+003;4.4537177734e+003;4.4351284180e+003;4.4376923828e+003;4.4437177734e+003;4.5010258789e+003;4.4605126953e+003;4.4414101563e+003;4.4711538086e+003;4.4567949219e+003;
2.2187500000e+000;4.4671796875e+003;4.4682050781e+003;4.4493588867e+003;4.4339741211e+003;4.4715385742e+003;4.4671796875e+003;4.4455126953e+003;4.4405126953e+003;4.4521796875e+003;4.5088461914e+003;4.4576923828e+003;4.4484614258e+003;4.4701284180e+003;4.4564101563e+003;
2.2265625000e+000;4.4612822266e+003;4.4620512695e+003;4.4467949219e+003;4.4293588867e+003;4.4693588867e+003;4.4617949219e+003;4.4429487305e+003;4.4337177734e+003;4.4455126953e+003;4.5046152344e+003;4.4561538086e+003;4.4471796875e+003;4.4653847656e+003;4.4551284180e+003;
2.2343750000e+000;4.4246152344e+003;4.4247436523e+003;4.4107690430e+003;4.3951284180e+003;4.4301284180e+003;4.4101284180e+003;4.3955126953e+003;4.3825639648e+003;4.3889741211e+003;4.4534614258e+003;4.4243588867e+003;4.4124360352e+003;4.4257690430e+003;4.4242309570e+003;
2.2421875000e+000;4.4348715820e+003;4.4505126953e+003;4.4270512695e+003;4.4235898438e+003;4.4384614258e+003;4.4187177734e+003;4.4008974609e+003;4.3961538086e+003;4.3892309570e+003;4.4587177734e+003;4.4312822266e+003;4.4279487305e+003;4.4434614258e+003;4.4375639648e+003;
2.2500000000e+000;4.4408974609e+003;4.4592309570e+003;4.4378203125e+003;4.4301284180e+003;4.4443588867e+003;4.4241025391e+003;4.4098715820e+003;4.4015385742e+003;4.3917949219e+003;4.4628203125e+003;4.4360258789e+003;4.4357690430e+003;4.4508974609e+003;4.4462822266e+003;
2.2578125000e+000;4.4425639648e+003;4.4605126953e+003;4.4433334961e+003;4.4274360352e+003;4.4453847656e+003;4.4247436523e+003;4.4156411133e+003;4.4017949219e+003;4.3901284180e+003;4.4621796875e+003;4.4378203125e+003;4.4371796875e+003;4.4520512695e+003;4.4501284180e+003;
2.2656250000e+000;4.4483334961e+003;4.4628203125e+003;4.4511538086e+003;4.4205126953e+003;4.4538461914e+003;4.4332050781e+003;4.4308974609e+003;4.4148715820e+003;4.4001284180e+003;4.4741025391e+003;4.4535898438e+003;4.4397436523e+003;4.4596152344e+003;4.4560258789e+003;
2.2734375000e+000;4.4557690430e+003;4.4689741211e+003;4.4576923828e+003;4.4253847656e+003;4.4644873047e+003;4.4441025391e+003;4.4420512695e+003;4.4311538086e+003;4.4155126953e+003;4.4892309570e+003;4.4680771484e+003;4.4478203125e+003;4.4700000000e+003;4.4625639648e+003;
2.2812500000e+000;4.4734614258e+003;4.4917949219e+003;4.4775639648e+003;4.4529487305e+003;4.4851284180e+003;4.4684614258e+003;4.4648715820e+003;4.4651284180e+003;4.4530771484e+003;4.5143588867e+003;4.4820512695e+003;4.4761538086e+003;4.4911538086e+003;4.4851284180e+003;
2.2890625000e+000;4.4748715820e+003;4.4985898438e+003;4.4802563477e+003;4.4592309570e+003;4.4858974609e+003;4.4741025391e+003;4.4691025391e+003;4.4703847656e+003;4.4602563477e+003;4.5169228516e+003;4.4783334961e+003;4.4789741211e+003;4.4942309570e+003;4.4892309570e+003;
2.2968750000e+000;4.4514101563e+003;4.4803847656e+003;4.4575639648e+003;4.4420512695e+003;4.4656411133e+003;4.4625639648e+003;4.4546152344e+003;4.4597436523e+003;4.4500000000e+003;4.5014101563e+003;4.4582050781e+003;4.4553847656e+003;4.4743588867e+003;4.4661538086e+003;
2.3046875000e+000;4.4362822266e+003;4.4620512695e+003;4.4417949219e+003;4.4276923828e+003;4.4525639648e+003;4.4491025391e+003;4.4415385742e+003;4.4478203125e+003;4.4374360352e+003;4.4878203125e+003;4.4483334961e+003;4.4383334961e+003;4.4576923828e+003;4.4487177734e+003;
2.3125000000e+000;4.4378203125e+003;4.4587177734e+003;4.4411538086e+003;4.4298715820e+003;4.4546152344e+003;4.4469228516e+003;4.4405126953e+003;4.4467949219e+003;4.4373076172e+003;4.4875639648e+003;4.4519228516e+003;4.4358974609e+003;4.4555126953e+003;4.4470512695e+003;
2.3203125000e+000;4.4884614258e+003;4.5170512695e+003;4.4911538086e+003;4.5046152344e+003;4.5085898438e+003;4.4946152344e+003;4.4733334961e+003;4.4782050781e+003;4.4876923828e+003;4.5411538086e+003;4.4951284180e+003;4.4925639648e+003;4.5183334961e+003;4.5084614258e+003;
2.3281250000e+000;4.4650000000e+003;4.4946152344e+003;4.4697436523e+003;4.4803847656e+003;4.4870512695e+003;4.4732050781e+003;4.4517949219e+003;4.4529487305e+003;4.4628203125e+003;4.5176923828e+003;4.4812822266e+003;4.4714101563e+003;4.4948715820e+003;4.4884614258e+003;
2.3359375000e+000;4.4341025391e+003;4.4602563477e+003;4.4461538086e+003;4.4430771484e+003;4.4537177734e+003;4.4364101563e+003;4.4167949219e+003;4.4151284180e+003;4.4235898438e+003;4.4788461914e+003;4.4593588867e+003;4.4389741211e+003;4.4644873047e+003;4.4662822266e+003;
2.3437500000e+000;4.4067949219e+003;4.4219228516e+003;4.4134614258e+003;4.4028203125e+003;4.4139741211e+003;4.4021796875e+003;4.3851284180e+003;4.3756411133e+003;4.3803847656e+003;4.4417949219e+003;4.4083334961e+003;4.4087177734e+003;4.4360258789e+003;4.4329487305e+003;
2.3515625000e+000;4.4073076172e+003;4.4243588867e+003;4.4106411133e+003;4.4012822266e+003;4.4132050781e+003;4.4024360352e+003;4.3870512695e+003;4.3751284180e+003;4.3776923828e+003;4.4403847656e+003;4.4137177734e+003;4.4110258789e+003;4.4317949219e+003;4.4317949219e+003;
2.3593750000e+000;4.4174360352e+003;4.4403847656e+003;4.4330771484e+003;4.4220512695e+003;4.4312822266e+003;4.4146152344e+003;4.4071796875e+003;4.4007690430e+003;4.3852563477e+003;4.4462822266e+003;4.4341025391e+003;4.4311538086e+003;4.4411538086e+003;4.4473076172e+003;
2.3671875000e+000;4.3844873047e+003;4.4119228516e+003;4.4044873047e+003;4.3898715820e+003;4.4065385742e+003;4.3920512695e+003;4.3934614258e+003;4.3880771484e+003;4.3665385742e+003;4.4300000000e+003;4.3983334961e+003;4.4073076172e+003;4.4175639648e+003;4.4192309570e+003;
2.3750000000e+000;4.3678203125e+003;4.3944873047e+003;4.3841025391e+003;4.3757690430e+003;4.3893588867e+003;4.3805126953e+003;4.3820512695e+003;4.3765385742e+003;4.3569228516e+003;4.4151284180e+003;4.3885898438e+003;4.3929487305e+003;4.3979487305e+003;4.4041025391e+003;
2.3828125000e+000;4.3542309570e+003;4.3783334961e+003;4.3670512695e+003;4.3667949219e+003;4.3753847656e+003;4.3710258789e+003;4.3707690430e+003;4.3664101563e+003;4.3493588867e+003;4.3992309570e+003;4.3820512695e+003;4.3791025391e+003;4.3810258789e+003;4.3905126953e+003;
2.3906250000e+000;4.3329487305e+003;4.3535898438e+003;4.3462822266e+003;4.3491025391e+003;4.3544873047e+003;4.3555126953e+003;4.3488461914e+003;4.3493588867e+003;4.3370512695e+003;4.3742309570e+003;4.3630771484e+003;4.3534614258e+003;4.3619228516e+003;4.3635898438e+003;
2.3984375000e+000;4.3256411133e+003;4.3465385742e+003;4.3408974609e+003;4.3374360352e+003;4.3467949219e+003;4.3498715820e+003;4.3407690430e+003;4.3432050781e+003;4.3334614258e+003;4.3692309570e+003;4.3517949219e+003;4.3455126953e+003;4.3576923828e+003;4.3517949219e+003;
2.4062500000e+000;4.3488461914e+003;4.3666665039e+003;4.3569228516e+003;4.3543588867e+003;4.3671796875e+003;4.3707690430e+003;4.3608974609e+003;4.3658974609e+003;4.3664101563e+003;4.4029487305e+003;4.3770512695e+003;4.3691025391e+003;4.3782050781e+003;4.3675639648e+003;
2.4140625000e+000;4.3697436523e+003;4.3892309570e+003;4.3750000000e+003;4.3825639648e+003;4.3879487305e+003;4.3964101563e+003;4.3835898438e+003;4.3815385742e+003;4.3902563477e+003;4.4226923828e+003;4.3983334961e+003;4.3862822266e+003;4.4055126953e+003;4.3838461914e+003;
2.4218750000e+000;4.3925639648e+003;4.4189741211e+003;4.3985898438e+003;4.4014101563e+003;4.4141025391e+003;4.4189741211e+003;4.4047436523e+003;4.4011538086e+003;4.4128203125e+003;4.4446152344e+003;4.4142309570e+003;4.4067949219e+003;4.4300000000e+003;4.4024360352e+003;
2.4296875000e+000;4.4228203125e+003;4.4557690430e+003;4.4285898438e+003;4.4265385742e+003;4.4492309570e+003;4.4469228516e+003;4.4314101563e+003;4.4288461914e+003;4.4429487305e+003;4.4750000000e+003;4.4398715820e+003;4.4361538086e+003;4.4594873047e+003;4.4292309570e+003;
2.4375000000e+000;4.4429487305e+003;4.4779487305e+003;4.4482050781e+003;4.4426923828e+003;4.4728203125e+003;4.4634614258e+003;4.4476923828e+003;4.4471796875e+003;4.4621796875e+003;4.4952563477e+003;4.4603847656e+003;4.4579487305e+003;4.4764101563e+003;4.4480771484e+003;
2.4453125000e+000;4.4160258789e+003;4.4376923828e+003;4.4301284180e+003;4.4262822266e+003;4.4384614258e+003;4.4293588867e+003;4.4161538086e+003;4.4143588867e+003;4.4234614258e+003;4.4600000000e+003;4.4448715820e+003;4.4357690430e+003;4.4494873047e+003;4.4229487305e+003;
2.4531250000e+000;4.4452563477e+003;4.4726923828e+003;4.4571796875e+003;4.4574360352e+003;4.4688461914e+003;4.4557690430e+003;4.4448715820e+003;4.4412822266e+003;4.4503847656e+003;4.4884614258e+003;4.4698715820e+003;4.4617949219e+003;4.4834614258e+003;4.4502563477e+003;
2.4609375000e+000;4.4988461914e+003;4.5300000000e+003;4.5138461914e+003;4.5001284180e+003;4.5260258789e+003;4.5058974609e+003;4.4996152344e+003;4.4924360352e+003;4.4921796875e+003;4.5356411133e+003;4.5210258789e+003;4.5212822266e+003;4.5296152344e+003;4.5087177734e+003;
2.4687500000e+000;4.4255126953e+003;4.4532050781e+003;4.4529487305e+003;4.4438461914e+003;4.4524360352e+003;4.4533334961e+003;4.4483334961e+003;4.4473076172e+003;4.4341025391e+003;4.4680771484e+003;4.4507690430e+003;4.4580771484e+003;4.4576923828e+003;4.4373076172e+003;
2.4765625000e+000;4.4188461914e+003;4.4497436523e+003;4.4462822266e+003;4.4408974609e+003;4.4475639648e+003;4.4528203125e+003;4.4505126953e+003;4.4460258789e+003;4.4335898438e+003;4.4644873047e+003;4.4415385742e+003;4.4515385742e+003;4.4524360352e+003;4.4296152344e+003;
2.4843750000e+000;4.4720512695e+003;4.5051284180e+003;4.4973076172e+003;4.4803847656e+003;4.5129487305e+003;4.5094873047e+003;4.5083334961e+003;4.5043588867e+003;4.4969228516e+003;4.5257690430e+003;4.4983334961e+003;4.5011538086e+003;4.5080771484e+003;4.4858974609e+003;
2.4921875000e+000;4.4369228516e+003;4.4734614258e+003;4.4676923828e+003;4.4575639648e+003;4.4794873047e+003;4.4764101563e+003;4.4739741211e+003;4.4725639648e+003;4.4642309570e+003;4.4929487305e+003;4.4705126953e+003;4.4719228516e+003;4.4862822266e+003;4.4591025391e+003;
2.5000000000e+000;4.4224360352e+003;4.4606411133e+003;4.4517949219e+003;4.4461538086e+003;4.4614101563e+003;4.4606411133e+003;4.4569228516e+003;4.4550000000e+003;4.4473076172e+003;4.4773076172e+003;4.4546152344e+003;4.4565385742e+003;4.4715385742e+003;4.4442309570e+003;
2.5078125000e+000;4.4129487305e+003;4.4515385742e+003;4.4405126953e+003;4.4369228516e+003;4.4480771484e+003;4.4484614258e+003;4.4428203125e+003;4.4425639648e+003;4.4362822266e+003;4.4662822266e+003;4.4446152344e+003;4.4465385742e+003;4.4584614258e+003;4.4343588867e+003;
2.5156250000e+000;4.4066665039e+003;4.4401284180e+003;4.4319228516e+003;4.4303847656e+003;4.4347436523e+003;4.4350000000e+003;4.4248715820e+003;4.4292309570e+003;4.4294873047e+003;4.4546152344e+003;4.4412822266e+003;4.4410258789e+003;4.4425639648e+003;4.4283334961e+003;
2.5234375000e+000;4.4055126953e+003;4.4356411133e+003;4.4296152344e+003;4.4307690430e+003;4.4325639648e+003;4.4319228516e+003;4.4188461914e+003;4.4233334961e+003;4.4285898438e+003;4.4524360352e+003;4.4416665039e+003;4.4384614258e+003;4.4414101563e+003;4.4267949219e+003;
2.5312500000e+000;4.3867949219e+003;4.4176923828e+003;4.4108974609e+003;4.4174360352e+003;4.4253847656e+003;4.4200000000e+003;4.4030771484e+003;4.3955126953e+003;4.4098715820e+003;4.4373076172e+003;4.4139741211e+003;4.4135898438e+003;4.4361538086e+003;4.4097436523e+003;
2.5390625000e+000;4.4196152344e+003;4.4543588867e+003;4.4433334961e+003;4.4507690430e+003;4.4600000000e+003;4.4515385742e+003;4.4378203125e+003;4.4266665039e+003;4.4383334961e+003;4.4675639648e+003;4.4415385742e+003;4.4470512695e+003;4.4670512695e+003;4.4435898438e+003;
2.5468750000e+000;4.5919228516e+003;4.6337177734e+003;4.6112822266e+003;4.6197436523e+003;4.6265385742e+003;4.6088461914e+003;4.6001284180e+003;4.5970512695e+003;4.5969228516e+003;4.6378203125e+003;4.6182050781e+003;4.6196152344e+003;4.6319228516e+003;4.6143588867e+003;
2.5546875000e+000;4.6748715820e+003;4.7165385742e+003;4.6934614258e+003;4.6998715820e+003;4.7057690430e+003;4.6835898438e+003;4.6732050781e+003;4.6801284180e+003;4.6738461914e+003;4.7239741211e+003;4.7087177734e+003;4.7011538086e+003;4.7148715820e+003;4.6955126953e+003;
2.5625000000e+000;4.7080771484e+003;4.7482050781e+003;4.7288461914e+003;4.7319228516e+003;4.7380771484e+003;4.7119228516e+003;4.6988461914e+003;4.7141025391e+003;4.7030771484e+003;4.7606411133e+003;4.7467949219e+003;4.7337177734e+003;4.7503847656e+003;4.7282050781e+003;
2.5703125000e+000;4.4332050781e+003;4.4820512695e+003;4.4691025391e+003;4.4670512695e+003;4.4765385742e+003;4.4602563477e+003;4.4569228516e+003;4.4587177734e+003;4.4479487305e+003;4.4852563477e+003;4.4758974609e+003;4.4815385742e+003;4.4737177734e+003;4.4726923828e+003;
2.5781250000e+000;4.4187177734e+003;4.4628203125e+003;4.4560258789e+003;4.4503847656e+003;4.4564101563e+003;4.4484614258e+003;4.4439741211e+003;4.4461538086e+003;4.4319228516e+003;4.4660258789e+003;4.4600000000e+003;4.4658974609e+003;4.4561538086e+003;4.4589741211e+003;
2.5859375000e+000;4.4815385742e+003;4.5228203125e+003;4.5228203125e+003;4.5050000000e+003;4.5166665039e+003;4.5107690430e+003;4.5121796875e+003;4.5107690430e+003;4.4910258789e+003;4.5220512695e+003;4.5050000000e+003;4.5160258789e+003;4.5243588867e+003;4.5202563477e+003;
2.5937500000e+000;4.4644873047e+003;4.5128203125e+003;4.5073076172e+003;4.5010258789e+003;4.5089741211e+003;4.5056411133e+003;4.5060258789e+003;4.4989741211e+003;4.4820512695e+003;4.5197436523e+003;4.5098715820e+003;4.5105126953e+003;4.5150000000e+003;4.5125639648e+003;
2.6015625000e+000;4.4507690430e+003;4.5007690430e+003;4.4937177734e+003;4.4938461914e+003;4.4970512695e+003;4.4950000000e+003;4.4912822266e+003;4.4825639648e+003;4.4680771484e+003;4.5053847656e+003;4.5008974609e+003;4.4970512695e+003;4.5025639648e+003;4.5001284180e+003;
2.6093750000e+000;4.4757690430e+003;4.5266665039e+003;4.5176923828e+003;4.5108974609e+003;4.5232050781e+003;4.5193588867e+003;4.5084614258e+003;4.5006411133e+003;4.4966665039e+003;4.5311538086e+003;4.5153847656e+003;4.5141025391e+003;4.5233334961e+003;4.5216665039e+003;
2.6171875000e+000;4.4648715820e+003;4.5112822266e+003;4.5064101563e+003;4.4962822266e+003;4.5105126953e+003;4.5070512695e+003;4.4955126953e+003;4.4901284180e+003;4.4884614258e+003;4.5239741211e+003;4.5042309570e+003;4.5033334961e+003;4.5112822266e+003;4.5111538086e+003;
2.6250000000e+000;4.3982050781e+003;4.4414101563e+003;4.4379487305e+003;4.4385898438e+003;4.4443588867e+003;4.4419228516e+003;4.4293588867e+003;4.4265385742e+003;4.4284614258e+003;4.4671796875e+003;4.4483334961e+003;4.4392309570e+003;4.4547436523e+003;4.4505126953e+003;
2.6328125000e+000;4.3643588867e+003;4.4097436523e+003;4.4032050781e+003;4.4115385742e+003;4.4124360352e+003;4.4107690430e+003;4.3979487305e+003;4.3939741211e+003;4.3975639648e+003;4.4358974609e+003;4.4179487305e+003;4.4067949219e+003;4.4291025391e+003;4.4206411133e+003;
2.6406250000e+000;4.3848715820e+003;4.4220512695e+003;4.4219228516e+003;4.4210258789e+003;4.4184614258e+003;4.4225639648e+003;4.4110258789e+003;4.4043588867e+003;4.4088461914e+003;4.4374360352e+003;4.4184614258e+003;4.4194873047e+003;4.4442309570e+003;4.4365385742e+003;
2.6484375000e+000;4.4257690430e+003;4.4587177734e+003;4.4605126953e+003;4.4562822266e+003;4.4520512695e+003;4.4544873047e+003;4.4434614258e+003;4.4412822266e+003;4.4432050781e+003;4.4720512695e+003;4.4550000000e+003;4.4566665039e+003;4.4769228516e+003;4.4726923828e+003;
2.6562500000e+000;4.4647436523e+003;4.5138461914e+003;4.4978203125e+003;4.4975639648e+003;4.4947436523e+003;4.4829487305e+003;4.4756411133e+003;4.4800000000e+003;4.4735898438e+003;4.5162822266e+003;4.5106411133e+003;4.5044873047e+003;4.5165385742e+003;4.5134614258e+003;
2.6640625000e+000;4.4644873047e+003;4.5193588867e+003;4.4983334961e+003;4.4961538086e+003;4.4957690430e+003;4.4847436523e+003;4.4767949219e+003;4.4793588867e+003;4.4707690430e+003;4.5167949219e+003;4.5117949219e+003;4.5048715820e+003;4.5200000000e+003;4.5133334961e+003;
2.6718750000e+000;4.4892309570e+003;4.5387177734e+003;4.5233334961e+003;4.5212822266e+003;4.5139741211e+003;4.5120512695e+003;4.5016665039e+003;4.5034614258e+003;4.4891025391e+003;4.5346152344e+003;4.5264101563e+003;4.5224360352e+003;4.5424360352e+003;4.5337177734e+003;
2.6796875000e+000;4.4976923828e+003;4.5420512695e+003;4.5330771484e+003;4.5357690430e+003;4.5211538086e+003;4.5216665039e+003;4.5110258789e+003;4.5134614258e+003;4.4971796875e+003;4.5396152344e+003;4.5315385742e+003;4.5300000000e+003;4.5458974609e+003;4.5425639648e+003;
2.6875000000e+000;4.4892309570e+003;4.5329487305e+003;4.5269228516e+003;4.5346152344e+003;4.5166665039e+003;4.5157690430e+003;4.5055126953e+003;4.5083334961e+003;4.4921796875e+003;4.5311538086e+003;4.5244873047e+003;4.5250000000e+003;4.5335898438e+003;4.5380771484e+003;
2.6953125000e+000;4.3079487305e+003;4.3462822266e+003;4.3426923828e+003;4.3493588867e+003;4.3352563477e+003;4.3471796875e+003;4.3385898438e+003;4.3324360352e+003;4.3235898438e+003;4.3507690430e+003;4.3491025391e+003;4.3461538086e+003;4.3584614258e+003;4.3594873047e+003;
2.7031250000e+000;4.3116665039e+003;4.3458974609e+003;4.3433334961e+003;4.3519228516e+003;4.3351284180e+003;4.3501284180e+003;4.3420512695e+003;4.3326923828e+003;4.3239741211e+003;4.3496152344e+003;4.3502563477e+003;4.3439741211e+003;4.3561538086e+003;4.3589741211e+003;
2.7109375000e+000;4.2725639648e+003;4.3119228516e+003;4.3006411133e+003;4.3087177734e+003;4.3076923828e+003;4.3223076172e+003;4.3039741211e+003;4.3005126953e+003;4.2987177734e+003;4.3176923828e+003;4.3094873047e+003;4.3071796875e+003;4.3124360352e+003;4.3200000000e+003;
2.7187500000e+000;4.3046152344e+003;4.3358974609e+003;4.3337177734e+003;4.3434614258e+003;4.3326923828e+003;4.3508974609e+003;4.3294873047e+003;4.3137177734e+003;4.3179487305e+003;4.3379487305e+003;4.3215385742e+003;4.3283334961e+003;4.3498715820e+003;4.3471796875e+003;
2.7265625000e+000;4.3648715820e+003;4.3985898438e+003;4.3921796875e+003;4.4056411133e+003;4.3900000000e+003;4.4060258789e+003;4.3870512695e+003;4.3693588867e+003;4.3753847656e+003;4.3988461914e+003;4.3816665039e+003;4.3852563477e+003;4.4079487305e+003;4.4051284180e+003;
2.7343750000e+000;4.3793588867e+003;4.4226923828e+003;4.4078203125e+003;4.4173076172e+003;4.4110258789e+003;4.4183334961e+003;4.4000000000e+003;4.3987177734e+003;4.4050000000e+003;4.4288461914e+003;4.4135898438e+003;4.4119228516e+003;4.4188461914e+003;4.4260258789e+003;
2.7421875000e+000;4.3307690430e+003;4.3707690430e+003;4.3598715820e+003;4.3644873047e+003;4.3642309570e+003;4.3680771484e+003;4.3493588867e+003;4.3516665039e+003;4.3575639648e+003;4.3778203125e+003;4.3648715820e+003;4.3653847656e+003;4.3715385742e+003;4.3798715820e+003;
2.7500000000e+000;4.2782050781e+003;4.3107690430e+003;4.3070512695e+003;4.3101284180e+003;4.3043588867e+003;4.3069228516e+003;4.2914101563e+003;4.2874360352e+003;4.2920512695e+003;4.3092309570e+003;4.3058974609e+003;4.3097436523e+003;4.3170512695e+003;4.3270512695e+003;
2.7578125000e+000;4.2948715820e+003;4.3264101563e+003;4.3226923828e+003;4.3307690430e+003;4.3148715820e+003;4.3188461914e+003;4.3060258789e+003;4.2970512695e+003;4.2998715820e+003;4.3201284180e+003;4.3203847656e+003;4.3234614258e+003;4.3306411133e+003;4.3414101563e+003;
2.7656250000e+000;4.4121796875e+003;4.4489741211e+003;4.4357690430e+003;4.4535898438e+003;4.4319228516e+003;4.4305126953e+003;4.4198715820e+003;4.4144873047e+003;4.4066665039e+003;4.4429487305e+003;4.4392309570e+003;4.4317949219e+003;4.4470512695e+003;4.4517949219e+003;
2.7734375000e+000;4.4266665039e+003;4.4662822266e+003;4.4529487305e+003;4.4639741211e+003;4.4502563477e+003;4.4476923828e+003;4.4366665039e+003;4.4326923828e+003;4.4208974609e+003;4.4576923828e+003;4.4564101563e+003;4.4485898438e+003;4.4632050781e+003;4.4682050781e+003;
2.7812500000e+000;4.4410258789e+003;4.4801284180e+003;4.4800000000e+003;4.4756411133e+003;4.4662822266e+003;4.4691025391e+003;4.4608974609e+003;4.4502563477e+003;4.4347436523e+003;4.4651284180e+003;4.4755126953e+003;4.4721796875e+003;4.4742309570e+003;4.4874360352e+003;
2.7890625000e+000;4.4555126953e+003;4.4946152344e+003;4.4955126953e+003;4.4950000000e+003;4.4832050781e+003;4.4857690430e+003;4.4787177734e+003;4.4689741211e+003;4.4558974609e+003;4.4856411133e+003;4.4917949219e+003;4.4883334961e+003;4.4891025391e+003;4.5021796875e+003;
2.7968750000e+000;4.4557690430e+003;4.4989741211e+003;4.4952563477e+003;4.5012822266e+003;4.4893588867e+003;4.4960258789e+003;4.4896152344e+003;4.4829487305e+003;4.4784614258e+003;4.5005126953e+003;4.4957690430e+003;4.4941025391e+003;4.4944873047e+003;4.5056411133e+003;
2.8046875000e+000;4.4453847656e+003;4.4912822266e+003;4.4838461914e+003;4.4905126953e+003;4.4789741211e+003;4.4920512695e+003;4.4839741211e+003;4.4778203125e+003;4.4767949219e+003;4.4919228516e+003;4.4855126953e+003;4.4850000000e+003;4.4860258789e+003;4.4966665039e+003;
2.8125000000e+000;4.4416665039e+003;4.4897436523e+003;4.4787177734e+003;4.4856411133e+003;4.4751284180e+003;4.4937177734e+003;4.4828203125e+003;4.4779487305e+003;4.4776923828e+003;4.4882050781e+003;4.4807690430e+003;4.4810258789e+003;4.4829487305e+003;4.4928203125e+003;
2.8203125000e+000;4.4458974609e+003;4.4951284180e+003;4.4826923828e+003;4.4889741211e+003;4.4814101563e+003;4.5011538086e+003;4.4875639648e+003;4.4855126953e+003;4.4837177734e+003;4.4938461914e+003;4.4834614258e+003;4.4848715820e+003;4.4874360352e+003;4.4962822266e+003;
2.8281250000e+000;4.4274360352e+003;4.4724360352e+003;4.4705126953e+003;4.4696152344e+003;4.4746152344e+003;4.4812822266e+003;4.4685898438e+003;4.4717949219e+003;4.4735898438e+003;4.4900000000e+003;4.4824360352e+003;4.4684614258e+003;4.4812822266e+003;4.4852563477e+003;
2.8359375000e+000;4.2970512695e+003;4.3435898438e+003;4.3450000000e+003;4.3356411133e+003;4.3400000000e+003;4.3717949219e+003;4.3430771484e+003;4.3556411133e+003;4.3542309570e+003;4.3729487305e+003;4.3588461914e+003;4.3485898438e+003;4.3542309570e+003;4.3644873047e+003;
2.8437500000e+000;4.2211538086e+003;4.2614101563e+003;4.2706411133e+003;4.2567949219e+003;4.2619228516e+003;4.2930771484e+003;4.2646152344e+003;4.2751284180e+003;4.2756411133e+003;4.2915385742e+003;4.2743588867e+003;4.2710258789e+003;4.2738461914e+003;4.2879487305e+003;
2.8515625000e+000;4.0783332520e+003;4.1053847656e+003;4.1228203125e+003;4.1089741211e+003;4.1096152344e+003;4.1420512695e+003;4.1167949219e+003;4.1192309570e+003;4.1261538086e+003;4.1279487305e+003;4.1229487305e+003;4.1202563477e+003;4.1228203125e+003;4.1424360352e+003;
2.8593750000e+000;4.0967949219e+003;4.1100000000e+003;4.1297436523e+003;4.1306411133e+003;4.1097436523e+003;4.1465385742e+003;4.1289741211e+003;4.1189741211e+003;4.1110258789e+003;4.1180771484e+003;4.1175639648e+003;4.1257690430e+003;4.1275639648e+003;4.1498715820e+003;
2.8671875000e+000;4.1452563477e+003;4.1571796875e+003;4.1776923828e+003;4.1755126953e+003;4.1605126953e+003;4.1875639648e+003;4.1750000000e+003;4.1630771484e+003;4.1544873047e+003;4.1638461914e+003;4.1650000000e+003;4.1711538086e+003;4.1719228516e+003;4.1933334961e+003;
2.8750000000e+000;4.1998715820e+003;4.2087177734e+003;4.2273076172e+003;4.2188461914e+003;4.2146152344e+003;4.2328203125e+003;4.2226923828e+003;4.2097436523e+003;4.2038461914e+003;4.2125639648e+003;4.2220512695e+003;4.2212822266e+003;4.2192309570e+003;4.2393588867e+003;
2.8828125000e+000;4.1958974609e+003;4.2037177734e+003;4.2201284180e+003;4.2126923828e+003;4.2064101563e+003;4.2287177734e+003;4.2156411133e+003;4.2052563477e+003;4.1983334961e+003;4.2067949219e+003;4.2180771484e+003;4.2161538086e+003;4.2151284180e+003;4.2326923828e+003;
2.8906250000e+000;4.1158974609e+003;4.1230771484e+003;4.1430771484e+003;4.1456411133e+003;4.1160258789e+003;4.1551284180e+003;4.1392309570e+003;4.1375639648e+003;4.1228203125e+003;4.1255126953e+003;4.1321796875e+003;4.1397436523e+003;4.1426923828e+003;4.1510258789e+003;
2.8984375000e+000;4.1008974609e+003;4.1060258789e+003;4.1292309570e+003;4.1307690430e+003;4.1003847656e+003;4.1385898438e+003;4.1261538086e+003;4.1250000000e+003;4.1125639648e+003;4.1105126953e+003;4.1162822266e+003;4.1253847656e+003;4.1253847656e+003;4.1344873047e+003;
2.9062500000e+000;4.0544870605e+003;4.0467949219e+003;4.0732050781e+003;4.0738461914e+003;4.0526923828e+003;4.0908974609e+003;4.0812819824e+003;4.0812819824e+003;4.0812819824e+003;4.0712819824e+003;4.0760256348e+003;4.0774357910e+003;4.0697436523e+003;4.0839743652e+003;
2.9140625000e+000;4.0270512695e+003;4.0176923828e+003;4.0439743652e+003;4.0497436523e+003;4.0250000000e+003;4.0676923828e+003;4.0558974609e+003;4.0547436523e+003;4.0552563477e+003;4.0442307129e+003;4.0484614258e+003;4.0492307129e+003;4.0429487305e+003;4.0582050781e+003;
2.9218750000e+000;4.0482050781e+003;4.0464101563e+003;4.0629487305e+003;4.0780769043e+003;4.0508974609e+003;4.0943588867e+003;4.0789743652e+003;4.0755129395e+003;4.0758974609e+003;4.0628205566e+003;4.0638461914e+003;4.0623076172e+003;4.0696154785e+003;4.0805129395e+003;
2.9296875000e+000;4.0980771484e+003;4.1019228516e+003;4.1101284180e+003;4.1258974609e+003;4.1028203125e+003;4.1429487305e+003;4.1266665039e+003;4.1246152344e+003;4.1261538086e+003;4.1144873047e+003;4.1120512695e+003;4.1067949219e+003;4.1229487305e+003;4.1285898438e+003;
2.9375000000e+000;4.1423076172e+003;4.1494873047e+003;4.1524360352e+003;4.1646152344e+003;4.1462822266e+003;4.1842309570e+003;4.1676923828e+003;4.1679487305e+003;4.1708974609e+003;4.1630771484e+003;4.1567949219e+003;4.1482050781e+003;4.1692309570e+003;4.1717949219e+003;
2.9453125000e+000;4.1597436523e+003;4.1662822266e+003;4.1697436523e+003;4.1755126953e+003;4.1606411133e+003;4.1980771484e+003;4.1814101563e+003;4.1834614258e+003;4.1873076172e+003;4.1841025391e+003;4.1756411133e+003;4.1655126953e+003;4.1856411133e+003;4.1897436523e+003;
2.9531250000e+000;4.1235898438e+003;4.1223076172e+003;4.1266665039e+003;4.1426923828e+003;4.1319228516e+003;4.1541025391e+003;4.1284614258e+003;4.1307690430e+003;4.1374360352e+003;4.1375639648e+003;4.1293588867e+003;4.1205126953e+003;4.1380771484e+003;4.1467949219e+003;
2.9609375000e+000;3.9776923828e+003;3.9717949219e+003;3.9761538086e+003;3.9966667480e+003;3.9562819824e+003;3.9942307129e+003;3.9696154785e+003;3.9676923828e+003;3.9692307129e+003;3.9782050781e+003;3.9793588867e+003;3.9719230957e+003;3.9850000000e+003;3.9924357910e+003;
2.9687500000e+000;3.9621794434e+003;3.9541025391e+003;3.9564101563e+003;3.9726923828e+003;3.9370512695e+003;3.9752563477e+003;3.9534614258e+003;3.9464101563e+003;3.9462819824e+003;3.9567949219e+003;3.9591025391e+003;3.9550000000e+003;3.9664101563e+003;3.9775642090e+003;
2.9765625000e+000;4.0057692871e+003;3.9911538086e+003;3.9944870605e+003;4.0056411133e+003;3.9837180176e+003;4.0110256348e+003;3.9956411133e+003;3.9839743652e+003;3.9814101563e+003;3.9914101563e+003;3.9917949219e+003;3.9953845215e+003;4.0076923828e+003;4.0189743652e+003;
2.9843750000e+000;4.0150000000e+003;3.9837180176e+003;4.0085898438e+003;4.0187180176e+003;3.9755129395e+003;4.0220512695e+003;4.0052563477e+003;3.9979487305e+003;3.9869230957e+003;3.9988461914e+003;4.0110256348e+003;4.0060256348e+003;4.0138461914e+003;4.0217949219e+003;
2.9921875000e+000;4.0215385742e+003;3.9902563477e+003;4.0152563477e+003;4.0285898438e+003;3.9842307129e+003;4.0316667480e+003;4.0157692871e+003;4.0073076172e+003;3.9942307129e+003;4.0053845215e+003;4.0157692871e+003;4.0133332520e+003;4.0170512695e+003;4.0273076172e+003;
3.0000000000e+000;4.0980771484e+003;4.0739743652e+003;4.0878205566e+003;4.1064101563e+003;4.0744870605e+003;4.1053847656e+003;4.0958974609e+003;4.0910256348e+003;4.0808974609e+003;4.0889743652e+003;4.0858974609e+003;4.0870512695e+003;4.0921794434e+003;4.0993588867e+003;
3.0078125000e+000;4.1270512695e+003;4.1071796875e+003;4.1156411133e+003;4.1342309570e+003;4.1076923828e+003;4.1330771484e+003;4.1262822266e+003;4.1252563477e+003;4.1202563477e+003;4.1246152344e+003;4.1170512695e+003;4.1147436523e+003;4.1248715820e+003;4.1280771484e+003;
3.0156250000e+000;4.1221796875e+003;4.1030771484e+003;4.1115385742e+003;4.1257690430e+003;4.0991025391e+003;4.1357690430e+003;4.1261538086e+003;4.1282050781e+003;4.1269228516e+003;4.1223076172e+003;4.1262822266e+003;4.1098715820e+003;4.1307690430e+003;4.1296152344e+003;
3.0234375000e+000;4.1547436523e+003;4.1364101563e+003;4.1438461914e+003;4.1571796875e+003;4.1319228516e+003;4.1680771484e+003;4.1564101563e+003;4.1585898438e+003;4.1542309570e+003;4.1543588867e+003;4.1602563477e+003;4.1432050781e+003;4.1646152344e+003;4.1628203125e+003;
3.0312500000e+000;4.2860258789e+003;4.2748715820e+003;4.2767949219e+003;4.2982050781e+003;4.2664101563e+003;4.2903847656e+003;4.2755126953e+003;4.2803847656e+003;4.2766665039e+003;4.2948715820e+003;4.2870512695e+003;4.2784614258e+003;4.2964101563e+003;4.2898715820e+003;
3.0390625000e+000;4.2982050781e+003;4.2883334961e+003;4.2885898438e+003;4.3148715820e+003;4.2780771484e+003;4.3016665039e+003;4.2857690430e+003;4.2906411133e+003;4.2896152344e+003;4.3078203125e+003;4.2943588867e+003;4.2885898438e+003;4.3076923828e+003;4.2993588867e+003;
3.0468750000e+000;4.3028203125e+003;4.2979487305e+003;4.2907690430e+003;4.3193588867e+003;4.2869228516e+003;4.3082050781e+003;4.2900000000e+003;4.2979487305e+003;4.2979487305e+003;4.3143588867e+003;4.2955126953e+003;4.2889741211e+003;4.3078203125e+003;4.3023076172e+003;
3.0546875000e+000;4.2939741211e+003;4.2929487305e+003;4.2815385742e+003;4.3065385742e+003;4.2807690430e+003;4.3008974609e+003;4.2812822266e+003;4.2916665039e+003;4.2907690430e+003;4.3075639648e+003;4.2910258789e+003;4.2820512695e+003;4.2967949219e+003;4.2964101563e+003;
3.0625000000e+000;4.2729487305e+003;4.2751284180e+003;4.2615385742e+003;4.2814101563e+003;4.2597436523e+003;4.2811538086e+003;4.2600000000e+003;4.2711538086e+003;4.2701284180e+003;4.2879487305e+003;4.2760258789e+003;4.2644873047e+003;4.2756411133e+003;4.2796152344e+003;
3.0703125000e+000;4.2484614258e+003;4.2528203125e+003;4.2388461914e+003;4.2539741211e+003;4.2323076172e+003;4.2574360352e+003;4.2347436523e+003;4.2443588867e+003;4.2444873047e+003;4.2634614258e+003;4.2553847656e+003;4.2417949219e+003;4.2537177734e+003;4.2584614258e+003;
3.0781250000e+000;4.3005126953e+003;4.2992309570e+003;4.2944873047e+003;4.2994873047e+003;4.2767949219e+003;4.2921796875e+003;4.2750000000e+003;4.2794873047e+003;4.2738461914e+003;4.3055126953e+003;4.2914101563e+003;4.2852563477e+003;4.3014101563e+003;4.3012822266e+003;
3.0859375000e+000;4.3646152344e+003;4.3632050781e+003;4.3525639648e+003;4.3642309570e+003;4.3378203125e+003;4.3371796875e+003;4.3292309570e+003;4.3289741211e+003;4.3048715820e+003;4.3505126953e+003;4.3550000000e+003;4.3502563477e+003;4.3561538086e+003;4.3592309570e+003;
3.0937500000e+000;4.3942309570e+003;4.3973076172e+003;4.3825639648e+003;4.3941025391e+003;4.3683334961e+003;4.3679487305e+003;4.3593588867e+003;4.3588461914e+003;4.3317949219e+003;4.3793588867e+003;4.3823076172e+003;4.3816665039e+003;4.3903847656e+003;4.3915385742e+003;
3.1015625000e+000;4.4743588867e+003;4.4852563477e+003;4.4671796875e+003;4.4646152344e+003;4.4583334961e+003;4.4526923828e+003;4.4428203125e+003;4.4474360352e+003;4.4233334961e+003;4.4698715820e+003;4.4641025391e+003;4.4679487305e+003;4.4739741211e+003;4.4791025391e+003;
3.1093750000e+000;4.4906411133e+003;4.5042309570e+003;4.4873076172e+003;4.4761538086e+003;4.4810258789e+003;4.4732050781e+003;4.4642309570e+003;4.4717949219e+003;4.4520512695e+003;4.4967949219e+003;4.4880771484e+003;4.4870512695e+003;4.4911538086e+003;4.4983334961e+003;
3.1171875000e+000;4.3988461914e+003;4.4161538086e+003;4.4091025391e+003;4.4007690430e+003;4.3933334961e+003;4.4007690430e+003;4.3962822266e+003;4.4007690430e+003;4.3861538086e+003;4.4250000000e+003;4.4179487305e+003;4.4025639648e+003;4.4123076172e+003;4.4115385742e+003;
3.1250000000e+000;4.3312822266e+003;4.3507690430e+003;4.3388461914e+003;4.3442309570e+003;4.3344873047e+003;4.3426923828e+003;4.3330771484e+003;4.3434614258e+003;4.3319228516e+003;4.3567949219e+003;4.3438461914e+003;4.3346152344e+003;4.3500000000e+003;4.3480771484e+003;
3.1328125000e+000;4.3100000000e+003;4.3319228516e+003;4.3197436523e+003;4.3201284180e+003;4.3166665039e+003;4.3267949219e+003;4.3166665039e+003;4.3261538086e+003;4.3178203125e+003;4.3374360352e+003;4.3217949219e+003;4.3135898438e+003;4.3293588867e+003;4.3292309570e+003;
3.1406250000e+000;4.3050000000e+003;4.3305126953e+003;4.3215385742e+003;4.3171796875e+003;4.3125639648e+003;4.3315385742e+003;4.3228203125e+003;4.3271796875e+003;4.3235898438e+003;4.3380771484e+003;4.3246152344e+003;4.3128203125e+003;4.3271796875e+003;4.3278203125e+003;
3.1484375000e+000;4.3142309570e+003;4.3384614258e+003;4.3284614258e+003;4.3300000000e+003;4.3229487305e+003;4.3379487305e+003;4.3280771484e+003;4.3350000000e+003;4.3302563477e+003;4.3484614258e+003;4.3360258789e+003;4.3243588867e+003;4.3364101563e+003;4.3378203125e+003;
3.1562500000e+000;4.3187177734e+003;4.3424360352e+003;4.3300000000e+003;4.3374360352e+003;4.3307690430e+003;4.3388461914e+003;4.3279487305e+003;4.3366665039e+003;4.3306411133e+003;4.3542309570e+003;4.3408974609e+003;4.3302563477e+003;4.3417949219e+003;4.3434614258e+003;
3.1640625000e+000;4.3351284180e+003;4.3624360352e+003;4.3430771484e+003;4.3548715820e+003;4.3561538086e+003;4.3526923828e+003;4.3408974609e+003;4.3470512695e+003;4.3438461914e+003;4.3733334961e+003;4.3551284180e+003;4.3419228516e+003;4.3637177734e+003;4.3611538086e+003;
3.1718750000e+000;4.3647436523e+003;4.3925639648e+003;4.3737177734e+003;4.3735898438e+003;4.3803847656e+003;4.3884614258e+003;4.3720512695e+003;4.3755126953e+003;4.3779487305e+003;4.3992309570e+003;4.3850000000e+003;4.3697436523e+003;4.3889741211e+003;4.3871796875e+003;
3.1796875000e+000;4.3502563477e+003;4.3766665039e+003;4.3611538086e+003;4.3539741211e+003;4.3625639648e+003;4.3719228516e+003;4.3562822266e+003;4.3607690430e+003;4.3592309570e+003;4.3816665039e+003;4.3705126953e+003;4.3591025391e+003;4.3703847656e+003;4.3717949219e+003;
3.1875000000e+000;4.3260258789e+003;4.3530771484e+003;4.3392309570e+003;4.3273076172e+003;4.3379487305e+003;4.3441025391e+003;4.3311538086e+003;4.3366665039e+003;4.3303847656e+003;4.3566665039e+003;4.3464101563e+003;4.3387177734e+003;4.3457690430e+003;4.3482050781e+003;
3.1953125000e+000;4.2982050781e+003;4.3275639648e+003;4.3132050781e+003;4.3019228516e+003;4.3119228516e+003;4.3135898438e+003;4.3044873047e+003;4.3106411133e+003;4.3002563477e+003;4.3303847656e+003;4.3196152344e+003;4.3147436523e+003;4.3219228516e+003;4.3221796875e+003;
3.2031250000e+000;4.2200000000e+003;4.2417949219e+003;4.2323076172e+003;4.2330771484e+003;4.2273076172e+003;4.2347436523e+003;4.2293588867e+003;4.2279487305e+003;4.2157690430e+003;4.2396152344e+003;4.2560258789e+003;4.2443588867e+003;4.2446152344e+003;4.2448715820e+003;
3.2109375000e+000;4.0955129395e+003;4.1134614258e+003;4.1110258789e+003;4.0997436523e+003;4.1019228516e+003;4.1250000000e+003;4.1173076172e+003;4.1132050781e+003;4.1012822266e+003;4.1156411133e+003;4.1196152344e+003;4.1192309570e+003;4.1296152344e+003;4.1179487305e+003;
3.2187500000e+000;4.0806411133e+003;4.0958974609e+003;4.0926923828e+003;4.0857692871e+003;4.0841025391e+003;4.1098715820e+003;4.1048715820e+003;4.1010258789e+003;4.0902563477e+003;4.0956411133e+003;4.0974360352e+003;4.1026923828e+003;4.1092309570e+003;4.0979487305e+003;
3.2265625000e+000;4.1165385742e+003;4.1288461914e+003;4.1156411133e+003;4.1141025391e+003;4.1175639648e+003;4.1346152344e+003;4.1342309570e+003;4.1342309570e+003;4.1251284180e+003;4.1241025391e+003;4.1264101563e+003;4.1288461914e+003;4.1301284180e+003;4.1166665039e+003;
3.2343750000e+000;4.1484614258e+003;4.1606411133e+003;4.1437177734e+003;4.1407690430e+003;4.1514101563e+003;4.1621796875e+003;4.1619228516e+003;4.1628203125e+003;4.1537177734e+003;4.1565385742e+003;4.1582050781e+003;4.1573076172e+003;4.1589741211e+003;4.1441025391e+003;
3.2421875000e+000;4.2208974609e+003;4.2325639648e+003;4.2165385742e+003;4.2008974609e+003;4.2269228516e+003;4.2376923828e+003;4.2339741211e+003;4.2328203125e+003;4.2282050781e+003;4.2330771484e+003;4.2350000000e+003;4.2315385742e+003;4.2329487305e+003;4.2215385742e+003;
3.2500000000e+000;4.1760258789e+003;4.1825639648e+003;4.1746152344e+003;4.1524360352e+003;4.1769228516e+003;4.1952563477e+003;4.1889741211e+003;4.1926923828e+003;4.1883334961e+003;4.1925639648e+003;4.1860258789e+003;4.1901284180e+003;4.1879487305e+003;4.1761538086e+003;
3.2578125000e+000;4.1685898438e+003;4.1744873047e+003;4.1675639648e+003;4.1502563477e+003;4.1693588867e+003;4.1864101563e+003;4.1787177734e+003;4.1832050781e+003;4.1773076172e+003;4.1862822266e+003;4.1750000000e+003;4.1803847656e+003;4.1802563477e+003;4.1696152344e+003;
3.2656250000e+000;4.1810258789e+003;4.1882050781e+003;4.1794873047e+003;4.1682050781e+003;4.1816665039e+003;4.1978203125e+003;4.1883334961e+003;4.1935898438e+003;4.1870512695e+003;4.2003847656e+003;4.1871796875e+003;4.1896152344e+003;4.1924360352e+003;4.1832050781e+003;
3.2734375000e+000;4.1989741211e+003;4.2088461914e+003;4.1969228516e+003;4.1837177734e+003;4.1962822266e+003;4.2182050781e+003;4.2066665039e+003;4.2123076172e+003;4.2079487305e+003;4.2229487305e+003;4.2155126953e+003;4.2066665039e+003;4.2119228516e+003;4.2041025391e+003;
3.2812500000e+000;4.1717949219e+003;4.1798715820e+003;4.1707690430e+003;4.1494873047e+003;4.1667949219e+003;4.1920512695e+003;4.1811538086e+003;4.1861538086e+003;4.1828203125e+003;4.1960258789e+003;4.1921796875e+003;4.1816665039e+003;4.1869228516e+003;4.1789741211e+003;
3.2890625000e+000;4.0667949219e+003;4.0596154785e+003;4.0669230957e+003;4.0501281738e+003;4.0569230957e+003;4.0739743652e+003;4.0685898438e+003;4.0712819824e+003;4.0589743652e+003;4.0717949219e+003;4.0697436523e+003;4.0719230957e+003;4.0806411133e+003;4.0702563477e+003;
3.2968750000e+000;4.1214101563e+003;4.1069228516e+003;4.1147436523e+003;4.1139741211e+003;4.1002563477e+003;4.1106411133e+003;4.1138461914e+003;4.1100000000e+003;4.0882050781e+003;4.1041025391e+003;4.1116665039e+003;4.1170512695e+003;4.1193588867e+003;4.1117949219e+003;
3.3046875000e+000;4.1535898438e+003;4.1403847656e+003;4.1437177734e+003;4.1352563477e+003;4.1297436523e+003;4.1380771484e+003;4.1420512695e+003;4.1369228516e+003;4.1160258789e+003;4.1356411133e+003;4.1435898438e+003;4.1460258789e+003;4.1512822266e+003;4.1415385742e+003;
3.3125000000e+000;4.1794873047e+003;4.1697436523e+003;4.1678203125e+003;4.1500000000e+003;4.1551284180e+003;4.1607690430e+003;4.1643588867e+003;4.1591025391e+003;4.1396152344e+003;4.1635898438e+003;4.1696152344e+003;4.1710258789e+003;4.1782050781e+003;4.1676923828e+003;
3.3203125000e+000;4.1955126953e+003;4.1894873047e+003;4.1839741211e+003;4.1601284180e+003;4.1723076172e+003;4.1757690430e+003;4.1787177734e+003;4.1735898438e+003;4.1548715820e+003;4.1812822266e+003;4.1862822266e+003;4.1896152344e+003;4.1938461914e+003;4.1861538086e+003;
3.3281250000e+000;4.2493588867e+003;4.2434614258e+003;4.2420512695e+003;4.2214101563e+003;4.2382050781e+003;4.2401284180e+003;4.2450000000e+003;4.2412822266e+003;4.2234614258e+003;4.2464101563e+003;4.2519228516e+003;4.2483334961e+003;4.2508974609e+003;4.2469228516e+003;
3.3359375000e+000;4.2656411133e+003;4.2602563477e+003;4.2571796875e+003;4.2358974609e+003;4.2579487305e+003;4.2598715820e+003;4.2626923828e+003;4.2616665039e+003;4.2475639648e+003;4.2696152344e+003;4.2688461914e+003;4.2639741211e+003;4.2703847656e+003;4.2638461914e+003;
3.3437500000e+000;4.2575639648e+003;4.2565385742e+003;4.2494873047e+003;4.2387177734e+003;4.2515385742e+003;4.2585898438e+003;4.2598715820e+003;4.2612822266e+003;4.2519228516e+003;4.2675639648e+003;4.2678203125e+003;4.2646152344e+003;4.2597436523e+003;4.2560258789e+003;
3.3515625000e+000;4.2198715820e+003;4.2208974609e+003;4.2189741211e+003;4.2162822266e+003;4.2215385742e+003;4.2291025391e+003;4.2303847656e+003;4.2325639648e+003;4.2215385742e+003;4.2296152344e+003;4.2241025391e+003;4.2202563477e+003;4.2315385742e+003;4.2191025391e+003;
3.3593750000e+000;4.2048715820e+003;4.2067949219e+003;4.2035898438e+003;4.2011538086e+003;4.2061538086e+003;4.2126923828e+003;4.2134614258e+003;4.2167949219e+003;4.2070512695e+003;4.2135898438e+003;4.2011538086e+003;4.2014101563e+003;4.2155126953e+003;4.2025639648e+003;
3.3671875000e+000;4.1839741211e+003;4.1861538086e+003;4.1758974609e+003;4.1732050781e+003;4.1855126953e+003;4.1908974609e+003;4.1930771484e+003;4.2028203125e+003;4.1915385742e+003;4.2015385742e+003;4.1906411133e+003;4.1850000000e+003;4.1864101563e+003;4.1847436523e+003;
3.3750000000e+000;4.1900000000e+003;4.1930771484e+003;4.1900000000e+003;4.1958974609e+003;4.1962822266e+003;4.2023076172e+003;4.1978203125e+003;4.2084614258e+003;4.2000000000e+003;4.2085898438e+003;4.2023076172e+003;4.1893588867e+003;4.2035898438e+003;4.1956411133e+003;
3.3828125000e+000;4.1946152344e+003;4.1982050781e+003;4.1943588867e+003;4.2123076172e+003;4.1987177734e+003;4.2023076172e+003;4.1978203125e+003;4.2080771484e+003;4.2006411133e+003;4.2093588867e+003;4.1997436523e+003;4.1892309570e+003;4.2050000000e+003;4.1979487305e+003;
3.3906250000e+000;4.1897436523e+003;4.1905126953e+003;4.1837177734e+003;4.2055126953e+003;4.1842309570e+003;4.1788461914e+003;4.1850000000e+003;4.1853847656e+003;4.1717949219e+003;4.1901284180e+003;4.1848715820e+003;4.1787177734e+003;4.1870512695e+003;4.1902563477e+003;
3.3984375000e+000;4.1829487305e+003;4.1835898438e+003;4.1776923828e+003;4.1847436523e+003;4.1747436523e+003;4.1708974609e+003;4.1779487305e+003;4.1751284180e+003;4.1587177734e+003;4.1802563477e+003;4.1797436523e+003;4.1730771484e+003;4.1825639648e+003;4.1850000000e+003;
3.4062500000e+000;4.1682050781e+003;4.1692309570e+003;4.1657690430e+003;4.1588461914e+003;4.1571796875e+003;4.1575639648e+003;4.1637177734e+003;4.1606411133e+003;4.1415385742e+003;4.1646152344e+003;4.1688461914e+003;4.1611538086e+003;4.1710258789e+003;4.1724360352e+003;
3.4140625000e+000;4.1412822266e+003;4.1411538086e+003;4.1420512695e+003;4.1274360352e+003;4.1267949219e+003;4.1324360352e+003;4.1375639648e+003;4.1357690430e+003;4.1144873047e+003;4.1375639648e+003;4.1455126953e+003;4.1369228516e+003;4.1447436523e+003;4.1470512695e+003;
3.4218750000e+000;4.0494870605e+003;4.0306411133e+003;4.0424357910e+003;4.0365385742e+003;4.0255129395e+003;4.0251281738e+003;4.0356411133e+003;4.0246154785e+003;4.0037180176e+003;4.0244870605e+003;4.0369230957e+003;4.0339743652e+003;4.0391025391e+003;4.0437180176e+003;
3.4296875000e+000;4.0541025391e+003;4.0314101563e+003;4.0438461914e+003;4.0334614258e+003;4.0248718262e+003;4.0243588867e+003;4.0366667480e+003;4.0237180176e+003;4.0026923828e+003;4.0238461914e+003;4.0380769043e+003;4.0355129395e+003;4.0417949219e+003;4.0455129395e+003;
