Time (s);AF3;F7;F3;FC5;T7;P7;O1;O2;P8;T8;FC6;F4;F8;AF4;Sampling Rate
0.0000000000e+000;3.9206411133e+003;3.9182050781e+003;3.9206411133e+003;3.9335898438e+003;3.9225642090e+003;3.9464101563e+003;3.9439743652e+003;3.9397436523e+003;3.9484614258e+003;3.9241025391e+003;3.9223076172e+003;3.9337180176e+003;3.9146154785e+003;3.9275642090e+003;128
7.8125000000e-003;3.9773076172e+003;3.9732050781e+003;3.9742307129e+003;3.9834614258e+003;3.9769230957e+003;3.9924357910e+003;3.9910256348e+003;3.9897436523e+003;3.9988461914e+003;3.9800000000e+003;3.9797436523e+003;3.9889743652e+003;3.9705129395e+003;3.9828205566e+003;
1.5625000000e-002;3.9951281738e+003;3.9889743652e+003;3.9917949219e+003;3.9987180176e+003;3.9924357910e+003;4.0026923828e+003;4.0005129395e+003;4.0032050781e+003;4.0117949219e+003;3.9975642090e+003;3.9989743652e+003;4.0091025391e+003;3.9882050781e+003;4.0007692871e+003;
2.3437500000e-002;3.9737180176e+003;3.9665385742e+003;3.9725642090e+003;3.9788461914e+003;3.9696154785e+003;3.9787180176e+003;3.9753845215e+003;3.9787180176e+003;3.9867949219e+003;3.9748718262e+003;3.9779487305e+003;3.9915385742e+003;3.9669230957e+003;3.9796154785e+003;
3.1250000000e-002;4.0580769043e+003;4.0546154785e+003;4.0598718262e+003;4.0582050781e+003;4.0547436523e+003;4.0507692871e+003;4.0556411133e+003;4.0574357910e+003;4.0676923828e+003;4.0602563477e+003;4.0620512695e+003;4.0761538086e+003;4.0542307129e+003;4.0666667480e+003;
3.9062500000e-002;4.0667949219e+003;4.0625642090e+003;4.0700000000e+003;4.0678205566e+003;4.0634614258e+003;4.0589743652e+003;4.0634614258e+003;4.0683332520e+003;4.0764101563e+003;4.0720512695e+003;4.0723076172e+003;4.0873076172e+003;4.0632050781e+003;4.0779487305e+003;
4.6875000000e-002;4.0806411133e+003;4.0797436523e+003;4.0880769043e+003;4.0811538086e+003;4.0871794434e+003;4.0830769043e+003;4.0869230957e+003;4.0903845215e+003;4.0957692871e+003;4.0907692871e+003;4.0892307129e+003;4.1078203125e+003;4.0816667480e+003;4.0900000000e+003;
5.4687500000e-002;4.0757692871e+003;4.0762819824e+003;4.0823076172e+003;4.0725642090e+003;4.0852563477e+003;4.0819230957e+003;4.0882050781e+003;4.0891025391e+003;4.0996152344e+003;4.0812819824e+003;4.0726923828e+003;4.0975639648e+003;4.0687180176e+003;4.0783332520e+003;
6.2500000000e-002;4.0979487305e+003;4.0991025391e+003;4.0985898438e+003;4.0938461914e+003;4.1074360352e+003;4.1019228516e+003;4.1091025391e+003;4.1076923828e+003;4.1191025391e+003;4.0993588867e+003;4.0915385742e+003;4.1141025391e+003;4.0884614258e+003;4.0976923828e+003;
7.0312500000e-002;4.1348715820e+003;4.1423076172e+003;4.1332050781e+003;4.1342309570e+003;4.1561538086e+003;4.1544873047e+003;4.1515385742e+003;4.1546152344e+003;4.1676923828e+003;4.1510258789e+003;4.1408974609e+003;4.1606411133e+003;4.1351284180e+003;4.1430771484e+003;
7.8125000000e-002;4.0846154785e+003;4.0952563477e+003;4.0902563477e+003;4.0916667480e+003;4.1123076172e+003;4.1089741211e+003;4.1111538086e+003;4.1123076172e+003;4.1276923828e+003;4.1021796875e+003;4.0948718262e+003;4.1151284180e+003;4.0930769043e+003;4.0989741211e+003;
8.5937500000e-002;4.0812819824e+003;4.0925642090e+003;4.0860256348e+003;4.0864101563e+003;4.1044873047e+003;4.1017949219e+003;4.1057690430e+003;4.1106411133e+003;4.1258974609e+003;4.1005126953e+003;4.0925642090e+003;4.1123076172e+003;4.0906411133e+003;4.0942307129e+003;
9.3750000000e-002;4.0032050781e+003;4.0076923828e+003;4.0048718262e+003;4.0044870605e+003;4.0152563477e+003;4.0265385742e+003;4.0262819824e+003;4.0287180176e+003;4.0367949219e+003;4.0156411133e+003;4.0116667480e+003;4.0306411133e+003;4.0041025391e+003;4.0120512695e+003;
1.0156250000e-001;4.0216667480e+003;4.0251281738e+003;4.0246154785e+003;4.0234614258e+003;4.0353845215e+003;4.0414101563e+003;4.0429487305e+003;4.0451281738e+003;4.0533332520e+003;4.0328205566e+003;4.0296154785e+003;4.0494870605e+003;4.0235898438e+003;4.0341025391e+003;
1.0937500000e-001;4.0521794434e+003;4.0580769043e+003;4.0611538086e+003;4.0573076172e+003;4.0665385742e+003;4.0633332520e+003;4.0694870605e+003;4.0752563477e+003;4.0875642090e+003;4.0656411133e+003;4.0617949219e+003;4.0860256348e+003;4.0612819824e+003;4.0739743652e+003;
1.1718750000e-001;4.0516667480e+003;4.0598718262e+003;4.0616667480e+003;4.0575642090e+003;4.0637180176e+003;4.0611538086e+003;4.0682050781e+003;4.0723076172e+003;4.0855129395e+003;4.0635898438e+003;4.0605129395e+003;4.0851281738e+003;4.0616667480e+003;4.0735898438e+003;
1.2500000000e-001;4.1592309570e+003;4.1738461914e+003;4.1637177734e+003;4.1597436523e+003;4.1655126953e+003;4.1552563477e+003;4.1629487305e+003;4.1708974609e+003;4.1794873047e+003;4.1766665039e+003;4.1693588867e+003;4.1846152344e+003;4.1675639648e+003;4.1773076172e+003;
1.3281250000e-001;4.1708974609e+003;4.1844873047e+003;4.1762822266e+003;4.1716665039e+003;4.1756411133e+003;4.1628203125e+003;4.1680771484e+003;4.1807690430e+003;4.1897436523e+003;4.1910258789e+003;4.1826923828e+003;4.1975639648e+003;4.1805126953e+003;4.1901284180e+003;
1.4062500000e-001;4.1570512695e+003;4.1693588867e+003;4.1641025391e+003;4.1594873047e+003;4.1612822266e+003;4.1476923828e+003;4.1503847656e+003;4.1630771484e+003;4.1750000000e+003;4.1748715820e+003;4.1688461914e+003;4.1851284180e+003;4.1678203125e+003;4.1766665039e+003;
1.4843750000e-001;4.1464101563e+003;4.1594873047e+003;4.1541025391e+003;4.1506411133e+003;4.1520512695e+003;4.1369228516e+003;4.1385898438e+003;4.1475639648e+003;4.1633334961e+003;4.1594873047e+003;4.1570512695e+003;4.1747436523e+003;4.1579487305e+003;4.1648715820e+003;
1.5625000000e-001;4.1487177734e+003;4.1643588867e+003;4.1564101563e+003;4.1537177734e+003;4.1610258789e+003;4.1502563477e+003;4.1501284180e+003;4.1566665039e+003;4.1667949219e+003;4.1638461914e+003;4.1569228516e+003;4.1739741211e+003;4.1530771484e+003;4.1679487305e+003;
1.6406250000e-001;4.1624360352e+003;4.1767949219e+003;4.1692309570e+003;4.1648715820e+003;4.1769228516e+003;4.1671796875e+003;4.1667949219e+003;4.1710258789e+003;4.1803847656e+003;4.1747436523e+003;4.1679487305e+003;4.1850000000e+003;4.1637177734e+003;4.1806411133e+003;
1.7187500000e-001;4.2002563477e+003;4.2283334961e+003;4.2187177734e+003;4.2094873047e+003;4.2276923828e+003;4.2247436523e+003;4.2217949219e+003;4.2283334961e+003;4.2430771484e+003;4.2310258789e+003;4.2173076172e+003;4.2407690430e+003;4.2124360352e+003;4.2270512695e+003;
1.7968750000e-001;4.1180771484e+003;4.1423076172e+003;4.1426923828e+003;4.1319228516e+003;4.1479487305e+003;4.1571796875e+003;4.1566665039e+003;4.1619228516e+003;4.1711538086e+003;4.1538461914e+003;4.1406411133e+003;4.1647436523e+003;4.1350000000e+003;4.1512822266e+003;
1.8750000000e-001;4.1361538086e+003;4.1588461914e+003;4.1585898438e+003;4.1467949219e+003;4.1666665039e+003;4.1729487305e+003;4.1730771484e+003;4.1807690430e+003;4.1883334961e+003;4.1706411133e+003;4.1601284180e+003;4.1808974609e+003;4.1524360352e+003;4.1702563477e+003;
1.9531250000e-001;4.1084614258e+003;4.1292309570e+003;4.1291025391e+003;4.1205126953e+003;4.1366665039e+003;4.1425639648e+003;4.1419228516e+003;4.1435898438e+003;4.1534614258e+003;4.1346152344e+003;4.1298715820e+003;4.1562822266e+003;4.1201284180e+003;4.1423076172e+003;
2.0312500000e-001;4.1369228516e+003;4.1521796875e+003;4.1600000000e+003;4.1401284180e+003;4.1564101563e+003;4.1575639648e+003;4.1566665039e+003;4.1579487305e+003;4.1675639648e+003;4.1591025391e+003;4.1538461914e+003;4.1864101563e+003;4.1500000000e+003;4.1710258789e+003;
2.1093750000e-001;4.1311538086e+003;4.1438461914e+003;4.1543588867e+003;4.1339741211e+003;4.1455126953e+003;4.1485898438e+003;4.1467949219e+003;4.1485898438e+003;4.1571796875e+003;4.1517949219e+003;4.1478203125e+003;4.1794873047e+003;4.1448715820e+003;4.1658974609e+003;
2.1875000000e-001;4.1384614258e+003;4.1496152344e+003;4.1597436523e+003;4.1415385742e+003;4.1479487305e+003;4.1506411133e+003;4.1501284180e+003;4.1503847656e+003;4.1592309570e+003;4.1569228516e+003;4.1544873047e+003;4.1832050781e+003;4.1523076172e+003;4.1721796875e+003;
2.2656250000e-001;4.1943588867e+003;4.2098715820e+003;4.2138461914e+003;4.1988461914e+003;4.2012822266e+003;4.1962822266e+003;4.2000000000e+003;4.2012822266e+003;4.2124360352e+003;4.2184614258e+003;4.2148715820e+003;4.2373076172e+003;4.2119228516e+003;4.2296152344e+003;
2.3437500000e-001;4.1301284180e+003;4.1530771484e+003;4.1606411133e+003;4.1433334961e+003;4.1458974609e+003;4.1405126953e+003;4.1401284180e+003;4.1391025391e+003;4.1455126953e+003;4.1544873047e+003;4.1561538086e+003;4.1830771484e+003;4.1508974609e+003;4.1747436523e+003;
2.4218750000e-001;4.1324360352e+003;4.1571796875e+003;4.1638461914e+003;4.1457690430e+003;4.1500000000e+003;4.1421796875e+003;4.1423076172e+003;4.1397436523e+003;4.1466665039e+003;4.1550000000e+003;4.1588461914e+003;4.1853847656e+003;4.1552563477e+003;4.1788461914e+003;
2.5000000000e-001;4.1297436523e+003;4.1555126953e+003;4.1589741211e+003;4.1460258789e+003;4.1488461914e+003;4.1466665039e+003;4.1469228516e+003;4.1510258789e+003;4.1673076172e+003;4.1656411133e+003;4.1625639648e+003;4.1841025391e+003;4.1600000000e+003;4.1803847656e+003;
2.5781250000e-001;4.1173076172e+003;4.1421796875e+003;4.1456411133e+003;4.1348715820e+003;4.1385898438e+003;4.1402563477e+003;4.1398715820e+003;4.1423076172e+003;4.1589741211e+003;4.1514101563e+003;4.1480771484e+003;4.1665385742e+003;4.1451284180e+003;4.1634614258e+003;
2.6562500000e-001;4.1337177734e+003;4.1588461914e+003;4.1619228516e+003;4.1514101563e+003;4.1585898438e+003;4.1602563477e+003;4.1594873047e+003;4.1608974609e+003;4.1761538086e+003;4.1652563477e+003;4.1617949219e+003;4.1764101563e+003;4.1589741211e+003;4.1750000000e+003;
2.7343750000e-001;4.1615385742e+003;4.1876923828e+003;4.1907690430e+003;4.1792309570e+003;4.1902563477e+003;4.1903847656e+003;4.1885898438e+003;4.1924360352e+003;4.2056411133e+003;4.1939741211e+003;4.1885898438e+003;4.2014101563e+003;4.1857690430e+003;4.2012822266e+003;
2.8125000000e-001;4.0356411133e+003;4.0611538086e+003;4.0623076172e+003;4.0628205566e+003;4.0707692871e+003;4.0857692871e+003;4.0814101563e+003;4.0796154785e+003;4.0969228516e+003;4.0779487305e+003;4.0639743652e+003;4.0871794434e+003;4.0603845215e+003;4.0774357910e+003;
2.8906250000e-001;4.0283332520e+003;4.0548718262e+003;4.0528205566e+003;4.0560256348e+003;4.0639743652e+003;4.0791025391e+003;4.0734614258e+003;4.0698718262e+003;4.0894870605e+003;4.0698718262e+003;4.0541025391e+003;4.0750000000e+003;4.0521794434e+003;4.0665385742e+003;
2.9687500000e-001;3.9748718262e+003;4.0012819824e+003;3.9987180176e+003;4.0026923828e+003;4.0044870605e+003;4.0278205566e+003;4.0142307129e+003;4.0103845215e+003;4.0252563477e+003;4.0038461914e+003;3.9917949219e+003;4.0115385742e+003;3.9924357910e+003;4.0080769043e+003;
3.0468750000e-001;3.9823076172e+003;3.9998718262e+003;3.9980769043e+003;4.0012819824e+003;4.0001281738e+003;4.0165385742e+003;4.0094870605e+003;4.0048718262e+003;4.0211538086e+003;4.0039743652e+003;4.0012819824e+003;4.0192307129e+003;3.9958974609e+003;4.0110256348e+003;
3.1250000000e-001;3.9701281738e+003;3.9855129395e+003;3.9866667480e+003;3.9888461914e+003;3.9861538086e+003;4.0007692871e+003;3.9935898438e+003;3.9884614258e+003;4.0048718262e+003;3.9892307129e+003;3.9878205566e+003;4.0067949219e+003;3.9830769043e+003;3.9975642090e+003;
3.2031250000e-001;4.0308974609e+003;4.0492307129e+003;4.0467949219e+003;4.0442307129e+003;4.0453845215e+003;4.0501281738e+003;4.0469230957e+003;4.0367949219e+003;4.0473076172e+003;4.0398718262e+003;4.0430769043e+003;4.0634614258e+003;4.0439743652e+003;4.0560256348e+003;
3.2812500000e-001;4.0147436523e+003;4.0324357910e+003;4.0341025391e+003;4.0302563477e+003;4.0292307129e+003;4.0302563477e+003;4.0264101563e+003;4.0223076172e+003;4.0341025391e+003;4.0316667480e+003;4.0328205566e+003;4.0530769043e+003;4.0250000000e+003;4.0383332520e+003;
3.3593750000e-001;4.0135898438e+003;4.0293588867e+003;4.0350000000e+003;4.0293588867e+003;4.0293588867e+003;4.0293588867e+003;4.0252563477e+003;4.0196154785e+003;4.0303845215e+003;4.0267949219e+003;4.0278205566e+003;4.0474357910e+003;4.0192307129e+003;4.0324357910e+003;
3.4375000000e-001;4.0430769043e+003;4.0573076172e+003;4.0653845215e+003;4.0566667480e+003;4.0585898438e+003;4.0569230957e+003;4.0542307129e+003;4.0484614258e+003;4.0569230957e+003;4.0533332520e+003;4.0528205566e+003;4.0723076172e+003;4.0457692871e+003;4.0587180176e+003;
3.5156250000e-001;4.0891025391e+003;4.0989741211e+003;4.1103847656e+003;4.0956411133e+003;4.0976923828e+003;4.0983334961e+003;4.0997436523e+003;4.0965385742e+003;4.1019228516e+003;4.1001284180e+003;4.0934614258e+003;4.1176923828e+003;4.0914101563e+003;4.1067949219e+003;
3.5937500000e-001;4.0902563477e+003;4.0980771484e+003;4.1096152344e+003;4.0946154785e+003;4.0967949219e+003;4.0998715820e+003;4.1014101563e+003;4.0980771484e+003;4.1050000000e+003;4.1023076172e+003;4.0929487305e+003;4.1198715820e+003;4.0926923828e+003;4.1100000000e+003;
3.6718750000e-001;4.1215385742e+003;4.1328203125e+003;4.1393588867e+003;4.1258974609e+003;4.1378203125e+003;4.1389741211e+003;4.1371796875e+003;4.1380771484e+003;4.1505126953e+003;4.1439741211e+003;4.1293588867e+003;4.1548715820e+003;4.1264101563e+003;4.1442309570e+003;
3.7500000000e-001;4.1311538086e+003;4.1467949219e+003;4.1515385742e+003;4.1383334961e+003;4.1551284180e+003;4.1575639648e+003;4.1532050781e+003;4.1582050781e+003;4.1715385742e+003;4.1620512695e+003;4.1457690430e+003;4.1685898438e+003;4.1389741211e+003;4.1556411133e+003;
3.8281250000e-001;4.1275639648e+003;4.1520512695e+003;4.1542309570e+003;4.1415385742e+003;4.1633334961e+003;4.1762822266e+003;4.1737177734e+003;4.1662822266e+003;4.1775639648e+003;4.1632050781e+003;4.1493588867e+003;4.1625639648e+003;4.1429487305e+003;4.1512822266e+003;
3.9062500000e-001;4.1753847656e+003;4.2035898438e+003;4.2016665039e+003;4.1887177734e+003;4.2150000000e+003;4.2235898438e+003;4.2232050781e+003;4.2146152344e+003;4.2261538086e+003;4.2152563477e+003;4.1984614258e+003;4.2096152344e+003;4.1946152344e+003;4.2010258789e+003;
3.9843750000e-001;4.2155126953e+003;4.2466665039e+003;4.2425639648e+003;4.2297436523e+003;4.2594873047e+003;4.2638461914e+003;4.2634614258e+003;4.2589741211e+003;4.2715385742e+003;4.2650000000e+003;4.2428203125e+003;4.2543588867e+003;4.2394873047e+003;4.2462822266e+003;
4.0625000000e-001;4.2189741211e+003;4.2605126953e+003;4.2483334961e+003;4.2342309570e+003;4.2667949219e+003;4.2658974609e+003;4.2601284180e+003;4.2574360352e+003;4.2766665039e+003;4.2775639648e+003;4.2652563477e+003;4.2687177734e+003;4.2569228516e+003;4.2615385742e+003;
4.1406250000e-001;4.2187177734e+003;4.2617949219e+003;4.2519228516e+003;4.2351284180e+003;4.2653847656e+003;4.2628203125e+003;4.2547436523e+003;4.2552563477e+003;4.2726923828e+003;4.2771796875e+003;4.2666665039e+003;4.2689741211e+003;4.2580771484e+003;4.2624360352e+003;
4.2187500000e-001;4.2783334961e+003;4.3216665039e+003;4.3124360352e+003;4.2939741211e+003;4.3192309570e+003;4.3034614258e+003;4.3056411133e+003;4.3016665039e+003;4.3197436523e+003;4.3267949219e+003;4.3170512695e+003;4.3230771484e+003;4.3129487305e+003;4.3192309570e+003;
4.2968750000e-001;4.2944873047e+003;4.3482050781e+003;4.3414101563e+003;4.3138461914e+003;4.3361538086e+003;4.3246152344e+003;4.3241025391e+003;4.3296152344e+003;4.3458974609e+003;4.3561538086e+003;4.3420512695e+003;4.3524360352e+003;4.3397436523e+003;4.3453847656e+003;
4.3750000000e-001;4.2583334961e+003;4.3100000000e+003;4.3076923828e+003;4.2829487305e+003;4.3048715820e+003;4.2942309570e+003;4.2924360352e+003;4.2956411133e+003;4.3094873047e+003;4.3197436523e+003;4.3075639648e+003;4.3179487305e+003;4.3067949219e+003;4.3106411133e+003;
4.4531250000e-001;4.2525639648e+003;4.3021796875e+003;4.2997436523e+003;4.2851284180e+003;4.3114101563e+003;4.2948715820e+003;4.2955126953e+003;4.2930771484e+003;4.3082050781e+003;4.3185898438e+003;4.3088461914e+003;4.3176923828e+003;4.3084614258e+003;4.3128203125e+003;
4.5312500000e-001;4.2520512695e+003;4.3050000000e+003;4.3019228516e+003;4.2869228516e+003;4.3121796875e+003;4.2987177734e+003;4.2985898438e+003;4.2955126953e+003;4.3128203125e+003;4.3203847656e+003;4.3100000000e+003;4.3198715820e+003;4.3069228516e+003;4.3151284180e+003;
4.6093750000e-001;4.2942309570e+003;4.3546152344e+003;4.3510258789e+003;4.3315385742e+003;4.3628203125e+003;4.3479487305e+003;4.3474360352e+003;4.3453847656e+003;4.3658974609e+003;4.3685898438e+003;4.3543588867e+003;4.3623076172e+003;4.3482050781e+003;4.3578203125e+003;
4.6875000000e-001;4.3212822266e+003;4.3851284180e+003;4.3812822266e+003;4.3606411133e+003;4.3979487305e+003;4.3794873047e+003;4.3793588867e+003;4.3798715820e+003;4.4001284180e+003;4.4029487305e+003;4.3856411133e+003;4.3906411133e+003;4.3796152344e+003;4.3857690430e+003;
4.7656250000e-001;4.3139741211e+003;4.3879487305e+003;4.3774360352e+003;4.3635898438e+003;4.4060258789e+003;4.3924360352e+003;4.3907690430e+003;4.3898715820e+003;4.4053847656e+003;4.4065385742e+003;4.3858974609e+003;4.3887177734e+003;4.3832050781e+003;4.3851284180e+003;
4.8437500000e-001;4.3365385742e+003;4.4124360352e+003;4.3997436523e+003;4.3846152344e+003;4.4283334961e+003;4.4155126953e+003;4.4119228516e+003;4.4129487305e+003;4.4297436523e+003;4.4291025391e+003;4.4057690430e+003;4.4107690430e+003;4.4039741211e+003;4.4083334961e+003;
4.9218750000e-001;4.3384614258e+003;4.4124360352e+003;4.4060258789e+003;4.3844873047e+003;4.4278203125e+003;4.4151284180e+003;4.4082050781e+003;4.4182050781e+003;4.4401284180e+003;4.4351284180e+003;4.4074360352e+003;4.4175639648e+003;4.4039741211e+003;4.4132050781e+003;
5.0000000000e-001;4.2989741211e+003;4.3715385742e+003;4.3679487305e+003;4.3466665039e+003;4.3875639648e+003;4.3765385742e+003;4.3701284180e+003;4.3782050781e+003;4.4014101563e+003;4.3939741211e+003;4.3702563477e+003;4.3798715820e+003;4.3655126953e+003;4.3747436523e+003;
5.0781250000e-001;4.3380771484e+003;4.4161538086e+003;4.4006411133e+003;4.3823076172e+003;4.4211538086e+003;4.4078203125e+003;4.4069228516e+003;4.4056411133e+003;4.4307690430e+003;4.4242309570e+003;4.4101284180e+003;4.4158974609e+003;4.4078203125e+003;4.4160258789e+003;
5.1562500000e-001;4.3498715820e+003;4.4276923828e+003;4.4137177734e+003;4.3933334961e+003;4.4291025391e+003;4.4171796875e+003;4.4158974609e+003;4.4180771484e+003;4.4425639648e+003;4.4379487305e+003;4.4193588867e+003;4.4303847656e+003;4.4183334961e+003;4.4302563477e+003;
5.2343750000e-001;4.3288461914e+003;4.4038461914e+003;4.3943588867e+003;4.3729487305e+003;4.4050000000e+003;4.3950000000e+003;4.3943588867e+003;4.3974360352e+003;4.4192309570e+003;4.4158974609e+003;4.3943588867e+003;4.4107690430e+003;4.3942309570e+003;4.4092309570e+003;
5.3125000000e-001;4.3158974609e+003;4.3885898438e+003;4.3811538086e+003;4.3600000000e+003;4.3914101563e+003;4.3792309570e+003;4.3820512695e+003;4.3820512695e+003;4.4002563477e+003;4.3985898438e+003;4.3780771484e+003;4.3958974609e+003;4.3776923828e+003;4.3928203125e+003;
5.3906250000e-001;4.4717949219e+003;4.5639741211e+003;4.5430771484e+003;4.5208974609e+003;4.5564101563e+003;4.5298715820e+003;4.5308974609e+003;4.5385898438e+003;4.5532050781e+003;4.5682050781e+003;4.5515385742e+003;4.5529487305e+003;4.5425639648e+003;4.5523076172e+003;
5.4687500000e-001;4.4253847656e+003;4.5253847656e+003;4.5023076172e+003;4.4771796875e+003;4.5147436523e+003;4.4867949219e+003;4.4887177734e+003;4.4873076172e+003;4.5089741211e+003;4.5267949219e+003;4.5144873047e+003;4.5173076172e+003;4.5069228516e+003;4.5144873047e+003;
5.5468750000e-001;4.4619228516e+003;4.5625639648e+003;4.5462822266e+003;4.5198715820e+003;4.5637177734e+003;4.5406411133e+003;4.5388461914e+003;4.5417949219e+003;4.5664101563e+003;4.5751284180e+003;4.5619228516e+003;4.5614101563e+003;4.5470512695e+003;4.5569228516e+003;
5.6250000000e-001;4.5379487305e+003;4.6405126953e+003;4.6224360352e+003;4.5926923828e+003;4.6443588867e+003;4.6178203125e+003;4.6196152344e+003;4.6243588867e+003;4.6470512695e+003;4.6567949219e+003;4.6396152344e+003;4.6378203125e+003;4.6264101563e+003;4.6334614258e+003;
5.7031250000e-001;4.6526923828e+003;4.7660258789e+003;4.7444873047e+003;4.7058974609e+003;4.7657690430e+003;4.7337177734e+003;4.7408974609e+003;4.7505126953e+003;4.7729487305e+003;4.7898715820e+003;4.7583334961e+003;4.7591025391e+003;4.7506411133e+003;4.7512822266e+003;
5.7812500000e-001;4.6357690430e+003;4.7539741211e+003;4.7319228516e+003;4.6920512695e+003;4.7493588867e+003;4.7171796875e+003;4.7230771484e+003;4.7334614258e+003;4.7596152344e+003;4.7756411133e+003;4.7428203125e+003;4.7430771484e+003;4.7357690430e+003;4.7370512695e+003;
5.8593750000e-001;4.5458974609e+003;4.6697436523e+003;4.6492309570e+003;4.6098715820e+003;4.6593588867e+003;4.6316665039e+003;4.6350000000e+003;4.6506411133e+003;4.6802563477e+003;4.6937177734e+003;4.6578203125e+003;4.6587177734e+003;4.6526923828e+003;4.6562822266e+003;
5.9375000000e-001;4.4688461914e+003;4.5906411133e+003;4.5739741211e+003;4.5369228516e+003;4.5808974609e+003;4.5605126953e+003;4.5624360352e+003;4.5782050781e+003;4.6057690430e+003;4.6167949219e+003;4.5816665039e+003;4.5842309570e+003;4.5767949219e+003;4.5810258789e+003;
6.0156250000e-001;4.3387177734e+003;4.4492309570e+003;4.4392309570e+003;4.4080771484e+003;4.4435898438e+003;4.4356411133e+003;4.4298715820e+003;4.4378203125e+003;4.4633334961e+003;4.4643588867e+003;4.4473076172e+003;4.4469228516e+003;4.4367949219e+003;4.4420512695e+003;
6.0937500000e-001;4.3212822266e+003;4.4310258789e+003;4.4201284180e+003;4.3898715820e+003;4.4241025391e+003;4.4169228516e+003;4.4093588867e+003;4.4170512695e+003;4.4438461914e+003;4.4432050781e+003;4.4291025391e+003;4.4298715820e+003;4.4173076172e+003;4.4256411133e+003;
6.1718750000e-001;4.2733334961e+003;4.3820512695e+003;4.3675639648e+003;4.3423076172e+003;4.3723076172e+003;4.3670512695e+003;4.3628203125e+003;4.3656411133e+003;4.3910258789e+003;4.3891025391e+003;4.3755126953e+003;4.3838461914e+003;4.3669228516e+003;4.3800000000e+003;
6.2500000000e-001;4.2825639648e+003;4.3911538086e+003;4.3746152344e+003;4.3515385742e+003;4.3815385742e+003;4.3738461914e+003;4.3715385742e+003;4.3732050781e+003;4.3965385742e+003;4.3956411133e+003;4.3824360352e+003;4.3902563477e+003;4.3764101563e+003;4.3880771484e+003;
6.3281250000e-001;4.3121796875e+003;4.4175639648e+003;4.4070512695e+003;4.3839741211e+003;4.4129487305e+003;4.4010258789e+003;4.3923076172e+003;4.4017949219e+003;4.4235898438e+003;4.4255126953e+003;4.4184614258e+003;4.4161538086e+003;4.4088461914e+003;4.4170512695e+003;
6.4062500000e-001;4.2873076172e+003;4.3893588867e+003;4.3806411133e+003;4.3584614258e+003;4.3847436523e+003;4.3758974609e+003;4.3673076172e+003;4.3717949219e+003;4.3942309570e+003;4.3950000000e+003;4.3925639648e+003;4.3902563477e+003;4.3805126953e+003;4.3903847656e+003;
6.4843750000e-001;4.2853847656e+003;4.3848715820e+003;4.3743588867e+003;4.3533334961e+003;4.3785898438e+003;4.3698715820e+003;4.3650000000e+003;4.3626923828e+003;4.3851284180e+003;4.3866665039e+003;4.3870512695e+003;4.3851284180e+003;4.3741025391e+003;4.3851284180e+003;
6.5625000000e-001;4.2894873047e+003;4.3878203125e+003;4.3732050781e+003;4.3566665039e+003;4.3764101563e+003;4.3655126953e+003;4.3624360352e+003;4.3608974609e+003;4.3805126953e+003;4.3864101563e+003;4.3791025391e+003;4.3801284180e+003;4.3751284180e+003;4.3850000000e+003;
6.6406250000e-001;4.3103847656e+003;4.4091025391e+003;4.3911538086e+003;4.3765385742e+003;4.3976923828e+003;4.3848715820e+003;4.3829487305e+003;4.3821796875e+003;4.4016665039e+003;4.4073076172e+003;4.3992309570e+003;4.3983334961e+003;4.3960258789e+003;4.4042309570e+003;
6.7187500000e-001;4.3166665039e+003;4.4193588867e+003;4.3950000000e+003;4.3848715820e+003;4.4043588867e+003;4.3933334961e+003;4.3882050781e+003;4.3969228516e+003;4.4185898438e+003;4.4201284180e+003;4.4076923828e+003;4.4011538086e+003;4.4025639648e+003;4.4023076172e+003;
6.7968750000e-001;4.3194873047e+003;4.4255126953e+003;4.3984614258e+003;4.3916665039e+003;4.4138461914e+003;4.3970512695e+003;4.3910258789e+003;4.3975639648e+003;4.4207690430e+003;4.4203847656e+003;4.4088461914e+003;4.4012822266e+003;4.4047436523e+003;4.4016665039e+003;
6.8750000000e-001;4.3012822266e+003;4.4046152344e+003;4.3811538086e+003;4.3728203125e+003;4.3962822266e+003;4.3787177734e+003;4.3735898438e+003;4.3810258789e+003;4.4016665039e+003;4.4025639648e+003;4.3903847656e+003;4.3862822266e+003;4.3861538086e+003;4.3860258789e+003;
6.9531250000e-001;4.2962822266e+003;4.3946152344e+003;4.3737177734e+003;4.3619228516e+003;4.3848715820e+003;4.3712822266e+003;4.3680771484e+003;4.3716665039e+003;4.3919228516e+003;4.3865385742e+003;4.3792309570e+003;4.3746152344e+003;4.3751284180e+003;4.3725639648e+003;
7.0312500000e-001;4.3297436523e+003;4.4325639648e+003;4.4074360352e+003;4.3966665039e+003;4.4189741211e+003;4.4060258789e+003;4.4026923828e+003;4.4069228516e+003;4.4291025391e+003;4.4229487305e+003;4.4153847656e+003;4.4089741211e+003;4.4105126953e+003;4.4057690430e+003;
7.1093750000e-001;4.3080771484e+003;4.4164101563e+003;4.3900000000e+003;4.3825639648e+003;4.4071796875e+003;4.3950000000e+003;4.3923076172e+003;4.3920512695e+003;4.4114101563e+003;4.4091025391e+003;4.3992309570e+003;4.3960258789e+003;4.3934614258e+003;4.3919228516e+003;
7.1875000000e-001;4.2883334961e+003;4.3955126953e+003;4.3710258789e+003;4.3629487305e+003;4.3932050781e+003;4.3779487305e+003;4.3775639648e+003;4.3720512695e+003;4.3879487305e+003;4.3879487305e+003;4.3785898438e+003;4.3770512695e+003;4.3743588867e+003;4.3751284180e+003;
7.2656250000e-001;4.3480771484e+003;4.4491025391e+003;4.4301284180e+003;4.4130771484e+003;4.4501284180e+003;4.4320512695e+003;4.4314101563e+003;4.4315385742e+003;4.4444873047e+003;4.4464101563e+003;4.4366665039e+003;4.4330771484e+003;4.4342309570e+003;4.4387177734e+003;
7.3437500000e-001;4.3492309570e+003;4.4492309570e+003;4.4308974609e+003;4.4137177734e+003;4.4471796875e+003;4.4343588867e+003;4.4317949219e+003;4.4325639648e+003;4.4462822266e+003;4.4491025391e+003;4.4382050781e+003;4.4339741211e+003;4.4339741211e+003;4.4407690430e+003;
7.4218750000e-001;4.3657690430e+003;4.4665385742e+003;4.4430771484e+003;4.4266665039e+003;4.4624360352e+003;4.4467949219e+003;4.4488461914e+003;4.4426923828e+003;4.4575639648e+003;4.4683334961e+003;4.4555126953e+003;4.4501284180e+003;4.4508974609e+003;4.4589741211e+003;
7.5000000000e-001;4.3770512695e+003;4.4792309570e+003;4.4542309570e+003;4.4365385742e+003;4.4750000000e+003;4.4537177734e+003;4.4591025391e+003;4.4542309570e+003;4.4678203125e+003;4.4823076172e+003;4.4683334961e+003;4.4644873047e+003;4.4653847656e+003;4.4728203125e+003;
7.5781250000e-001;4.3006411133e+003;4.3994873047e+003;4.3835898438e+003;4.3643588867e+003;4.3960258789e+003;4.3792309570e+003;4.3817949219e+003;4.3848715820e+003;4.3914101563e+003;4.3951284180e+003;4.3898715820e+003;4.3926923828e+003;4.3866665039e+003;4.3943588867e+003;
7.6562500000e-001;4.3056411133e+003;4.4019228516e+003;4.3864101563e+003;4.3676923828e+003;4.4007690430e+003;4.3834614258e+003;4.3856411133e+003;4.3875639648e+003;4.3937177734e+003;4.3958974609e+003;4.3929487305e+003;4.3942309570e+003;4.3882050781e+003;4.3943588867e+003;
7.7343750000e-001;4.3220512695e+003;4.4162822266e+003;4.4002563477e+003;4.3819228516e+003;4.4173076172e+003;4.3980771484e+003;4.4014101563e+003;4.4026923828e+003;4.4092309570e+003;4.4134614258e+003;4.4097436523e+003;4.4092309570e+003;4.4029487305e+003;4.4076923828e+003;
7.8125000000e-001;4.3183334961e+003;4.4107690430e+003;4.3956411133e+003;4.3776923828e+003;4.4126923828e+003;4.3944873047e+003;4.3992309570e+003;4.3994873047e+003;4.4069228516e+003;4.4128203125e+003;4.4074360352e+003;4.4065385742e+003;4.3989741211e+003;4.4035898438e+003;
7.8906250000e-001;4.3485898438e+003;4.4441025391e+003;4.4256411133e+003;4.4098715820e+003;4.4462822266e+003;4.4323076172e+003;4.4347436523e+003;4.4292309570e+003;4.4419228516e+003;4.4356411133e+003;4.4333334961e+003;4.4323076172e+003;4.4316665039e+003;4.4283334961e+003;
7.9687500000e-001;4.3800000000e+003;4.4787177734e+003;4.4579487305e+003;4.4419228516e+003;4.4796152344e+003;4.4639741211e+003;4.4648715820e+003;4.4632050781e+003;4.4743588867e+003;4.4733334961e+003;4.4667949219e+003;4.4641025391e+003;4.4642309570e+003;4.4596152344e+003;
8.0468750000e-001;4.4098715820e+003;4.5142309570e+003;4.4874360352e+003;4.4707690430e+003;4.5069228516e+003;4.4889741211e+003;4.4942309570e+003;4.4894873047e+003;4.4950000000e+003;4.4996152344e+003;4.4948715820e+003;4.4892309570e+003;4.4919228516e+003;4.4878203125e+003;
8.1250000000e-001;4.4771796875e+003;4.5898715820e+003;4.5600000000e+003;4.5369228516e+003;4.5865385742e+003;4.5606411133e+003;4.5615385742e+003;4.5694873047e+003;4.5680771484e+003;4.5769228516e+003;4.5693588867e+003;4.5646152344e+003;4.5698715820e+003;4.5623076172e+003;
8.2031250000e-001;4.4687177734e+003;4.5830771484e+003;4.5523076172e+003;4.5298715820e+003;4.5793588867e+003;4.5547436523e+003;4.5548715820e+003;4.5635898438e+003;4.5596152344e+003;4.5732050781e+003;4.5646152344e+003;4.5584614258e+003;4.5634614258e+003;4.5552563477e+003;
8.2812500000e-001;4.4694873047e+003;4.5875639648e+003;4.5565385742e+003;4.5321796875e+003;4.5775639648e+003;4.5530771484e+003;4.5575639648e+003;4.5684614258e+003;4.5674360352e+003;4.5835898438e+003;4.5782050781e+003;4.5653847656e+003;4.5748715820e+003;4.5669228516e+003;
8.3593750000e-001;4.4258974609e+003;4.5398715820e+003;4.5201284180e+003;4.4932050781e+003;4.5321796875e+003;4.5129487305e+003;4.5207690430e+003;4.5229487305e+003;4.5170512695e+003;4.5275639648e+003;4.5261538086e+003;4.5192309570e+003;4.5264101563e+003;4.5219228516e+003;
8.4375000000e-001;4.4582050781e+003;4.5724360352e+003;4.5516665039e+003;4.5244873047e+003;4.5626923828e+003;4.5420512695e+003;4.5517949219e+003;4.5534614258e+003;4.5469228516e+003;4.5589741211e+003;4.5575639648e+003;4.5519228516e+003;4.5565385742e+003;4.5519228516e+003;
8.5156250000e-001;4.4766665039e+003;4.5933334961e+003;4.5744873047e+003;4.5437177734e+003;4.5830771484e+003;4.5614101563e+003;4.5734614258e+003;4.5755126953e+003;4.5762822266e+003;4.5830771484e+003;4.5853847656e+003;4.5805126953e+003;4.5808974609e+003;4.5766665039e+003;
8.5937500000e-001;4.4929487305e+003;4.6119228516e+003;4.5915385742e+003;4.5601284180e+003;4.6028203125e+003;4.5765385742e+003;4.5915385742e+003;4.5928203125e+003;4.5929487305e+003;4.6007690430e+003;4.6032050781e+003;4.5956411133e+003;4.6002563477e+003;4.5953847656e+003;
8.6718750000e-001;4.5303847656e+003;4.6566665039e+003;4.6329487305e+003;4.6002563477e+003;4.6447436523e+003;4.6142309570e+003;4.6301284180e+003;4.6382050781e+003;4.6337177734e+003;4.6471796875e+003;4.6461538086e+003;4.6366665039e+003;4.6435898438e+003;4.6415385742e+003;
8.7500000000e-001;4.5003847656e+003;4.6288461914e+003;4.6076923828e+003;4.5752563477e+003;4.6165385742e+003;4.5915385742e+003;4.6029487305e+003;4.6134614258e+003;4.6079487305e+003;4.6193588867e+003;4.6184614258e+003;4.6125639648e+003;4.6144873047e+003;4.6164101563e+003;
8.8281250000e-001;4.4543588867e+003;4.5842309570e+003;4.5661538086e+003;4.5353847656e+003;4.5738461914e+003;4.5548715820e+003;4.5611538086e+003;4.5710258789e+003;4.5657690430e+003;4.5716665039e+003;4.5732050781e+003;4.5711538086e+003;4.5682050781e+003;4.5733334961e+003;
8.9062500000e-001;4.4300000000e+003;4.5626923828e+003;4.5437177734e+003;4.5176923828e+003;4.5585898438e+003;4.5384614258e+003;4.5420512695e+003;4.5523076172e+003;4.5476923828e+003;4.5478203125e+003;4.5512822266e+003;4.5498715820e+003;4.5482050781e+003;4.5508974609e+003;
8.9843750000e-001;4.4316665039e+003;4.5638461914e+003;4.5438461914e+003;4.5196152344e+003;4.5616665039e+003;4.5394873047e+003;4.5444873047e+003;4.5578203125e+003;4.5528203125e+003;4.5548715820e+003;4.5557690430e+003;4.5532050781e+003;4.5548715820e+003;4.5543588867e+003;
9.0625000000e-001;4.4101284180e+003;4.5391025391e+003;4.5210258789e+003;4.4976923828e+003;4.5379487305e+003;4.5179487305e+003;4.5242309570e+003;4.5382050781e+003;4.5332050781e+003;4.5371796875e+003;4.5357690430e+003;4.5333334961e+003;4.5365385742e+003;4.5348715820e+003;
9.1406250000e-001;4.3433334961e+003;4.4557690430e+003;4.4501284180e+003;4.4264101563e+003;4.4608974609e+003;4.4517949219e+003;4.4552563477e+003;4.4646152344e+003;4.4588461914e+003;4.4614101563e+003;4.4632050781e+003;4.4617949219e+003;4.4541025391e+003;4.4635898438e+003;
9.2187500000e-001;4.3021796875e+003;4.4114101563e+003;4.4046152344e+003;4.3867949219e+003;4.4161538086e+003;4.4100000000e+003;4.4128203125e+003;4.4219228516e+003;4.4132050781e+003;4.4160258789e+003;4.4193588867e+003;4.4180771484e+003;4.4111538086e+003;4.4184614258e+003;
9.2968750000e-001;4.2775639648e+003;4.3825639648e+003;4.3707690430e+003;4.3557690430e+003;4.3803847656e+003;4.3742309570e+003;4.3829487305e+003;4.3808974609e+003;4.3760258789e+003;4.3753847656e+003;4.3834614258e+003;4.3810258789e+003;4.3771796875e+003;4.3887177734e+003;
9.3750000000e-001;4.2423076172e+003;4.3437177734e+003;4.3343588867e+003;4.3164101563e+003;4.3376923828e+003;4.3364101563e+003;4.3416665039e+003;4.3382050781e+003;4.3348715820e+003;4.3335898438e+003;4.3408974609e+003;4.3414101563e+003;4.3348715820e+003;4.3543588867e+003;
9.4531250000e-001;4.2574360352e+003;4.3566665039e+003;4.3455126953e+003;4.3301284180e+003;4.3510258789e+003;4.3462822266e+003;4.3507690430e+003;4.3491025391e+003;4.3460258789e+003;4.3466665039e+003;4.3546152344e+003;4.3523076172e+003;4.3514101563e+003;4.3665385742e+003;
9.5312500000e-001;4.2424360352e+003;4.3332050781e+003;4.3233334961e+003;4.3164101563e+003;4.3253847656e+003;4.3235898438e+003;4.3280771484e+003;4.3320512695e+003;4.3314101563e+003;4.3328203125e+003;4.3352563477e+003;4.3324360352e+003;4.3338461914e+003;4.3464101563e+003;
9.6093750000e-001;4.2605126953e+003;4.3474360352e+003;4.3343588867e+003;4.3238461914e+003;4.3373076172e+003;4.3376923828e+003;4.3437177734e+003;4.3446152344e+003;4.3496152344e+003;4.3480771484e+003;4.3476923828e+003;4.3465385742e+003;4.3438461914e+003;4.3601284180e+003;
9.6875000000e-001;4.2553847656e+003;4.3396152344e+003;4.3283334961e+003;4.3170512695e+003;4.3317949219e+003;4.3337177734e+003;4.3346152344e+003;4.3376923828e+003;4.3442309570e+003;4.3417949219e+003;4.3429487305e+003;4.3414101563e+003;4.3387177734e+003;4.3535898438e+003;
9.7656250000e-001;4.2135898438e+003;4.2910258789e+003;4.2807690430e+003;4.2762822266e+003;4.2902563477e+003;4.2975639648e+003;4.2956411133e+003;4.2943588867e+003;4.2958974609e+003;4.2897436523e+003;4.2958974609e+003;4.2867949219e+003;4.2929487305e+003;4.3006411133e+003;
9.8437500000e-001;4.2229487305e+003;4.3003847656e+003;4.2888461914e+003;4.2848715820e+003;4.2992309570e+003;4.3064101563e+003;4.3064101563e+003;4.3070512695e+003;4.3051284180e+003;4.3003847656e+003;4.3055126953e+003;4.2939741211e+003;4.3003847656e+003;4.3076923828e+003;
9.9218750000e-001;4.1932050781e+003;4.2660258789e+003;4.2588461914e+003;4.2542309570e+003;4.2644873047e+003;4.2771796875e+003;4.2726923828e+003;4.2743588867e+003;4.2715385742e+003;4.2657690430e+003;4.2724360352e+003;4.2629487305e+003;4.2630771484e+003;4.2724360352e+003;
1.0000000000e+000;4.1866665039e+003;4.2541025391e+003;4.2493588867e+003;4.2444873047e+003;4.2542309570e+003;4.2671796875e+003;4.2596152344e+003;4.2579487305e+003;4.2591025391e+003;4.2506411133e+003;4.2594873047e+003;4.2517949219e+003;4.2516665039e+003;4.2608974609e+003;
1.0078125000e+000;4.2098715820e+003;4.2720512695e+003;4.2680771484e+003;4.2616665039e+003;4.2738461914e+003;4.2833334961e+003;4.2747436523e+003;4.2715385742e+003;4.2775639648e+003;4.2675639648e+003;4.2762822266e+003;4.2688461914e+003;4.2712822266e+003;4.2797436523e+003;
1.0156250000e+000;4.2474360352e+003;4.3044873047e+003;4.3030771484e+003;4.2896152344e+003;4.3061538086e+003;4.3114101563e+003;4.3042309570e+003;4.3070512695e+003;4.3155126953e+003;4.3084614258e+003;4.3098715820e+003;4.3017949219e+003;4.3073076172e+003;4.3155126953e+003;
1.0234375000e+000;4.2260258789e+003;4.2820512695e+003;4.2830771484e+003;4.2674360352e+003;4.2826923828e+003;4.2900000000e+003;4.2841025391e+003;4.2867949219e+003;4.2920512695e+003;4.2875639648e+003;4.2874360352e+003;4.2800000000e+003;4.2841025391e+003;4.2923076172e+003;
1.0312500000e+000;4.2052563477e+003;4.2602563477e+003;4.2628203125e+003;4.2466665039e+003;4.2601284180e+003;4.2687177734e+003;4.2637177734e+003;4.2623076172e+003;4.2643588867e+003;4.2623076172e+003;4.2635898438e+003;4.2566665039e+003;4.2598715820e+003;4.2665385742e+003;
1.0390625000e+000;4.2352563477e+003;4.2797436523e+003;4.2889741211e+003;4.2751284180e+003;4.2808974609e+003;4.2855126953e+003;4.2750000000e+003;4.2769228516e+003;4.2767949219e+003;4.2762822266e+003;4.2866665039e+003;4.2817949219e+003;4.2826923828e+003;4.2858974609e+003;
1.0468750000e+000;4.2606411133e+003;4.3075639648e+003;4.3114101563e+003;4.2978203125e+003;4.3065385742e+003;4.3097436523e+003;4.3025639648e+003;4.3032050781e+003;4.3029487305e+003;4.3021796875e+003;4.3138461914e+003;4.3069228516e+003;4.3096152344e+003;4.3119228516e+003;
1.0546875000e+000;4.2339741211e+003;4.2862822266e+003;4.2843588867e+003;4.2725639648e+003;4.2843588867e+003;4.2987177734e+003;4.2961538086e+003;4.2985898438e+003;4.2908974609e+003;4.2905126953e+003;4.2930771484e+003;4.2898715820e+003;4.2867949219e+003;4.2920512695e+003;
1.0625000000e+000;4.3501284180e+003;4.4028203125e+003;4.3961538086e+003;4.3837177734e+003;4.4056411133e+003;4.4132050781e+003;4.4116665039e+003;4.4124360352e+003;4.3952563477e+003;4.3937177734e+003;4.4015385742e+003;4.3952563477e+003;4.3989741211e+003;4.3982050781e+003;
1.0703125000e+000;4.4152563477e+003;4.4738461914e+003;4.4626923828e+003;4.4473076172e+003;4.4742309570e+003;4.4762822266e+003;4.4733334961e+003;4.4773076172e+003;4.4617949219e+003;4.4651284180e+003;4.4701284180e+003;4.4614101563e+003;4.4691025391e+003;4.4664101563e+003;
1.0781250000e+000;4.4592309570e+003;4.5288461914e+003;4.5141025391e+003;4.4914101563e+003;4.5255126953e+003;4.5238461914e+003;4.5202563477e+003;4.5216665039e+003;4.5102563477e+003;4.5229487305e+003;4.5170512695e+003;4.5132050781e+003;4.5193588867e+003;4.5212822266e+003;
1.0859375000e+000;4.4517949219e+003;4.5241025391e+003;4.5103847656e+003;4.4882050781e+003;4.5194873047e+003;4.5146152344e+003;4.5085898438e+003;4.5169228516e+003;4.5042309570e+003;4.5191025391e+003;4.5182050781e+003;4.5128203125e+003;4.5184614258e+003;4.5182050781e+003;
1.0937500000e+000;4.4026923828e+003;4.4742309570e+003;4.4628203125e+003;4.4437177734e+003;4.4702563477e+003;4.4701284180e+003;4.4615385742e+003;4.4665385742e+003;4.4542309570e+003;4.4674360352e+003;4.4701284180e+003;4.4647436523e+003;4.4698715820e+003;4.4715385742e+003;
1.1015625000e+000;4.3708974609e+003;4.4417949219e+003;4.4326923828e+003;4.4148715820e+003;4.4394873047e+003;4.4428203125e+003;4.4329487305e+003;4.4324360352e+003;4.4214101563e+003;4.4337177734e+003;4.4374360352e+003;4.4330771484e+003;4.4378203125e+003;4.4426923828e+003;
1.1093750000e+000;4.3562822266e+003;4.4262822266e+003;4.4215385742e+003;4.4006411133e+003;4.4255126953e+003;4.4326923828e+003;4.4219228516e+003;4.4166665039e+003;4.4088461914e+003;4.4212822266e+003;4.4206411133e+003;4.4205126953e+003;4.4223076172e+003;4.4302563477e+003;
1.1171875000e+000;4.3157690430e+003;4.3800000000e+003;4.3735898438e+003;4.3580771484e+003;4.3778203125e+003;4.3852563477e+003;4.3755126953e+003;4.3662822266e+003;4.3589741211e+003;4.3697436523e+003;4.3724360352e+003;4.3715385742e+003;4.3765385742e+003;4.3728203125e+003;
1.1250000000e+000;4.3333334961e+003;4.3980771484e+003;4.3884614258e+003;4.3776923828e+003;4.3962822266e+003;4.4014101563e+003;4.3928203125e+003;4.3834614258e+003;4.3758974609e+003;4.3884614258e+003;4.3900000000e+003;4.3870512695e+003;4.3957690430e+003;4.3901284180e+003;
1.1328125000e+000;4.3408974609e+003;4.4070512695e+003;4.3960258789e+003;4.3896152344e+003;4.4056411133e+003;4.4119228516e+003;4.4032050781e+003;4.3951284180e+003;4.3870512695e+003;4.4006411133e+003;4.3993588867e+003;4.3960258789e+003;4.4055126953e+003;4.4016665039e+003;
1.1406250000e+000;4.2887177734e+003;4.3530771484e+003;4.3453847656e+003;4.3426923828e+003;4.3528203125e+003;4.3669228516e+003;4.3567949219e+003;4.3496152344e+003;4.3393588867e+003;4.3484614258e+003;4.3461538086e+003;4.3458974609e+003;4.3503847656e+003;4.3526923828e+003;
1.1484375000e+000;4.2717949219e+003;4.3321796875e+003;4.3265385742e+003;4.3216665039e+003;4.3329487305e+003;4.3467949219e+003;4.3378203125e+003;4.3317949219e+003;4.3205126953e+003;4.3262822266e+003;4.3265385742e+003;4.3264101563e+003;4.3301284180e+003;4.3321796875e+003;
1.1562500000e+000;4.2747436523e+003;4.3311538086e+003;4.3266665039e+003;4.3182050781e+003;4.3329487305e+003;4.3437177734e+003;4.3364101563e+003;4.3346152344e+003;4.3223076172e+003;4.3262822266e+003;4.3284614258e+003;4.3270512695e+003;4.3320512695e+003;4.3319228516e+003;
1.1640625000e+000;4.1844873047e+003;4.2348715820e+003;4.2365385742e+003;4.2292309570e+003;4.2416665039e+003;4.2528203125e+003;4.2423076172e+003;4.2470512695e+003;4.2344873047e+003;4.2352563477e+003;4.2405126953e+003;4.2365385742e+003;4.2360258789e+003;4.2398715820e+003;
1.1718750000e+000;4.1820512695e+003;4.2297436523e+003;4.2314101563e+003;4.2228203125e+003;4.2339741211e+003;4.2451284180e+003;4.2339741211e+003;4.2397436523e+003;4.2279487305e+003;4.2279487305e+003;4.2356411133e+003;4.2323076172e+003;4.2280771484e+003;4.2344873047e+003;
1.1796875000e+000;4.1760258789e+003;4.2110258789e+003;4.2173076172e+003;4.2028203125e+003;4.2080771484e+003;4.2265385742e+003;4.2134614258e+003;4.2101284180e+003;4.2039741211e+003;4.2030771484e+003;4.2162822266e+003;4.2167949219e+003;4.2098715820e+003;4.2183334961e+003;
1.1875000000e+000;4.1834614258e+003;4.2150000000e+003;4.2226923828e+003;4.2100000000e+003;4.2115385742e+003;4.2282050781e+003;4.2158974609e+003;4.2139741211e+003;4.2125639648e+003;4.2161538086e+003;4.2238461914e+003;4.2239741211e+003;4.2171796875e+003;4.2246152344e+003;
1.1953125000e+000;4.1134614258e+003;4.1412822266e+003;4.1516665039e+003;4.1437177734e+003;4.1406411133e+003;4.1639741211e+003;4.1503847656e+003;4.1450000000e+003;4.1419228516e+003;4.1443588867e+003;4.1521796875e+003;4.1532050781e+003;4.1443588867e+003;4.1535898438e+003;
1.2031250000e+000;4.0512819824e+003;4.0703845215e+003;4.0794870605e+003;4.0824357910e+003;4.0744870605e+003;4.1065385742e+003;4.0917949219e+003;4.0778205566e+003;4.0689743652e+003;4.0652563477e+003;4.0814101563e+003;4.0780769043e+003;4.0702563477e+003;4.0785898438e+003;
1.2109375000e+000;4.0074357910e+003;4.0161538086e+003;4.0288461914e+003;4.0308974609e+003;4.0187180176e+003;4.0535898438e+003;4.0364101563e+003;4.0192307129e+003;4.0176923828e+003;4.0055129395e+003;4.0238461914e+003;4.0246154785e+003;4.0141025391e+003;4.0284614258e+003;
1.2187500000e+000;4.0111538086e+003;4.0170512695e+003;4.0264101563e+003;4.0292307129e+003;4.0180769043e+003;4.0505129395e+003;4.0350000000e+003;4.0164101563e+003;4.0169230957e+003;4.0035898438e+003;4.0214101563e+003;4.0225642090e+003;4.0155129395e+003;4.0301281738e+003;
1.2265625000e+000;4.0217949219e+003;4.0258974609e+003;4.0311538086e+003;4.0360256348e+003;4.0247436523e+003;4.0555129395e+003;4.0407692871e+003;4.0243588867e+003;4.0234614258e+003;4.0115385742e+003;4.0285898438e+003;4.0305129395e+003;4.0247436523e+003;4.0394870605e+003;
1.2343750000e+000;4.0003845215e+003;4.0003845215e+003;4.0058974609e+003;4.0146154785e+003;3.9984614258e+003;4.0338461914e+003;4.0158974609e+003;4.0043588867e+003;3.9952563477e+003;3.9866667480e+003;4.0053845215e+003;4.0092307129e+003;3.9985898438e+003;4.0132050781e+003;
1.2421875000e+000;4.0212819824e+003;4.0121794434e+003;4.0266667480e+003;4.0255129395e+003;4.0201281738e+003;4.0521794434e+003;4.0339743652e+003;4.0276923828e+003;4.0252563477e+003;4.0165385742e+003;4.0285898438e+003;4.0274357910e+003;4.0208974609e+003;4.0289743652e+003;
1.2500000000e+000;4.0088461914e+003;3.9965385742e+003;4.0146154785e+003;4.0107692871e+003;4.0067949219e+003;4.0407692871e+003;4.0219230957e+003;4.0223076172e+003;4.0219230957e+003;4.0135898438e+003;4.0193588867e+003;4.0202563477e+003;4.0125642090e+003;4.0212819824e+003;
1.2578125000e+000;3.9712819824e+003;3.9555129395e+003;3.9760256348e+003;3.9735898438e+003;3.9669230957e+003;4.0064101563e+003;3.9857692871e+003;3.9907692871e+003;3.9902563477e+003;3.9803845215e+003;3.9832050781e+003;3.9869230957e+003;3.9775642090e+003;3.9874357910e+003;
1.2656250000e+000;3.9285898438e+003;3.9057692871e+003;3.9234614258e+003;3.9298718262e+003;3.9166667480e+003;3.9639743652e+003;3.9380769043e+003;3.9428205566e+003;3.9437180176e+003;3.9284614258e+003;3.9353845215e+003;3.9391025391e+003;3.9307692871e+003;3.9402563477e+003;
1.2734375000e+000;3.9278205566e+003;3.9010256348e+003;3.9170512695e+003;3.9262819824e+003;3.9106411133e+003;3.9600000000e+003;3.9296154785e+003;3.9339743652e+003;3.9383332520e+003;3.9221794434e+003;3.9310256348e+003;3.9335898438e+003;3.9255129395e+003;3.9350000000e+003;
1.2812500000e+000;3.9058974609e+003;3.8748718262e+003;3.8919230957e+003;3.9024357910e+003;3.8828205566e+003;3.9362819824e+003;3.9002563477e+003;3.9048718262e+003;3.9120512695e+003;3.8957692871e+003;3.9052563477e+003;3.9093588867e+003;3.8991025391e+003;3.9107692871e+003;
1.2890625000e+000;3.7337180176e+003;3.6811538086e+003;3.6976923828e+003;3.7217949219e+003;3.6850000000e+003;3.7462819824e+003;3.7094870605e+003;3.7012819824e+003;3.7083332520e+003;3.6837180176e+003;3.7044870605e+003;3.7211538086e+003;3.7041025391e+003;3.7198718262e+003;
1.2968750000e+000;3.6832050781e+003;3.6208974609e+003;3.6432050781e+003;3.6679487305e+003;3.6246154785e+003;3.6951281738e+003;3.6556411133e+003;3.6439743652e+003;3.6491025391e+003;3.6205129395e+003;3.6451281738e+003;3.6641025391e+003;3.6416667480e+003;3.6606411133e+003;
1.3046875000e+000;3.6420512695e+003;3.5610256348e+003;3.5919230957e+003;3.6205129395e+003;3.5682050781e+003;3.6483332520e+003;3.6092307129e+003;3.5893588867e+003;3.5847436523e+003;3.5561538086e+003;3.5839743652e+003;3.6075642090e+003;3.5808974609e+003;3.6080769043e+003;
1.3125000000e+000;3.6900000000e+003;3.6034614258e+003;3.6296154785e+003;3.6603845215e+003;3.6124357910e+003;3.6860256348e+003;3.6555129395e+003;3.6270512695e+003;3.6220512695e+003;3.5947436523e+003;3.6208974609e+003;3.6400000000e+003;3.6198718262e+003;3.6415385742e+003;
1.3203125000e+000;3.7484614258e+003;3.6610256348e+003;3.6834614258e+003;3.7123076172e+003;3.6670512695e+003;3.7328205566e+003;3.7051281738e+003;3.6776923828e+003;3.6723076172e+003;3.6474357910e+003;3.6757692871e+003;3.6911538086e+003;3.6719230957e+003;3.6925642090e+003;
1.3281250000e+000;3.8167949219e+003;3.7291025391e+003;3.7525642090e+003;3.7780769043e+003;3.7293588867e+003;3.7773076172e+003;3.7487180176e+003;3.7469230957e+003;3.7370512695e+003;3.7230769043e+003;3.7417949219e+003;3.7619230957e+003;3.7398718262e+003;3.7641025391e+003;
1.3359375000e+000;3.8555129395e+003;3.7729487305e+003;3.7820512695e+003;3.8157692871e+003;3.7717949219e+003;3.8151281738e+003;3.7892307129e+003;3.7858974609e+003;3.7802563477e+003;3.7642307129e+003;3.7810256348e+003;3.7933332520e+003;3.7819230957e+003;3.7970512695e+003;
1.3437500000e+000;3.9106411133e+003;3.8314101563e+003;3.8365385742e+003;3.8675642090e+003;3.8271794434e+003;3.8680769043e+003;3.8425642090e+003;3.8419230957e+003;3.8405129395e+003;3.8253845215e+003;3.8402563477e+003;3.8484614258e+003;3.8387180176e+003;3.8521794434e+003;
1.3515625000e+000;3.9480769043e+003;3.8706411133e+003;3.8756411133e+003;3.9026923828e+003;3.8647436523e+003;3.9042307129e+003;3.8788461914e+003;3.8793588867e+003;3.8816667480e+003;3.8673076172e+003;3.8793588867e+003;3.8870512695e+003;3.8764101563e+003;3.8898718262e+003;
1.3593750000e+000;4.0096154785e+003;3.9320512695e+003;3.9396154785e+003;3.9584614258e+003;3.9315385742e+003;3.9647436523e+003;3.9421794434e+003;3.9365385742e+003;3.9408974609e+003;3.9294870605e+003;3.9366667480e+003;3.9457692871e+003;3.9351281738e+003;3.9461538086e+003;
1.3671875000e+000;4.0362819824e+003;3.9592307129e+003;3.9667949219e+003;3.9823076172e+003;3.9632050781e+003;3.9943588867e+003;3.9715385742e+003;3.9651281738e+003;3.9683332520e+003;3.9594870605e+003;3.9639743652e+003;3.9723076172e+003;3.9624357910e+003;3.9715385742e+003;
1.3750000000e+000;3.9846154785e+003;3.9080769043e+003;3.9156411133e+003;3.9314101563e+003;3.9167949219e+003;3.9607692871e+003;3.9303845215e+003;3.9233332520e+003;3.9264101563e+003;3.9178205566e+003;3.9191025391e+003;3.9271794434e+003;3.9152563477e+003;3.9273076172e+003;
1.3828125000e+000;3.9366667480e+003;3.8587180176e+003;3.8661538086e+003;3.8838461914e+003;3.8676923828e+003;3.9200000000e+003;3.8866667480e+003;3.8746154785e+003;3.8780769043e+003;3.8678205566e+003;3.8698718262e+003;3.8794870605e+003;3.8665385742e+003;3.8819230957e+003;
1.3906250000e+000;3.9717949219e+003;3.8941025391e+003;3.9047436523e+003;3.9157692871e+003;3.9032050781e+003;3.9474357910e+003;3.9221794434e+003;3.9012819824e+003;3.8985898438e+003;3.8920512695e+003;3.8969230957e+003;3.9073076172e+003;3.8944870605e+003;3.9105129395e+003;
1.3984375000e+000;3.9841025391e+003;3.9065385742e+003;3.9210256348e+003;3.9288461914e+003;3.9171794434e+003;3.9574357910e+003;3.9348718262e+003;3.9144870605e+003;3.9097436523e+003;3.9033332520e+003;3.9083332520e+003;3.9189743652e+003;3.9043588867e+003;3.9191025391e+003;
1.4062500000e+000;3.9929487305e+003;3.9141025391e+003;3.9308974609e+003;3.9374357910e+003;3.9266667480e+003;3.9643588867e+003;3.9435898438e+003;3.9221794434e+003;3.9170512695e+003;3.9100000000e+003;3.9146154785e+003;3.9264101563e+003;3.9105129395e+003;3.9247436523e+003;
1.4140625000e+000;4.0206411133e+003;3.9403845215e+003;3.9557692871e+003;3.9617949219e+003;3.9542307129e+003;3.9887180176e+003;3.9689743652e+003;3.9473076172e+003;3.9433332520e+003;3.9365385742e+003;3.9398718262e+003;3.9528205566e+003;3.9373076172e+003;3.9514101563e+003;
1.4218750000e+000;4.0652563477e+003;3.9925642090e+003;4.0053845215e+003;4.0069230957e+003;4.0001281738e+003;4.0307692871e+003;4.0128205566e+003;4.0038461914e+003;3.9974357910e+003;3.9991025391e+003;4.0069230957e+003;4.0126923828e+003;4.0061538086e+003;4.0143588867e+003;
1.4296875000e+000;4.1243588867e+003;4.0621794434e+003;4.0783332520e+003;4.0714101563e+003;4.0610256348e+003;4.0750000000e+003;4.0603845215e+003;4.0673076172e+003;4.0655129395e+003;4.0702563477e+003;4.0802563477e+003;4.0891025391e+003;4.0712819824e+003;4.0803845215e+003;
1.4375000000e+000;4.1092309570e+003;4.0479487305e+003;4.0629487305e+003;4.0567949219e+003;4.0461538086e+003;4.0597436523e+003;4.0462819824e+003;4.0532050781e+003;4.0523076172e+003;4.0575642090e+003;4.0678205566e+003;4.0757692871e+003;4.0573076172e+003;4.0651281738e+003;
1.4453125000e+000;4.1216665039e+003;4.0630769043e+003;4.0747436523e+003;4.0689743652e+003;4.0623076172e+003;4.0744870605e+003;4.0633332520e+003;4.0646154785e+003;4.0711538086e+003;4.0710256348e+003;4.0819230957e+003;4.0844870605e+003;4.0750000000e+003;4.0769230957e+003;
1.4531250000e+000;4.0625642090e+003;4.0079487305e+003;4.0201281738e+003;4.0151281738e+003;4.0187180176e+003;4.0423076172e+003;4.0279487305e+003;4.0162819824e+003;4.0178205566e+003;4.0102563477e+003;4.0123076172e+003;4.0269230957e+003;4.0058974609e+003;4.0101281738e+003;
1.4609375000e+000;4.0711538086e+003;4.0166667480e+003;4.0241025391e+003;4.0228205566e+003;4.0302563477e+003;4.0538461914e+003;4.0402563477e+003;4.0253845215e+003;4.0225642090e+003;4.0160256348e+003;4.0193588867e+003;4.0297436523e+003;4.0134614258e+003;4.0135898438e+003;
1.4687500000e+000;4.1038461914e+003;4.0538461914e+003;4.0550000000e+003;4.0579487305e+003;4.0667949219e+003;4.0930769043e+003;4.0739743652e+003;4.0634614258e+003;4.0621794434e+003;4.0571794434e+003;4.0576923828e+003;4.0620512695e+003;4.0576923828e+003;4.0502563477e+003;
1.4765625000e+000;4.0989741211e+003;4.0530769043e+003;4.0534614258e+003;4.0562819824e+003;4.0641025391e+003;4.0916667480e+003;4.0697436523e+003;4.0606411133e+003;4.0630769043e+003;4.0573076172e+003;4.0565385742e+003;4.0623076172e+003;4.0591025391e+003;4.0507692871e+003;
1.4843750000e+000;4.1041025391e+003;4.0598718262e+003;4.0616667480e+003;4.0607692871e+003;4.0705129395e+003;4.0887180176e+003;4.0688461914e+003;4.0629487305e+003;4.0656411133e+003;4.0615385742e+003;4.0667949219e+003;4.0715385742e+003;4.0647436523e+003;4.0571794434e+003;
1.4921875000e+000;4.0844870605e+003;4.0348718262e+003;4.0416667480e+003;4.0415385742e+003;4.0474357910e+003;4.0679487305e+003;4.0469230957e+003;4.0428205566e+003;4.0423076172e+003;4.0391025391e+003;4.0453845215e+003;4.0503845215e+003;4.0424357910e+003;4.0352563477e+003;
1.5000000000e+000;4.0597436523e+003;4.0071794434e+003;4.0175642090e+003;4.0193588867e+003;4.0194870605e+003;4.0442307129e+003;4.0224357910e+003;4.0135898438e+003;4.0130769043e+003;4.0083332520e+003;4.0148718262e+003;4.0242307129e+003;4.0176923828e+003;4.0083332520e+003;
1.5078125000e+000;4.0883332520e+003;4.0406411133e+003;4.0479487305e+003;4.0466667480e+003;4.0489743652e+003;4.0692307129e+003;4.0498718262e+003;4.0398718262e+003;4.0432050781e+003;4.0384614258e+003;4.0444870605e+003;4.0556411133e+003;4.0489743652e+003;4.0384614258e+003;
1.5156250000e+000;4.0525642090e+003;4.0055129395e+003;4.0176923828e+003;4.0101281738e+003;4.0062819824e+003;4.0266667480e+003;4.0073076172e+003;4.0023076172e+003;4.0093588867e+003;4.0029487305e+003;4.0137180176e+003;4.0287180176e+003;4.0106411133e+003;4.0115385742e+003;
1.5234375000e+000;4.0258974609e+003;3.9734614258e+003;3.9878205566e+003;3.9842307129e+003;3.9764101563e+003;4.0012819824e+003;3.9805129395e+003;3.9698718262e+003;3.9744870605e+003;3.9676923828e+003;3.9812819824e+003;3.9965385742e+003;3.9805129395e+003;3.9837180176e+003;
1.5312500000e+000;4.0466667480e+003;3.9920512695e+003;4.0047436523e+003;4.0039743652e+003;3.9961538086e+003;4.0216667480e+003;4.0005129395e+003;3.9833332520e+003;3.9874357910e+003;3.9824357910e+003;3.9964101563e+003;4.0117949219e+003;4.0006411133e+003;4.0026923828e+003;
1.5390625000e+000;4.0958974609e+003;4.0424357910e+003;4.0524357910e+003;4.0508974609e+003;4.0457692871e+003;4.0691025391e+003;4.0470512695e+003;4.0266667480e+003;4.0332050781e+003;4.0308974609e+003;4.0428205566e+003;4.0597436523e+003;4.0512819824e+003;4.0514101563e+003;
1.5468750000e+000;4.0838461914e+003;4.0358974609e+003;4.0437180176e+003;4.0398718262e+003;4.0329487305e+003;4.0716667480e+003;4.0289743652e+003;4.0124357910e+003;4.0266667480e+003;4.0255129395e+003;4.0343588867e+003;4.0543588867e+003;4.0398718262e+003;4.0401281738e+003;
1.5546875000e+000;4.0391025391e+003;3.9984614258e+003;4.0061538086e+003;4.0067949219e+003;4.0062819824e+003;4.0688461914e+003;4.0165385742e+003;4.0034614258e+003;4.0042307129e+003;3.9978205566e+003;4.0042307129e+003;4.0216667480e+003;4.0129487305e+003;4.0123076172e+003;
1.5625000000e+000;4.0535898438e+003;4.0130769043e+003;4.0230769043e+003;4.0217949219e+003;4.0237180176e+003;4.0882050781e+003;4.0367949219e+003;4.0256411133e+003;4.0234614258e+003;4.0158974609e+003;4.0219230957e+003;4.0391025391e+003;4.0296154785e+003;4.0301281738e+003;
1.5703125000e+000;4.0652563477e+003;4.0258974609e+003;4.0366667480e+003;4.0338461914e+003;4.0362819824e+003;4.1044873047e+003;4.0502563477e+003;4.0507692871e+003;4.0451281738e+003;4.0402563477e+003;4.0406411133e+003;4.0557692871e+003;4.0439743652e+003;4.0429487305e+003;
1.5781250000e+000;4.0307692871e+003;3.9934614258e+003;3.9958974609e+003;4.0026923828e+003;4.0002563477e+003;4.0602563477e+003;4.0146154785e+003;4.0079487305e+003;4.0007692871e+003;3.9875642090e+003;3.9980769043e+003;4.0102563477e+003;4.0039743652e+003;4.0025642090e+003;
1.5859375000e+000;4.0373076172e+003;3.9965385742e+003;4.0019230957e+003;4.0085898438e+003;4.0056411133e+003;4.0655129395e+003;4.0215385742e+003;4.0152563477e+003;4.0080769043e+003;3.9920512695e+003;4.0041025391e+003;4.0171794434e+003;4.0111538086e+003;4.0123076172e+003;
1.5937500000e+000;4.0207692871e+003;3.9707692871e+003;3.9893588867e+003;3.9888461914e+003;3.9829487305e+003;4.0669230957e+003;4.0064101563e+003;3.9943588867e+003;3.9844870605e+003;3.9679487305e+003;3.9807692871e+003;4.0010256348e+003;3.9905129395e+003;3.9942307129e+003;
1.6015625000e+000;4.0487180176e+003;3.9976923828e+003;4.0200000000e+003;4.0128205566e+003;4.0083332520e+003;4.1065385742e+003;4.0308974609e+003;4.0150000000e+003;4.0052563477e+003;3.9920512695e+003;4.0043588867e+003;4.0274357910e+003;4.0156411133e+003;4.0182050781e+003;
1.6093750000e+000;4.1019228516e+003;4.0528205566e+003;4.0752563477e+003;4.0632050781e+003;4.0567949219e+003;4.1752563477e+003;4.0678205566e+003;4.0507692871e+003;4.0524357910e+003;4.0487180176e+003;4.0570512695e+003;4.0812819824e+003;4.0675642090e+003;4.0708974609e+003;
1.6171875000e+000;4.0780769043e+003;4.0279487305e+003;4.0476923828e+003;4.0416667480e+003;4.0311538086e+003;4.1474360352e+003;4.0411538086e+003;4.0207692871e+003;4.0256411133e+003;4.0228205566e+003;4.0334614258e+003;4.0562819824e+003;4.0432050781e+003;4.0473076172e+003;
1.6250000000e+000;4.1310258789e+003;4.0858974609e+003;4.0947436523e+003;4.0942307129e+003;4.0841025391e+003;4.1835898438e+003;4.0841025391e+003;4.0602563477e+003;4.0697436523e+003;4.0757692871e+003;4.0861538086e+003;4.1076923828e+003;4.0997436523e+003;4.1017949219e+003;
1.6328125000e+000;4.1825639648e+003;4.1424360352e+003;4.1480771484e+003;4.1444873047e+003;4.1367949219e+003;4.2300000000e+003;4.1294873047e+003;4.1073076172e+003;4.1201284180e+003;4.1330771484e+003;4.1388461914e+003;4.1612822266e+003;4.1550000000e+003;4.1564101563e+003;
1.6406250000e+000;4.2484614258e+003;4.2148715820e+003;4.2196152344e+003;4.2069228516e+003;4.2082050781e+003;4.2900000000e+003;4.1875639648e+003;4.1714101563e+003;4.1935898438e+003;4.2124360352e+003;4.2110258789e+003;4.2267949219e+003;4.2258974609e+003;4.2238461914e+003;
1.6484375000e+000;4.2757690430e+003;4.2451284180e+003;4.2464101563e+003;4.2339741211e+003;4.2396152344e+003;4.3166665039e+003;4.2182050781e+003;4.2093588867e+003;4.2297436523e+003;4.2473076172e+003;4.2447436523e+003;4.2561538086e+003;4.2565385742e+003;4.2525639648e+003;
1.6562500000e+000;4.2869228516e+003;4.2610258789e+003;4.2592309570e+003;4.2475639648e+003;4.2557690430e+003;4.3339741211e+003;4.2379487305e+003;4.2388461914e+003;4.2534614258e+003;4.2685898438e+003;4.2637177734e+003;4.2734614258e+003;4.2723076172e+003;4.2687177734e+003;
1.6640625000e+000;4.2689741211e+003;4.2482050781e+003;4.2456411133e+003;4.2347436523e+003;4.2432050781e+003;4.3287177734e+003;4.2329487305e+003;4.2412822266e+003;4.2475639648e+003;4.2579487305e+003;4.2514101563e+003;4.2623076172e+003;4.2584614258e+003;4.2569228516e+003;
1.6718750000e+000;4.2066665039e+003;4.1944873047e+003;4.1943588867e+003;4.1855126953e+003;4.1958974609e+003;4.2955126953e+003;4.1993588867e+003;4.2093588867e+003;4.2061538086e+003;4.1974360352e+003;4.1878203125e+003;4.1987177734e+003;4.2001284180e+003;4.1967949219e+003;
1.6796875000e+000;4.1642309570e+003;4.1510258789e+003;4.1537177734e+003;4.1469228516e+003;4.1550000000e+003;4.2615385742e+003;4.1607690430e+003;4.1708974609e+003;4.1688461914e+003;4.1593588867e+003;4.1489741211e+003;4.1602563477e+003;4.1583334961e+003;4.1550000000e+003;
1.6875000000e+000;4.1226923828e+003;4.1007690430e+003;4.1079487305e+003;4.1006411133e+003;4.1125639648e+003;4.2412822266e+003;4.1202563477e+003;4.1226923828e+003;4.1193588867e+003;4.1084614258e+003;4.1062822266e+003;4.1129487305e+003;4.1098715820e+003;4.1093588867e+003;
1.6953125000e+000;4.1050000000e+003;4.0798718262e+003;4.0891025391e+003;4.0850000000e+003;4.0860256348e+003;4.2242309570e+003;4.0952563477e+003;4.0947436523e+003;4.0869230957e+003;4.0823076172e+003;4.0816667480e+003;4.0928205566e+003;4.0848718262e+003;4.0905129395e+003;
1.7031250000e+000;4.1467949219e+003;4.1230771484e+003;4.1378203125e+003;4.1310258789e+003;4.1261538086e+003;4.2676923828e+003;4.1321796875e+003;4.1178203125e+003;4.1067949219e+003;4.1130771484e+003;4.1247436523e+003;4.1383334961e+003;4.1333334961e+003;4.1403847656e+003;
1.7109375000e+000;4.1311538086e+003;4.1080771484e+003;4.1224360352e+003;4.1175639648e+003;4.1114101563e+003;4.2553847656e+003;4.1157690430e+003;4.1006411133e+003;4.0885898438e+003;4.0975639648e+003;4.1102563477e+003;4.1257690430e+003;4.1173076172e+003;4.1261538086e+003;
1.7187500000e+000;4.1567949219e+003;4.1380771484e+003;4.1447436523e+003;4.1425639648e+003;4.1364101563e+003;4.2734614258e+003;4.1355126953e+003;4.1187177734e+003;4.1091025391e+003;4.1247436523e+003;4.1405126953e+003;4.1528203125e+003;4.1471796875e+003;4.1519228516e+003;
1.7265625000e+000;4.1858974609e+003;4.1687177734e+003;4.1750000000e+003;4.1703847656e+003;4.1625639648e+003;4.2947436523e+003;4.1588461914e+003;4.1456411133e+003;4.1387177734e+003;4.1576923828e+003;4.1735898438e+003;4.1834614258e+003;4.1816665039e+003;4.1835898438e+003;
1.7343750000e+000;4.2000000000e+003;4.1776923828e+003;4.1917949219e+003;4.1835898438e+003;4.1703847656e+003;4.2961538086e+003;4.1620512695e+003;4.1548715820e+003;4.1594873047e+003;4.1765385742e+003;4.1850000000e+003;4.1983334961e+003;4.1967949219e+003;4.1993588867e+003;
1.7421875000e+000;4.2306411133e+003;4.2096152344e+003;4.2184614258e+003;4.2119228516e+003;4.2039741211e+003;4.3244873047e+003;4.1917949219e+003;4.1870512695e+003;4.1970512695e+003;4.2115385742e+003;4.2144873047e+003;4.2276923828e+003;4.2252563477e+003;4.2271796875e+003;
1.7500000000e+000;4.2612822266e+003;4.2473076172e+003;4.2470512695e+003;4.2430771484e+003;4.2426923828e+003;4.3607690430e+003;4.2307690430e+003;4.2374360352e+003;4.2501284180e+003;4.2597436523e+003;4.2523076172e+003;4.2608974609e+003;4.2606411133e+003;4.2587177734e+003;
1.7578125000e+000;4.2458974609e+003;4.2346152344e+003;4.2343588867e+003;4.2320512695e+003;4.2316665039e+003;4.3535898438e+003;4.2256411133e+003;4.2347436523e+003;4.2428203125e+003;4.2494873047e+003;4.2408974609e+003;4.2474360352e+003;4.2496152344e+003;4.2462822266e+003;
1.7656250000e+000;4.2789741211e+003;4.2785898438e+003;4.2755126953e+003;4.2771796875e+003;4.2853847656e+003;4.4074360352e+003;4.2853847656e+003;4.2929487305e+003;4.2903847656e+003;4.2967949219e+003;4.2842309570e+003;4.2889741211e+003;4.2924360352e+003;4.2885898438e+003;
1.7734375000e+000;4.2646152344e+003;4.2670512695e+003;4.2630771484e+003;4.2658974609e+003;4.2748715820e+003;4.4001284180e+003;4.2753847656e+003;4.2819228516e+003;4.2814101563e+003;4.2885898438e+003;4.2726923828e+003;4.2769228516e+003;4.2782050781e+003;4.2755126953e+003;
1.7812500000e+000;4.2256411133e+003;4.2288461914e+003;4.2243588867e+003;4.2289741211e+003;4.2361538086e+003;4.3676923828e+003;4.2393588867e+003;4.2419228516e+003;4.2441025391e+003;4.2502563477e+003;4.2328203125e+003;4.2360258789e+003;4.2364101563e+003;4.2348715820e+003;
1.7890625000e+000;4.1985898438e+003;4.2021796875e+003;4.1958974609e+003;4.2015385742e+003;4.2075639648e+003;4.3435898438e+003;4.2135898438e+003;4.2108974609e+003;4.2143588867e+003;4.2189741211e+003;4.2021796875e+003;4.2037177734e+003;4.2058974609e+003;4.2041025391e+003;
1.7968750000e+000;4.1901284180e+003;4.1947436523e+003;4.1920512695e+003;4.1953847656e+003;4.2026923828e+003;4.3314101563e+003;4.2110258789e+003;4.2028203125e+003;4.1961538086e+003;4.2091025391e+003;4.1953847656e+003;4.1983334961e+003;4.2052563477e+003;4.1989741211e+003;
1.8046875000e+000;4.1578203125e+003;4.1570512695e+003;4.1601284180e+003;4.1648715820e+003;4.1675639648e+003;4.2985898438e+003;4.1791025391e+003;4.1648715820e+003;4.1556411133e+003;4.1701284180e+003;4.1612822266e+003;4.1648715820e+003;4.1703847656e+003;4.1657690430e+003;
1.8125000000e+000;4.1608974609e+003;4.1505126953e+003;4.1628203125e+003;4.1642309570e+003;4.1593588867e+003;4.2880771484e+003;4.1720512695e+003;4.1534614258e+003;4.1405126953e+003;4.1588461914e+003;4.1579487305e+003;4.1660258789e+003;4.1664101563e+003;4.1666665039e+003;
1.8203125000e+000;4.1376923828e+003;4.1342309570e+003;4.1403847656e+003;4.1496152344e+003;4.1397436523e+003;4.2606411133e+003;4.1464101563e+003;4.1253847656e+003;4.1167949219e+003;4.1315385742e+003;4.1315385742e+003;4.1471796875e+003;4.1455126953e+003;4.1451284180e+003;
1.8281250000e+000;4.1610258789e+003;4.1564101563e+003;4.1591025391e+003;4.1706411133e+003;4.1614101563e+003;4.2762822266e+003;4.1632050781e+003;4.1457690430e+003;4.1393588867e+003;4.1543588867e+003;4.1546152344e+003;4.1671796875e+003;4.1665385742e+003;4.1666665039e+003;
1.8359375000e+000;4.1305126953e+003;4.1174360352e+003;4.1239741211e+003;4.1339741211e+003;4.1242309570e+003;4.2332050781e+003;4.1210258789e+003;4.1180771484e+003;4.1135898438e+003;4.1264101563e+003;4.1278203125e+003;4.1374360352e+003;4.1346152344e+003;4.1382050781e+003;
1.8437500000e+000;4.1856411133e+003;4.1761538086e+003;4.1803847656e+003;4.1902563477e+003;4.1814101563e+003;4.2852563477e+003;4.1824360352e+003;4.1879487305e+003;4.1880771484e+003;4.1964101563e+003;4.1907690430e+003;4.1983334961e+003;4.2000000000e+003;4.1953847656e+003;
1.8515625000e+000;4.1912822266e+003;4.1821796875e+003;4.1876923828e+003;4.1971796875e+003;4.1870512695e+003;4.2923076172e+003;4.1916665039e+003;4.1991025391e+003;4.2007690430e+003;4.2056411133e+003;4.2010258789e+003;4.2047436523e+003;4.2052563477e+003;4.1997436523e+003;
1.8593750000e+000;4.1935898438e+003;4.1858974609e+003;4.1916665039e+003;4.2003847656e+003;4.1917949219e+003;4.2966665039e+003;4.1984614258e+003;4.2052563477e+003;4.2079487305e+003;4.2101284180e+003;4.2076923828e+003;4.2066665039e+003;4.2069228516e+003;4.2006411133e+003;
1.8671875000e+000;4.2217949219e+003;4.2215385742e+003;4.2237177734e+003;4.2289741211e+003;4.2317949219e+003;4.3307690430e+003;4.2357690430e+003;4.2434614258e+003;4.2444873047e+003;4.2500000000e+003;4.2438461914e+003;4.2385898438e+003;4.2426923828e+003;4.2323076172e+003;
1.8750000000e+000;4.1924360352e+003;4.1892309570e+003;4.1970512695e+003;4.2041025391e+003;4.2070512695e+003;4.3188461914e+003;4.2224360352e+003;4.2183334961e+003;4.2148715820e+003;4.2193588867e+003;4.2115385742e+003;4.2125639648e+003;4.2132050781e+003;4.2092309570e+003;
1.8828125000e+000;4.2206411133e+003;4.2176923828e+003;4.2237177734e+003;4.2325639648e+003;4.2369228516e+003;4.3487177734e+003;4.2535898438e+003;4.2419228516e+003;4.2398715820e+003;4.2424360352e+003;4.2375639648e+003;4.2365385742e+003;4.2373076172e+003;4.2356411133e+003;
1.8906250000e+000;4.2453847656e+003;4.2585898438e+003;4.2608974609e+003;4.2706411133e+003;4.2824360352e+003;4.3982050781e+003;4.2924360352e+003;4.2830771484e+003;4.2766665039e+003;4.2874360352e+003;4.2764101563e+003;4.2750000000e+003;4.2694873047e+003;4.2685898438e+003;
1.8984375000e+000;4.2010258789e+003;4.2152563477e+003;4.2210258789e+003;4.2316665039e+003;4.2423076172e+003;4.3644873047e+003;4.2533334961e+003;4.2402563477e+003;4.2321796875e+003;4.2434614258e+003;4.2325639648e+003;4.2335898438e+003;4.2260258789e+003;4.2251284180e+003;
1.9062500000e+000;4.1851284180e+003;4.1979487305e+003;4.2060258789e+003;4.2169228516e+003;4.2264101563e+003;4.3521796875e+003;4.2367949219e+003;4.2184614258e+003;4.2111538086e+003;4.2211538086e+003;4.2137177734e+003;4.2147436523e+003;4.2088461914e+003;4.2074360352e+003;
1.9140625000e+000;4.2047436523e+003;4.2160258789e+003;4.2237177734e+003;4.2344873047e+003;4.2425639648e+003;4.3687177734e+003;4.2494873047e+003;4.2293588867e+003;4.2244873047e+003;4.2332050781e+003;4.2306411133e+003;4.2294873047e+003;4.2274360352e+003;4.2250000000e+003;
1.9218750000e+000;4.2457690430e+003;4.2630771484e+003;4.2582050781e+003;4.2733334961e+003;4.2682050781e+003;4.3957690430e+003;4.2729487305e+003;4.2603847656e+003;4.2498715820e+003;4.2685898438e+003;4.2765385742e+003;4.2725639648e+003;4.2714101563e+003;4.2641025391e+003;
1.9296875000e+000;4.2802563477e+003;4.2997436523e+003;4.2929487305e+003;4.3075639648e+003;4.3029487305e+003;4.4238461914e+003;4.3058974609e+003;4.2951284180e+003;4.2848715820e+003;4.3074360352e+003;4.3128203125e+003;4.3079487305e+003;4.3078203125e+003;4.3001284180e+003;
1.9375000000e+000;4.2824360352e+003;4.3042309570e+003;4.3039741211e+003;4.3139741211e+003;4.3039741211e+003;4.4133334961e+003;4.3010258789e+003;4.3020512695e+003;4.2988461914e+003;4.3224360352e+003;4.3237177734e+003;4.3165385742e+003;4.3214101563e+003;4.3130771484e+003;
1.9453125000e+000;4.2351284180e+003;4.2525639648e+003;4.2561538086e+003;4.2666665039e+003;4.2515385742e+003;4.3492309570e+003;4.2528203125e+003;4.2615385742e+003;4.2647436523e+003;4.2779487305e+003;4.2789741211e+003;4.2737177734e+003;4.2721796875e+003;4.2638461914e+003;
1.9531250000e+000;4.1985898438e+003;4.2137177734e+003;4.2224360352e+003;4.2346152344e+003;4.2153847656e+003;4.3097436523e+003;4.2220512695e+003;4.2316665039e+003;4.2367949219e+003;4.2448715820e+003;4.2398715820e+003;4.2383334961e+003;4.2339741211e+003;4.2265385742e+003;
1.9609375000e+000;4.2050000000e+003;4.2239741211e+003;4.2270512695e+003;4.2467949219e+003;4.2301284180e+003;4.3371796875e+003;4.2394873047e+003;4.2461538086e+003;4.2532050781e+003;4.2543588867e+003;4.2464101563e+003;4.2373076172e+003;4.2506411133e+003;4.2344873047e+003;
1.9687500000e+000;4.1943588867e+003;4.2185898438e+003;4.2151284180e+003;4.2388461914e+003;4.2233334961e+003;4.3491025391e+003;4.2350000000e+003;4.2405126953e+003;4.2488461914e+003;4.2528203125e+003;4.2424360352e+003;4.2350000000e+003;4.2455126953e+003;4.2326923828e+003;
1.9765625000e+000;4.1761538086e+003;4.2012822266e+003;4.1993588867e+003;4.2252563477e+003;4.2088461914e+003;4.3729487305e+003;4.2224360352e+003;4.2217949219e+003;4.2296152344e+003;4.2312822266e+003;4.2200000000e+003;4.2128203125e+003;4.2246152344e+003;4.2116665039e+003;
1.9843750000e+000;4.1917949219e+003;4.2192309570e+003;4.2178203125e+003;4.2450000000e+003;4.2307690430e+003;4.4888461914e+003;4.2420512695e+003;4.2379487305e+003;4.2442309570e+003;4.2447436523e+003;4.2332050781e+003;4.2238461914e+003;4.2391025391e+003;4.2242309570e+003;
1.9921875000e+000;4.2285898438e+003;4.2584614258e+003;4.2571796875e+003;4.2852563477e+003;4.2743588867e+003;4.9519228516e+003;4.2802563477e+003;4.2776923828e+003;4.2791025391e+003;4.2802563477e+003;4.2705126953e+003;4.2612822266e+003;4.2757690430e+003;4.2589741211e+003;
2.0000000000e+000;4.1932050781e+003;4.2173076172e+003;4.2108974609e+003;4.2444873047e+003;4.2270512695e+003;5.5016665039e+003;4.2388461914e+003;4.2230771484e+003;4.2252563477e+003;4.2266665039e+003;4.2274360352e+003;4.2253847656e+003;4.2343588867e+003;4.2215385742e+003;
2.0078125000e+000;4.1958974609e+003;4.2193588867e+003;4.2129487305e+003;4.2461538086e+003;4.2270512695e+003;5.4007690430e+003;4.2379487305e+003;4.2197436523e+003;4.2237177734e+003;4.2265385742e+003;4.2284614258e+003;4.2273076172e+003;4.2357690430e+003;4.2252563477e+003;
2.0156250000e+000;4.1930771484e+003;4.2160258789e+003;4.2120512695e+003;4.2446152344e+003;4.2226923828e+003;5.2379487305e+003;4.2323076172e+003;4.2137177734e+003;4.2171796875e+003;4.2211538086e+003;4.2242309570e+003;4.2244873047e+003;4.2316665039e+003;4.2229487305e+003;
2.0234375000e+000;4.2193588867e+003;4.2410258789e+003;4.2401284180e+003;4.2724360352e+003;4.2476923828e+003;5.4705126953e+003;4.2538461914e+003;4.2361538086e+003;4.2329487305e+003;4.2394873047e+003;4.2456411133e+003;4.2475639648e+003;4.2556411133e+003;4.2437177734e+003;
2.0312500000e+000;4.2637177734e+003;4.2862822266e+003;4.2833334961e+003;4.3146152344e+003;4.2926923828e+003;5.9721796875e+003;4.2951284180e+003;4.2797436523e+003;4.2751284180e+003;4.2842309570e+003;4.2896152344e+003;4.2905126953e+003;4.3002563477e+003;4.2857690430e+003;
2.0390625000e+000;4.2953847656e+003;4.3196152344e+003;4.3146152344e+003;4.3443588867e+003;4.3252563477e+003;6.5194873047e+003;4.3250000000e+003;4.3115385742e+003;4.3092309570e+003;4.3198715820e+003;4.3234614258e+003;4.3234614258e+003;4.3317949219e+003;4.3184614258e+003;
2.0468750000e+000;4.3225639648e+003;4.3520512695e+003;4.3458974609e+003;4.3687177734e+003;4.3442309570e+003;6.7428203125e+003;4.3439741211e+003;4.3282050781e+003;4.3414101563e+003;4.3494873047e+003;4.3534614258e+003;4.3532050781e+003;4.3601284180e+003;4.3479487305e+003;
2.0546875000e+000;4.3332050781e+003;4.3619228516e+003;4.3562822266e+003;4.3765385742e+003;4.3507690430e+003;6.7034614258e+003;4.3483334961e+003;4.3441025391e+003;4.3592309570e+003;4.3676923828e+003;4.3674360352e+003;4.3656411133e+003;4.3746152344e+003;4.3608974609e+003;
2.0625000000e+000;4.2780771484e+003;4.3116665039e+003;4.3057690430e+003;4.3296152344e+003;4.3043588867e+003;6.5471796875e+003;4.3065385742e+003;4.3089741211e+003;4.3288461914e+003;4.3270512695e+003;4.3285898438e+003;4.3196152344e+003;4.3258974609e+003;4.3173076172e+003;
2.0703125000e+000;4.2533334961e+003;4.2965385742e+003;4.2938461914e+003;4.3175639648e+003;4.2921796875e+003;6.3317949219e+003;4.3038461914e+003;4.3064101563e+003;4.3278203125e+003;4.3208974609e+003;4.3124360352e+003;4.3105126953e+003;4.3146152344e+003;4.2989741211e+003;
2.0781250000e+000;4.2202563477e+003;4.2598715820e+003;4.2588461914e+003;4.2852563477e+003;4.2589741211e+003;6.2494873047e+003;4.2726923828e+003;4.2723076172e+003;4.2942309570e+003;4.2834614258e+003;4.2738461914e+003;4.2716665039e+003;4.2769228516e+003;4.2624360352e+003;
2.0859375000e+000;4.2246152344e+003;4.2643588867e+003;4.2593588867e+003;4.2910258789e+003;4.2661538086e+003;6.0666665039e+003;4.2821796875e+003;4.2770512695e+003;4.2898715820e+003;4.2769228516e+003;4.2680771484e+003;4.2571796875e+003;4.2679487305e+003;4.2585898438e+003;
2.0937500000e+000;4.2065385742e+003;4.2442309570e+003;4.2364101563e+003;4.2675639648e+003;4.2428203125e+003;5.9611538086e+003;4.2673076172e+003;4.2432050781e+003;4.2546152344e+003;4.2480771484e+003;4.2403847656e+003;4.2396152344e+003;4.2491025391e+003;4.2342309570e+003;
2.1015625000e+000;4.2233334961e+003;4.2582050781e+003;4.2491025391e+003;4.2808974609e+003;4.2578203125e+003;5.9193588867e+003;4.2796152344e+003;4.2507690430e+003;4.2642309570e+003;4.2593588867e+003;4.2558974609e+003;4.2560258789e+003;4.2632050781e+003;4.2506411133e+003;
2.1093750000e+000;4.2275639648e+003;4.2600000000e+003;4.2526923828e+003;4.2850000000e+003;4.2612822266e+003;5.8782050781e+003;4.2810258789e+003;4.2498715820e+003;4.2621796875e+003;4.2587177734e+003;4.2610258789e+003;4.2601284180e+003;4.2633334961e+003;4.2565385742e+003;
2.1171875000e+000;4.2097436523e+003;4.2394873047e+003;4.2393588867e+003;4.2702563477e+003;4.2425639648e+003;5.7900000000e+003;4.2625639648e+003;4.2243588867e+003;4.2287177734e+003;4.2283334961e+003;4.2408974609e+003;4.2382050781e+003;4.2369228516e+003;4.2387177734e+003;
2.1250000000e+000;4.2964101563e+003;4.3308974609e+003;4.3276923828e+003;4.3505126953e+003;4.3301284180e+003;5.7500000000e+003;4.3416665039e+003;4.2992309570e+003;4.2998715820e+003;4.3126923828e+003;4.3229487305e+003;4.3258974609e+003;4.3280771484e+003;4.3216665039e+003;
2.1328125000e+000;4.2960258789e+003;4.3307690430e+003;4.3288461914e+003;4.3493588867e+003;4.3297436523e+003;5.7165385742e+003;4.3398715820e+003;4.2974360352e+003;4.2964101563e+003;4.3112822266e+003;4.3239741211e+003;4.3275639648e+003;4.3283334961e+003;4.3211538086e+003;
2.1406250000e+000;4.2887177734e+003;4.3221796875e+003;4.3221796875e+003;4.3406411133e+003;4.3210258789e+003;5.6715385742e+003;4.3307690430e+003;4.2869228516e+003;4.2844873047e+003;4.2994873047e+003;4.3166665039e+003;4.3191025391e+003;4.3188461914e+003;4.3124360352e+003;
2.1484375000e+000;4.3096152344e+003;4.3400000000e+003;4.3430771484e+003;4.3573076172e+003;4.3378203125e+003;5.5991025391e+003;4.3433334961e+003;4.3035898438e+003;4.3055126953e+003;4.3196152344e+003;4.3389741211e+003;4.3373076172e+003;4.3378203125e+003;4.3316665039e+003;
2.1562500000e+000;4.3055126953e+003;4.3358974609e+003;4.3403847656e+003;4.3550000000e+003;4.3324360352e+003;5.5505126953e+003;4.3362822266e+003;4.3041025391e+003;4.3107690430e+003;4.3230771484e+003;4.3382050781e+003;4.3374360352e+003;4.3369228516e+003;4.3296152344e+003;
2.1640625000e+000;4.2765385742e+003;4.3079487305e+003;4.3133334961e+003;4.3307690430e+003;4.3043588867e+003;5.4839741211e+003;4.3078203125e+003;4.2833334961e+003;4.2937177734e+003;4.3024360352e+003;4.3126923828e+003;4.3144873047e+003;4.3123076172e+003;4.3029487305e+003;
2.1718750000e+000;4.2105126953e+003;4.2455126953e+003;4.2412822266e+003;4.2650000000e+003;4.2457690430e+003;5.2582050781e+003;4.2544873047e+003;4.2498715820e+003;4.2619228516e+003;4.2526923828e+003;4.2569228516e+003;4.2489741211e+003;4.2558974609e+003;4.2392309570e+003;
2.1796875000e+000;4.1893588867e+003;4.2223076172e+003;4.2178203125e+003;4.2434614258e+003;4.2233334961e+003;5.2076923828e+003;4.2406411133e+003;4.2300000000e+003;4.2408974609e+003;4.2288461914e+003;4.2326923828e+003;4.2251284180e+003;4.2315385742e+003;4.2139741211e+003;
2.1875000000e+000;4.3147436523e+003;4.3544873047e+003;4.3428203125e+003;4.3689741211e+003;4.3667949219e+003;5.2484614258e+003;4.3824360352e+003;4.3715385742e+003;4.3785898438e+003;4.3670512695e+003;4.3621796875e+003;4.3546152344e+003;4.3633334961e+003;4.3375639648e+003;
2.1953125000e+000;4.2801284180e+003;4.3202563477e+003;4.3100000000e+003;4.3371796875e+003;4.3389741211e+003;5.1279487305e+003;4.3544873047e+003;4.3388461914e+003;4.3471796875e+003;4.3367949219e+003;4.3320512695e+003;4.3216665039e+003;4.3329487305e+003;4.3121796875e+003;
2.2031250000e+000;4.2852563477e+003;4.3244873047e+003;4.3112822266e+003;4.3405126953e+003;4.3412822266e+003;5.0960258789e+003;4.3574360352e+003;4.3351284180e+003;4.3443588867e+003;4.3366665039e+003;4.3351284180e+003;4.3212822266e+003;4.3365385742e+003;4.3148715820e+003;
2.2109375000e+000;4.2303847656e+003;4.2632050781e+003;4.2573076172e+003;4.2837177734e+003;4.2778203125e+003;4.9164101563e+003;4.2944873047e+003;4.2588461914e+003;4.2642309570e+003;4.2617949219e+003;4.2696152344e+003;4.2639741211e+003;4.2755126953e+003;4.2580771484e+003;
2.2187500000e+000;4.2205126953e+003;4.2519228516e+003;4.2489741211e+003;4.2732050781e+003;4.2660258789e+003;4.8644873047e+003;4.2824360352e+003;4.2414101563e+003;4.2447436523e+003;4.2443588867e+003;4.2558974609e+003;4.2541025391e+003;4.2639741211e+003;4.2496152344e+003;
2.2265625000e+000;4.2708974609e+003;4.3034614258e+003;4.2985898438e+003;4.3226923828e+003;4.3130771484e+003;4.8321796875e+003;4.3265385742e+003;4.2815385742e+003;4.2843588867e+003;4.2944873047e+003;4.3075639648e+003;4.3046152344e+003;4.3144873047e+003;4.3039741211e+003;
2.2343750000e+000;4.2746152344e+003;4.3062822266e+003;4.3017949219e+003;4.3275639648e+003;4.3141025391e+003;4.7892309570e+003;4.3280771484e+003;4.2816665039e+003;4.2853847656e+003;4.2993588867e+003;4.3126923828e+003;4.3082050781e+003;4.3170512695e+003;4.3075639648e+003;
2.2421875000e+000;4.2632050781e+003;4.2880771484e+003;4.2898715820e+003;4.3075639648e+003;4.2934614258e+003;4.5760258789e+003;4.3064101563e+003;4.2544873047e+003;4.2596152344e+003;4.2723076172e+003;4.2916665039e+003;4.2896152344e+003;4.2952563477e+003;4.2860258789e+003;
2.2500000000e+000;4.2806411133e+003;4.3051284180e+003;4.3078203125e+003;4.3197436523e+003;4.3082050781e+003;4.5206411133e+003;4.3182050781e+003;4.2729487305e+003;4.2782050781e+003;4.2915385742e+003;4.3080771484e+003;4.3084614258e+003;4.3126923828e+003;4.3029487305e+003;
2.2578125000e+000;4.2717949219e+003;4.2942309570e+003;4.2980771484e+003;4.3092309570e+003;4.2960258789e+003;4.3600000000e+003;4.3047436523e+003;4.2773076172e+003;4.2847436523e+003;4.2955126953e+003;4.3021796875e+003;4.3041025391e+003;4.3075639648e+003;4.2947436523e+003;
2.2656250000e+000;4.2750000000e+003;4.2969228516e+003;4.2987177734e+003;4.3128203125e+003;4.2998715820e+003;4.2624360352e+003;4.3083334961e+003;4.2882050781e+003;4.2982050781e+003;4.3042309570e+003;4.3075639648e+003;4.3069228516e+003;4.3129487305e+003;4.2979487305e+003;
2.2734375000e+000;4.3042309570e+003;4.3335898438e+003;4.3326923828e+003;4.3438461914e+003;4.3361538086e+003;3.9521794434e+003;4.3464101563e+003;4.3510258789e+003;4.3616665039e+003;4.3537177734e+003;4.3525639648e+003;4.3444873047e+003;4.3583334961e+003;4.3396152344e+003;
2.2812500000e+000;4.2750000000e+003;4.3062822266e+003;4.3078203125e+003;4.3182050781e+003;4.3087177734e+003;3.8587180176e+003;4.3239741211e+003;4.3303847656e+003;4.3366665039e+003;4.3269228516e+003;4.3260258789e+003;4.3170512695e+003;4.3316665039e+003;4.3125639648e+003;
2.2890625000e+000;4.2602563477e+003;4.2925639648e+003;4.2946152344e+003;4.3056411133e+003;4.2964101563e+003;3.8138461914e+003;4.3157690430e+003;4.3188461914e+003;4.3202563477e+003;4.3111538086e+003;4.3101284180e+003;4.3000000000e+003;4.3152563477e+003;4.2961538086e+003;
2.2968750000e+000;4.2208974609e+003;4.2557690430e+003;4.2550000000e+003;4.2698715820e+003;4.2687177734e+003;3.7938461914e+003;4.2973076172e+003;4.2811538086e+003;4.2830771484e+003;4.2739741211e+003;4.2667949219e+003;4.2624360352e+003;4.2710258789e+003;4.2573076172e+003;
2.3046875000e+000;4.2179487305e+003;4.2502563477e+003;4.2492309570e+003;4.2655126953e+003;4.2638461914e+003;3.7947436523e+003;4.2892309570e+003;4.2698715820e+003;4.2747436523e+003;4.2643588867e+003;4.2606411133e+003;4.2553847656e+003;4.2664101563e+003;4.2524360352e+003;
2.3125000000e+000;4.2089741211e+003;4.2329487305e+003;4.2416665039e+003;4.2553847656e+003;4.2487177734e+003;3.7996154785e+003;4.2641025391e+003;4.2369228516e+003;4.2392309570e+003;4.2374360352e+003;4.2448715820e+003;4.2450000000e+003;4.2508974609e+003;4.2473076172e+003;
2.3203125000e+000;4.1851284180e+003;4.2116665039e+003;4.2173076172e+003;4.2311538086e+003;4.2243588867e+003;3.7873076172e+003;4.2367949219e+003;4.1924360352e+003;4.1914101563e+003;4.2014101563e+003;4.2212822266e+003;4.2242309570e+003;4.2289741211e+003;4.2305126953e+003;
2.3281250000e+000;4.1612822266e+003;4.1880771484e+003;4.1921796875e+003;4.2073076172e+003;4.1974360352e+003;3.7650000000e+003;4.2084614258e+003;4.1646152344e+003;4.1615385742e+003;4.1773076172e+003;4.1983334961e+003;4.1997436523e+003;4.2044873047e+003;4.2061538086e+003;
2.3359375000e+000;4.1205126953e+003;4.1314101563e+003;4.1446152344e+003;4.1565385742e+003;4.1329487305e+003;3.7174357910e+003;4.1511538086e+003;4.1044873047e+003;4.0944870605e+003;4.1123076172e+003;4.1493588867e+003;4.1501284180e+003;4.1521796875e+003;4.1500000000e+003;
2.3437500000e+000;4.1675639648e+003;4.1752563477e+003;4.1903847656e+003;4.1982050781e+003;4.1761538086e+003;3.7596154785e+003;4.1923076172e+003;4.1476923828e+003;4.1401284180e+003;4.1576923828e+003;4.1952563477e+003;4.1966665039e+003;4.1983334961e+003;4.1956411133e+003;
2.3515625000e+000;4.2107690430e+003;4.2224360352e+003;4.2360258789e+003;4.2424360352e+003;4.2234614258e+003;3.8028205566e+003;4.2321796875e+003;4.1921796875e+003;4.1912822266e+003;4.2125639648e+003;4.2382050781e+003;4.2417949219e+003;4.2425639648e+003;4.2410258789e+003;
2.3593750000e+000;4.2126923828e+003;4.2287177734e+003;4.2389741211e+003;4.2467949219e+003;4.2298715820e+003;3.8062819824e+003;4.2350000000e+003;4.1961538086e+003;4.1956411133e+003;4.2192309570e+003;4.2393588867e+003;4.2417949219e+003;4.2450000000e+003;4.2417949219e+003;
2.3671875000e+000;4.2451284180e+003;4.2680771484e+003;4.2708974609e+003;4.2791025391e+003;4.2643588867e+003;3.8450000000e+003;4.2664101563e+003;4.2653847656e+003;4.2533334961e+003;4.2712822266e+003;4.2806411133e+003;4.2737177734e+003;4.2841025391e+003;4.2742309570e+003;
2.3750000000e+000;4.2197436523e+003;4.2426923828e+003;4.2451284180e+003;4.2565385742e+003;4.2385898438e+003;3.8283332520e+003;4.2467949219e+003;4.2570512695e+003;4.2417949219e+003;4.2512822266e+003;4.2570512695e+003;4.2488461914e+003;4.2585898438e+003;4.2488461914e+003;
2.3828125000e+000;4.2226923828e+003;4.2465385742e+003;4.2453847656e+003;4.2617949219e+003;4.2487177734e+003;3.8452563477e+003;4.2664101563e+003;4.2728203125e+003;4.2601284180e+003;4.2567949219e+003;4.2567949219e+003;4.2426923828e+003;4.2588461914e+003;4.2441025391e+003;
2.3906250000e+000;4.2624360352e+003;4.2878203125e+003;4.2855126953e+003;4.2998715820e+003;4.2939741211e+003;3.8898718262e+003;4.3116665039e+003;4.3132050781e+003;4.3047436523e+003;4.3003847656e+003;4.2969228516e+003;4.2803847656e+003;4.3002563477e+003;4.2821796875e+003;
2.3984375000e+000;4.2842309570e+003;4.3119228516e+003;4.3101284180e+003;4.3210258789e+003;4.3205126953e+003;3.9193588867e+003;4.3373076172e+003;4.3375639648e+003;4.3326923828e+003;4.3283334961e+003;4.3215385742e+003;4.3052563477e+003;4.3252563477e+003;4.3064101563e+003;
2.4062500000e+000;4.2734614258e+003;4.3035898438e+003;4.3024360352e+003;4.3114101563e+003;4.3134614258e+003;3.9192307129e+003;4.3301284180e+003;4.3308974609e+003;4.3282050781e+003;4.3217949219e+003;4.3135898438e+003;4.2992309570e+003;4.3166665039e+003;4.2998715820e+003;
2.4140625000e+000;4.3057690430e+003;4.3476923828e+003;4.3364101563e+003;4.3498715820e+003;4.3623076172e+003;3.9806411133e+003;4.3739741211e+003;4.3728203125e+003;4.3783334961e+003;4.3664101563e+003;4.3526923828e+003;4.3396152344e+003;4.3532050781e+003;4.3380771484e+003;
2.4218750000e+000;4.2664101563e+003;4.3023076172e+003;4.3028203125e+003;4.3096152344e+003;4.3155126953e+003;3.9479487305e+003;4.3241025391e+003;4.3042309570e+003;4.3032050781e+003;4.3052563477e+003;4.3024360352e+003;4.2950000000e+003;4.3074360352e+003;4.2980771484e+003;
2.4296875000e+000;4.2796152344e+003;4.3133334961e+003;4.3151284180e+003;4.3217949219e+003;4.3252563477e+003;3.9587180176e+003;4.3319228516e+003;4.3112822266e+003;4.3091025391e+003;4.3138461914e+003;4.3156411133e+003;4.3089741211e+003;4.3212822266e+003;4.3119228516e+003;
2.4375000000e+000;4.3221796875e+003;4.3533334961e+003;4.3605126953e+003;4.3591025391e+003;4.3607690430e+003;4.0032050781e+003;4.3694873047e+003;4.3398715820e+003;4.3324360352e+003;4.3525639648e+003;4.3639741211e+003;4.3607690430e+003;4.3678203125e+003;4.3628203125e+003;
2.4453125000e+000;4.3569228516e+003;4.3946152344e+003;4.4043588867e+003;4.3973076172e+003;4.3988461914e+003;4.0456411133e+003;4.3974360352e+003;4.3742309570e+003;4.3638461914e+003;4.3969228516e+003;4.4055126953e+003;4.4035898438e+003;4.4067949219e+003;4.4030771484e+003;
2.4531250000e+000;4.3334614258e+003;4.3692309570e+003;4.3805126953e+003;4.3757690430e+003;4.3741025391e+003;4.0250000000e+003;4.3716665039e+003;4.3500000000e+003;4.3400000000e+003;4.3715385742e+003;4.3816665039e+003;4.3796152344e+003;4.3828203125e+003;4.3775639648e+003;
2.4609375000e+000;4.4250000000e+003;4.4667949219e+003;4.4667949219e+003;4.4614101563e+003;4.4656411133e+003;4.1152563477e+003;4.4589741211e+003;4.4525639648e+003;4.4456411133e+003;4.4716665039e+003;4.4775639648e+003;4.4685898438e+003;4.4767949219e+003;4.4706411133e+003;
2.4687500000e+000;4.4330771484e+003;4.4807690430e+003;4.4783334961e+003;4.4715385742e+003;4.4778203125e+003;4.1288461914e+003;4.4707690430e+003;4.4719228516e+003;4.4657690430e+003;4.4893588867e+003;4.4905126953e+003;4.4810258789e+003;4.4880771484e+003;4.4826923828e+003;
2.4765625000e+000;4.4089741211e+003;4.4646152344e+003;4.4598715820e+003;4.4516665039e+003;4.4612822266e+003;4.1203847656e+003;4.4560258789e+003;4.4616665039e+003;4.4566665039e+003;4.4748715820e+003;4.4720512695e+003;4.4607690430e+003;4.4691025391e+003;4.4585898438e+003;
2.4843750000e+000;4.4233334961e+003;4.4808974609e+003;4.4743588867e+003;4.4643588867e+003;4.4778203125e+003;4.1405126953e+003;4.4728203125e+003;4.4787177734e+003;4.4737177734e+003;4.4916665039e+003;4.4876923828e+003;4.4737177734e+003;4.4850000000e+003;4.4708974609e+003;
2.4921875000e+000;4.4438461914e+003;4.5050000000e+003;4.4971796875e+003;4.4826923828e+003;4.5074360352e+003;4.1902563477e+003;4.5073076172e+003;4.5116665039e+003;4.5041025391e+003;4.5188461914e+003;4.5025639648e+003;4.4891025391e+003;4.5025639648e+003;4.4930771484e+003;
2.5000000000e+000;4.4512822266e+003;4.5164101563e+003;4.5046152344e+003;4.4929487305e+003;4.5205126953e+003;4.2117949219e+003;4.5212822266e+003;4.5234614258e+003;4.5156411133e+003;4.5284614258e+003;4.5078203125e+003;4.4960258789e+003;4.5103847656e+003;4.5021796875e+003;
2.5078125000e+000;4.4796152344e+003;4.5535898438e+003;4.5332050781e+003;4.5274360352e+003;4.5582050781e+003;4.2669228516e+003;4.5583334961e+003;4.5632050781e+003;4.5544873047e+003;4.5685898438e+003;4.5442309570e+003;4.5305126953e+003;4.5464101563e+003;4.5352563477e+003;
2.5156250000e+000;4.4535898438e+003;4.5271796875e+003;4.5093588867e+003;4.5041025391e+003;4.5332050781e+003;4.2530771484e+003;4.5360258789e+003;4.5414101563e+003;4.5308974609e+003;4.5456411133e+003;4.5229487305e+003;4.5087177734e+003;4.5228203125e+003;4.5105126953e+003;
2.5234375000e+000;4.3666665039e+003;4.4312822266e+003;4.4265385742e+003;4.4151284180e+003;4.4434614258e+003;4.1808974609e+003;4.4489741211e+003;4.4414101563e+003;4.4337177734e+003;4.4433334961e+003;4.4293588867e+003;4.4175639648e+003;4.4323076172e+003;4.4192309570e+003;
2.5312500000e+000;4.3698715820e+003;4.4355126953e+003;4.4305126953e+003;4.4180771484e+003;4.4467949219e+003;4.1844873047e+003;4.4484614258e+003;4.4412822266e+003;4.4364101563e+003;4.4455126953e+003;4.4316665039e+003;4.4200000000e+003;4.4360258789e+003;4.4239741211e+003;
2.5390625000e+000;4.3612822266e+003;4.4273076172e+003;4.4224360352e+003;4.4114101563e+003;4.4374360352e+003;4.1767949219e+003;4.4375639648e+003;4.4307690430e+003;4.4262822266e+003;4.4362822266e+003;4.4234614258e+003;4.4123076172e+003;4.4269228516e+003;4.4174360352e+003;
2.5468750000e+000;4.3466665039e+003;4.4108974609e+003;4.4078203125e+003;4.3997436523e+003;4.4211538086e+003;4.1625639648e+003;4.4219228516e+003;4.4121796875e+003;4.4057690430e+003;4.4184614258e+003;4.4085898438e+003;4.3982050781e+003;4.4100000000e+003;4.4035898438e+003;
2.5546875000e+000;4.3791025391e+003;4.4397436523e+003;4.4441025391e+003;4.4326923828e+003;4.4515385742e+003;4.1778203125e+003;4.4423076172e+003;4.4341025391e+003;4.4194873047e+003;4.4448715820e+003;4.4451284180e+003;4.4346152344e+003;4.4442309570e+003;4.4433334961e+003;
2.5625000000e+000;4.3720512695e+003;4.4411538086e+003;4.4426923828e+003;4.4306411133e+003;4.4443588867e+003;4.1556411133e+003;4.4360258789e+003;4.4257690430e+003;4.4089741211e+003;4.4365385742e+003;4.4471796875e+003;4.4364101563e+003;4.4425639648e+003;4.4406411133e+003;
2.5703125000e+000;4.3743588867e+003;4.4438461914e+003;4.4461538086e+003;4.4339741211e+003;4.4458974609e+003;4.1588461914e+003;4.4402563477e+003;4.4348715820e+003;4.4200000000e+003;4.4462822266e+003;4.4558974609e+003;4.4441025391e+003;4.4491025391e+003;4.4462822266e+003;
2.5781250000e+000;4.3285898438e+003;4.3921796875e+003;4.3960258789e+003;4.3843588867e+003;4.3938461914e+003;4.1156411133e+003;4.3960258789e+003;4.3988461914e+003;4.3874360352e+003;4.4038461914e+003;4.4116665039e+003;4.3993588867e+003;4.4021796875e+003;4.4003847656e+003;
2.5859375000e+000;4.3078203125e+003;4.3708974609e+003;4.3792309570e+003;4.3698715820e+003;4.3728203125e+003;4.1028203125e+003;4.3794873047e+003;4.3893588867e+003;4.3817949219e+003;4.3942309570e+003;4.3930771484e+003;4.3821796875e+003;4.3835898438e+003;4.3780771484e+003;
2.5937500000e+000;4.2896152344e+003;4.3497436523e+003;4.3596152344e+003;4.3532050781e+003;4.3538461914e+003;4.0903845215e+003;4.3643588867e+003;4.3703847656e+003;4.3648715820e+003;4.3719228516e+003;4.3735898438e+003;4.3614101563e+003;4.3626923828e+003;4.3564101563e+003;
2.6015625000e+000;4.3062822266e+003;4.3593588867e+003;4.3687177734e+003;4.3669228516e+003;4.3666665039e+003;4.1094873047e+003;4.3774360352e+003;4.3860258789e+003;4.3816665039e+003;4.3816665039e+003;4.3858974609e+003;4.3708974609e+003;4.3706411133e+003;4.3667949219e+003;
2.6093750000e+000;4.2970512695e+003;4.3484614258e+003;4.3589741211e+003;4.3594873047e+003;4.3560258789e+003;4.1029487305e+003;4.3666665039e+003;4.3788461914e+003;4.3714101563e+003;4.3728203125e+003;4.3748715820e+003;4.3617949219e+003;4.3591025391e+003;4.3579487305e+003;
2.6171875000e+000;4.2582050781e+003;4.3129487305e+003;4.3188461914e+003;4.3316665039e+003;4.3230771484e+003;4.0782050781e+003;4.3353847656e+003;4.3344873047e+003;4.3252563477e+003;4.3311538086e+003;4.3301284180e+003;4.3203847656e+003;4.3219228516e+003;4.3189741211e+003;
2.6250000000e+000;4.2873076172e+003;4.3426923828e+003;4.3451284180e+003;4.3596152344e+003;4.3532050781e+003;4.1060258789e+003;4.3634614258e+003;4.3611538086e+003;4.3541025391e+003;4.3596152344e+003;4.3588461914e+003;4.3494873047e+003;4.3502563477e+003;4.3467949219e+003;
2.6328125000e+000;4.2948715820e+003;4.3483334961e+003;4.3547436523e+003;4.3684614258e+003;4.3569228516e+003;4.1105126953e+003;4.3669228516e+003;4.3648715820e+003;4.3538461914e+003;4.3598715820e+003;4.3651284180e+003;4.3596152344e+003;4.3516665039e+003;4.3519228516e+003;
2.6406250000e+000;4.2915385742e+003;4.3453847656e+003;4.3544873047e+003;4.3685898438e+003;4.3530771484e+003;4.1058974609e+003;4.3630771484e+003;4.3560258789e+003;4.3406411133e+003;4.3493588867e+003;4.3598715820e+003;4.3529487305e+003;4.3457690430e+003;4.3461538086e+003;
2.6484375000e+000;4.3593588867e+003;4.4216665039e+003;4.4265385742e+003;4.4425639648e+003;4.4287177734e+003;4.1667949219e+003;4.4291025391e+003;4.4178203125e+003;4.4016665039e+003;4.4241025391e+003;4.4303847656e+003;4.4162822266e+003;4.4180771484e+003;4.4138461914e+003;
2.6562500000e+000;4.3338461914e+003;4.3952563477e+003;4.4011538086e+003;4.4188461914e+003;4.4030771484e+003;4.1443588867e+003;4.4043588867e+003;4.3953847656e+003;4.3810258789e+003;4.4016665039e+003;4.4051284180e+003;4.3946152344e+003;4.3916665039e+003;4.3902563477e+003;
2.6640625000e+000;4.2979487305e+003;4.3564101563e+003;4.3634614258e+003;4.3841025391e+003;4.3657690430e+003;4.1124360352e+003;4.3698715820e+003;4.3603847656e+003;4.3465385742e+003;4.3616665039e+003;4.3667949219e+003;4.3600000000e+003;4.3516665039e+003;4.3538461914e+003;
2.6718750000e+000;4.2843588867e+003;4.3397436523e+003;4.3465385742e+003;4.3700000000e+003;4.3508974609e+003;4.1011538086e+003;4.3575639648e+003;4.3453847656e+003;4.3305126953e+003;4.3406411133e+003;4.3501284180e+003;4.3444873047e+003;4.3332050781e+003;4.3374360352e+003;
2.6796875000e+000;4.2869228516e+003;4.3393588867e+003;4.3497436523e+003;4.3730771484e+003;4.3483334961e+003;4.1023076172e+003;4.3603847656e+003;4.3483334961e+003;4.3362822266e+003;4.3474360352e+003;4.3560258789e+003;4.3464101563e+003;4.3383334961e+003;4.3329487305e+003;
2.6875000000e+000;4.2992309570e+003;4.3524360352e+003;4.3617949219e+003;4.3837177734e+003;4.3583334961e+003;4.1103847656e+003;4.3678203125e+003;4.3607690430e+003;4.3507690430e+003;4.3592309570e+003;4.3678203125e+003;4.3585898438e+003;4.3524360352e+003;4.3447436523e+003;
2.6953125000e+000;4.3488461914e+003;4.4080771484e+003;4.4087177734e+003;4.4298715820e+003;4.4056411133e+003;4.1597436523e+003;4.4124360352e+003;4.4202563477e+003;4.4087177734e+003;4.4120512695e+003;4.4221796875e+003;4.4119228516e+003;4.4069228516e+003;4.4014101563e+003;
2.7031250000e+000;4.3779487305e+003;4.4421796875e+003;4.4420512695e+003;4.4657690430e+003;4.4416665039e+003;4.2002563477e+003;4.4530771484e+003;4.4512822266e+003;4.4446152344e+003;4.4506411133e+003;4.4598715820e+003;4.4382050781e+003;4.4429487305e+003;4.4330771484e+003;
2.7109375000e+000;4.3842309570e+003;4.4483334961e+003;4.4502563477e+003;4.4728203125e+003;4.4492309570e+003;4.2088461914e+003;4.4562822266e+003;4.4601284180e+003;4.4546152344e+003;4.4598715820e+003;4.4671796875e+003;4.4455126953e+003;4.4520512695e+003;4.4402563477e+003;
2.7187500000e+000;4.3130771484e+003;4.3755126953e+003;4.3779487305e+003;4.4023076172e+003;4.3778203125e+003;4.1479487305e+003;4.3821796875e+003;4.3812822266e+003;4.3766665039e+003;4.3787177734e+003;4.3906411133e+003;4.3780771484e+003;4.3766665039e+003;4.3711538086e+003;
2.7265625000e+000;4.3738461914e+003;4.4400000000e+003;4.4370512695e+003;4.4629487305e+003;4.4444873047e+003;4.2125639648e+003;4.4475639648e+003;4.4369228516e+003;4.4375639648e+003;4.4487177734e+003;4.4629487305e+003;4.4402563477e+003;4.4420512695e+003;4.4353847656e+003;
2.7343750000e+000;4.3700000000e+003;4.4326923828e+003;4.4319228516e+003;4.4582050781e+003;4.4388461914e+003;4.2101284180e+003;4.4430771484e+003;4.4296152344e+003;4.4291025391e+003;4.4415385742e+003;4.4569228516e+003;4.4319228516e+003;4.4364101563e+003;4.4273076172e+003;
2.7421875000e+000;4.4348715820e+003;4.4952563477e+003;4.4961538086e+003;4.5147436523e+003;4.4996152344e+003;4.2667949219e+003;4.4991025391e+003;4.4870512695e+003;4.4753847656e+003;4.5000000000e+003;4.5106411133e+003;4.4906411133e+003;4.4983334961e+003;4.4866665039e+003;
2.7500000000e+000;4.4198715820e+003;4.4823076172e+003;4.4852563477e+003;4.5038461914e+003;4.4866665039e+003;4.2541025391e+003;4.4866665039e+003;4.4756411133e+003;4.4616665039e+003;4.4888461914e+003;4.4971796875e+003;4.4829487305e+003;4.4853847656e+003;4.4762822266e+003;
2.7578125000e+000;4.3553847656e+003;4.4206411133e+003;4.4237177734e+003;4.4480771484e+003;4.4265385742e+003;4.1973076172e+003;4.4298715820e+003;4.4117949219e+003;4.3961538086e+003;4.4224360352e+003;4.4328203125e+003;4.4228203125e+003;4.4215385742e+003;4.4139741211e+003;
2.7656250000e+000;4.3608974609e+003;4.4288461914e+003;4.4275639648e+003;4.4533334961e+003;4.4337177734e+003;4.2041025391e+003;4.4358974609e+003;4.4167949219e+003;4.4000000000e+003;4.4271796875e+003;4.4382050781e+003;4.4247436523e+003;4.4279487305e+003;4.4180771484e+003;
2.7734375000e+000;4.3846152344e+003;4.4633334961e+003;4.4506411133e+003;4.4780771484e+003;4.4621796875e+003;4.2355126953e+003;4.4634614258e+003;4.4530771484e+003;4.4328203125e+003;4.4596152344e+003;4.4669228516e+003;4.4433334961e+003;4.4588461914e+003;4.4461538086e+003;
2.7812500000e+000;4.3973076172e+003;4.4773076172e+003;4.4623076172e+003;4.4908974609e+003;4.4762822266e+003;4.2464101563e+003;4.4765385742e+003;4.4652563477e+003;4.4492309570e+003;4.4710258789e+003;4.4800000000e+003;4.4547436523e+003;4.4720512695e+003;4.4598715820e+003;
2.7890625000e+000;4.4310258789e+003;4.5107690430e+003;4.4951284180e+003;4.5219228516e+003;4.5105126953e+003;4.2737177734e+003;4.5067949219e+003;4.4965385742e+003;4.4867949219e+003;4.5046152344e+003;4.5147436523e+003;4.4887177734e+003;4.5067949219e+003;4.4942309570e+003;
2.7968750000e+000;4.4625639648e+003;4.5406411133e+003;4.5276923828e+003;4.5494873047e+003;4.5408974609e+003;4.2982050781e+003;4.5330771484e+003;4.5271796875e+003;4.5225639648e+003;4.5396152344e+003;4.5489741211e+003;4.5234614258e+003;4.5408974609e+003;4.5273076172e+003;
2.8046875000e+000;4.4752563477e+003;4.5587177734e+003;4.5437177734e+003;4.5605126953e+003;4.5500000000e+003;4.3082050781e+003;4.5448715820e+003;4.5451284180e+003;4.5403847656e+003;4.5620512695e+003;4.5665385742e+003;4.5415385742e+003;4.5647436523e+003;4.5432050781e+003;
2.8125000000e+000;4.4944873047e+003;4.5814101563e+003;4.5611538086e+003;4.5808974609e+003;4.5710258789e+003;4.3266665039e+003;4.5633334961e+003;4.5656411133e+003;4.5603847656e+003;4.5828203125e+003;4.5869228516e+003;4.5621796875e+003;4.5844873047e+003;4.5637177734e+003;
2.8203125000e+000;4.4626923828e+003;4.5453847656e+003;4.5344873047e+003;4.5456411133e+003;4.5391025391e+003;4.3010258789e+003;4.5273076172e+003;4.5306411133e+003;4.5235898438e+003;4.5474360352e+003;4.5558974609e+003;4.5346152344e+003;4.5497436523e+003;4.5371796875e+003;
2.8281250000e+000;4.4734614258e+003;4.5557690430e+003;4.5470512695e+003;4.5555126953e+003;4.5525639648e+003;4.3201284180e+003;4.5434614258e+003;4.5425639648e+003;4.5364101563e+003;4.5589741211e+003;4.5661538086e+003;4.5489741211e+003;4.5601284180e+003;4.5535898438e+003;
2.8359375000e+000;4.4294873047e+003;4.5096152344e+003;4.5029487305e+003;4.5141025391e+003;4.5097436523e+003;4.2806411133e+003;4.5032050781e+003;4.5002563477e+003;4.4933334961e+003;4.5114101563e+003;4.5202563477e+003;4.5065385742e+003;4.5132050781e+003;4.5087177734e+003;
2.8437500000e+000;4.4526923828e+003;4.5311538086e+003;4.5252563477e+003;4.5330771484e+003;4.5342309570e+003;4.3015385742e+003;4.5226923828e+003;4.5147436523e+003;4.5087177734e+003;4.5220512695e+003;4.5388461914e+003;4.5248715820e+003;4.5314101563e+003;4.5243588867e+003;
2.8515625000e+000;4.4710258789e+003;4.5543588867e+003;4.5470512695e+003;4.5494873047e+003;4.5548715820e+003;4.3224360352e+003;4.5473076172e+003;4.5378203125e+003;4.5275639648e+003;4.5392309570e+003;4.5556411133e+003;4.5450000000e+003;4.5511538086e+003;4.5425639648e+003;
2.8593750000e+000;4.4716665039e+003;4.5566665039e+003;4.5456411133e+003;4.5502563477e+003;4.5596152344e+003;4.3248715820e+003;4.5512822266e+003;4.5426923828e+003;4.5308974609e+003;4.5408974609e+003;4.5566665039e+003;4.5446152344e+003;4.5546152344e+003;4.5423076172e+003;
2.8671875000e+000;4.4217949219e+003;4.5088461914e+003;4.4997436523e+003;4.5100000000e+003;4.5111538086e+003;4.2830771484e+003;4.5043588867e+003;4.5048715820e+003;4.4920512695e+003;4.5034614258e+003;4.5147436523e+003;4.5002563477e+003;4.5110258789e+003;4.4988461914e+003;
2.8750000000e+000;4.4003847656e+003;4.4860258789e+003;4.4784614258e+003;4.4901284180e+003;4.4864101563e+003;4.2610258789e+003;4.4834614258e+003;4.4793588867e+003;4.4656411133e+003;4.4788461914e+003;4.4916665039e+003;4.4788461914e+003;4.4869228516e+003;4.4761538086e+003;
2.8828125000e+000;4.4305126953e+003;4.5174360352e+003;4.5048715820e+003;4.5161538086e+003;4.5126923828e+003;4.2844873047e+003;4.5117949219e+003;4.5029487305e+003;4.4906411133e+003;4.5067949219e+003;4.5221796875e+003;4.5082050781e+003;4.5174360352e+003;4.5042309570e+003;
2.8906250000e+000;4.4361538086e+003;4.5238461914e+003;4.5107690430e+003;4.5206411133e+003;4.5174360352e+003;4.2893588867e+003;4.5164101563e+003;4.5106411133e+003;4.5007690430e+003;4.5157690430e+003;4.5305126953e+003;4.5156411133e+003;4.5250000000e+003;4.5120512695e+003;
2.8984375000e+000;4.4088461914e+003;4.4887177734e+003;4.4884614258e+003;4.4911538086e+003;4.4844873047e+003;4.2585898438e+003;4.4808974609e+003;4.4802563477e+003;4.4764101563e+003;4.4851284180e+003;4.4987177734e+003;4.4839741211e+003;4.4910258789e+003;4.4839741211e+003;
2.9062500000e+000;4.4211538086e+003;4.5006411133e+003;4.5010258789e+003;4.5003847656e+003;4.4952563477e+003;4.2669228516e+003;4.4884614258e+003;4.4902563477e+003;4.4873076172e+003;4.4967949219e+003;4.5103847656e+003;4.4941025391e+003;4.5025639648e+003;4.4950000000e+003;
2.9140625000e+000;4.4114101563e+003;4.4917949219e+003;4.4916665039e+003;4.4891025391e+003;4.4843588867e+003;4.2569228516e+003;4.4770512695e+003;4.4812822266e+003;4.4784614258e+003;4.4882050781e+003;4.5020512695e+003;4.4850000000e+003;4.4942309570e+003;4.4852563477e+003;
2.9218750000e+000;4.3750000000e+003;4.4560258789e+003;4.4558974609e+003;4.4530771484e+003;4.4470512695e+003;4.2241025391e+003;4.4424360352e+003;4.4465385742e+003;4.4438461914e+003;4.4516665039e+003;4.4665385742e+003;4.4501284180e+003;4.4589741211e+003;4.4496152344e+003;
2.9296875000e+000;4.3824360352e+003;4.4558974609e+003;4.4650000000e+003;4.4558974609e+003;4.4548715820e+003;4.2370512695e+003;4.4483334961e+003;4.4494873047e+003;4.4493588867e+003;4.4539741211e+003;4.4692309570e+003;4.4567949219e+003;4.4626923828e+003;4.4626923828e+003;
2.9375000000e+000;4.3747436523e+003;4.4471796875e+003;4.4555126953e+003;4.4503847656e+003;4.4493588867e+003;4.2343588867e+003;4.4406411133e+003;4.4400000000e+003;4.4391025391e+003;4.4442309570e+003;4.4607690430e+003;4.4489741211e+003;4.4547436523e+003;4.4537177734e+003;
2.9453125000e+000;4.4025639648e+003;4.4758974609e+003;4.4755126953e+003;4.4746152344e+003;4.4839741211e+003;4.2692309570e+003;4.4735898438e+003;4.4621796875e+003;4.4546152344e+003;4.4615385742e+003;4.4821796875e+003;4.4701284180e+003;4.4780771484e+003;4.4765385742e+003;
2.9531250000e+000;4.4071796875e+003;4.4802563477e+003;4.4851284180e+003;4.4789741211e+003;4.4861538086e+003;4.2800000000e+003;4.4888461914e+003;4.4824360352e+003;4.4616665039e+003;4.4744873047e+003;4.4924360352e+003;4.4761538086e+003;4.4844873047e+003;4.4857690430e+003;
2.9609375000e+000;4.4052563477e+003;4.4812822266e+003;4.4838461914e+003;4.4817949219e+003;4.4860258789e+003;4.2803847656e+003;4.4892309570e+003;4.4806411133e+003;4.4591025391e+003;4.4706411133e+003;4.4902563477e+003;4.4735898438e+003;4.4839741211e+003;4.4821796875e+003;
2.9687500000e+000;4.3966665039e+003;4.4758974609e+003;4.4765385742e+003;4.4734614258e+003;4.4775639648e+003;4.2692309570e+003;4.4724360352e+003;4.4643588867e+003;4.4444873047e+003;4.4561538086e+003;4.4705126953e+003;4.4641025391e+003;4.4655126953e+003;4.4658974609e+003;
2.9765625000e+000;4.4389741211e+003;4.5138461914e+003;4.5107690430e+003;4.5043588867e+003;4.5094873047e+003;4.3015385742e+003;4.5092309570e+003;4.4903847656e+003;4.4711538086e+003;4.4858974609e+003;4.5058974609e+003;4.4907690430e+003;4.5023076172e+003;4.5034614258e+003;
2.9843750000e+000;4.4851284180e+003;4.5634614258e+003;4.5585898438e+003;4.5516665039e+003;4.5564101563e+003;4.3461538086e+003;4.5538461914e+003;4.5373076172e+003;4.5214101563e+003;4.5362822266e+003;4.5576923828e+003;4.5402563477e+003;4.5548715820e+003;4.5548715820e+003;
2.9921875000e+000;4.5012822266e+003;4.5825639648e+003;4.5785898438e+003;4.5707690430e+003;4.5738461914e+003;4.3626923828e+003;4.5682050781e+003;4.5548715820e+003;4.5421796875e+003;4.5571796875e+003;4.5788461914e+003;4.5623076172e+003;4.5755126953e+003;4.5761538086e+003;
3.0000000000e+000;4.4908974609e+003;4.5735898438e+003;4.5717949219e+003;4.5592309570e+003;4.5662822266e+003;4.3488461914e+003;4.5510258789e+003;4.5419228516e+003;4.5325639648e+003;4.5498715820e+003;4.5697436523e+003;4.5542309570e+003;4.5626923828e+003;4.5655126953e+003;
3.0078125000e+000;4.4774360352e+003;4.5637177734e+003;4.5633334961e+003;4.5478203125e+003;4.5526923828e+003;4.3326923828e+003;4.5338461914e+003;4.5365385742e+003;4.5341025391e+003;4.5467949219e+003;4.5602563477e+003;4.5456411133e+003;4.5539741211e+003;4.5576923828e+003;
3.0156250000e+000;4.4455126953e+003;4.5317949219e+003;4.5343588867e+003;4.5196152344e+003;4.5183334961e+003;4.3041025391e+003;4.5044873047e+003;4.5053847656e+003;4.5057690430e+003;4.5138461914e+003;4.5289741211e+003;4.5171796875e+003;4.5238461914e+003;4.5300000000e+003;
3.0234375000e+000;4.4332050781e+003;4.5178203125e+003;4.5229487305e+003;4.5069228516e+003;4.5046152344e+003;4.2929487305e+003;4.4928203125e+003;4.4910258789e+003;4.4928203125e+003;4.4980771484e+003;4.5158974609e+003;4.5055126953e+003;4.5112822266e+003;4.5187177734e+003;
3.0312500000e+000;4.4533334961e+003;4.5328203125e+003;4.5419228516e+003;4.5192309570e+003;4.5270512695e+003;4.3129487305e+003;4.5097436523e+003;4.5134614258e+003;4.5111538086e+003;4.5170512695e+003;4.5348715820e+003;4.5265385742e+003;4.5291025391e+003;4.5365385742e+003;
3.0390625000e+000;4.4374360352e+003;4.5156411133e+003;4.5276923828e+003;4.5039741211e+003;4.5134614258e+003;4.3019228516e+003;4.4961538086e+003;4.5038461914e+003;4.4978203125e+003;4.5026923828e+003;4.5180771484e+003;4.5124360352e+003;4.5124360352e+003;4.5212822266e+003;
3.0468750000e+000;4.4110258789e+003;4.4897436523e+003;4.5030771484e+003;4.4811538086e+003;4.4893588867e+003;4.2825639648e+003;4.4755126953e+003;4.4826923828e+003;4.4741025391e+003;4.4757690430e+003;4.4897436523e+003;4.4857690430e+003;4.4851284180e+003;4.4960258789e+003;
3.0546875000e+000;4.4044873047e+003;4.4857690430e+003;4.4970512695e+003;4.4779487305e+003;4.4856411133e+003;4.2817949219e+003;4.4752563477e+003;4.4789741211e+003;4.4698715820e+003;4.4683334961e+003;4.4819228516e+003;4.4764101563e+003;4.4789741211e+003;4.4901284180e+003;
3.0625000000e+000;4.3421796875e+003;4.4223076172e+003;4.4291025391e+003;4.4189741211e+003;4.4306411133e+003;4.2385898438e+003;4.4244873047e+003;4.4255126953e+003;4.4165385742e+003;4.4066665039e+003;4.4187177734e+003;4.4110258789e+003;4.4156411133e+003;4.4223076172e+003;
3.0703125000e+000;4.3405126953e+003;4.4094873047e+003;4.4141025391e+003;4.4044873047e+003;4.4134614258e+003;4.2371796875e+003;4.4233334961e+003;4.4150000000e+003;4.3961538086e+003;4.3905126953e+003;4.4035898438e+003;4.3962822266e+003;4.4021796875e+003;4.4097436523e+003;
3.0781250000e+000;4.3292309570e+003;4.3975639648e+003;4.3985898438e+003;4.3942309570e+003;4.4012822266e+003;4.2288461914e+003;4.4108974609e+003;4.4021796875e+003;4.3846152344e+003;4.3743588867e+003;4.3975639648e+003;4.3864101563e+003;4.3920512695e+003;4.3997436523e+003;
3.0859375000e+000;4.3351284180e+003;4.4028203125e+003;4.3998715820e+003;4.3998715820e+003;4.4050000000e+003;4.2312822266e+003;4.4141025391e+003;4.4071796875e+003;4.3903847656e+003;4.3803847656e+003;4.4019228516e+003;4.3882050781e+003;4.3970512695e+003;4.4030771484e+003;
3.0937500000e+000;4.2907690430e+003;4.3500000000e+003;4.3471796875e+003;4.3506411133e+003;4.3508974609e+003;4.1766665039e+003;4.3610258789e+003;4.3519228516e+003;4.3375639648e+003;4.3278203125e+003;4.3478203125e+003;4.3376923828e+003;4.3441025391e+003;4.3519228516e+003;
3.1015625000e+000;4.3188461914e+003;4.3788461914e+003;4.3741025391e+003;4.3766665039e+003;4.3792309570e+003;4.2007690430e+003;4.3852563477e+003;4.3756411133e+003;4.3629487305e+003;4.3537177734e+003;4.3744873047e+003;4.3667949219e+003;4.3726923828e+003;4.3810258789e+003;
3.1093750000e+000;4.3817949219e+003;4.4465385742e+003;4.4391025391e+003;4.4384614258e+003;4.4407690430e+003;4.2573076172e+003;4.4412822266e+003;4.4387177734e+003;4.4301284180e+003;4.4248715820e+003;4.4410258789e+003;4.4351284180e+003;4.4424360352e+003;4.4492309570e+003;
3.1171875000e+000;4.3748715820e+003;4.4392309570e+003;4.4347436523e+003;4.4316665039e+003;4.4302563477e+003;4.2474360352e+003;4.4315385742e+003;4.4323076172e+003;4.4260258789e+003;4.4210258789e+003;4.4355126953e+003;4.4287177734e+003;4.4378203125e+003;4.4424360352e+003;
3.1250000000e+000;4.3693588867e+003;4.4316665039e+003;4.4311538086e+003;4.4239741211e+003;4.4176923828e+003;4.2284614258e+003;4.4110258789e+003;4.4278203125e+003;4.4288461914e+003;4.4197436523e+003;4.4380771484e+003;4.4253847656e+003;4.4396152344e+003;4.4376923828e+003;
3.1328125000e+000;4.3341025391e+003;4.3873076172e+003;4.3950000000e+003;4.3884614258e+003;4.3860258789e+003;4.2006411133e+003;4.3802563477e+003;4.3958974609e+003;4.3948715820e+003;4.3848715820e+003;4.4029487305e+003;4.3910258789e+003;4.3983334961e+003;4.4025639648e+003;
3.1406250000e+000;4.3633334961e+003;4.4147436523e+003;4.4247436523e+003;4.4155126953e+003;4.4174360352e+003;4.2323076172e+003;4.4128203125e+003;4.4242309570e+003;4.4234614258e+003;4.4112822266e+003;4.4282050781e+003;4.4167949219e+003;4.4243588867e+003;4.4280771484e+003;
3.1484375000e+000;4.4030771484e+003;4.4565385742e+003;4.4662822266e+003;4.4547436523e+003;4.4594873047e+003;4.2751284180e+003;4.4547436523e+003;4.4664101563e+003;4.4670512695e+003;4.4524360352e+003;4.4675639648e+003;4.4569228516e+003;4.4643588867e+003;4.4671796875e+003;
3.1562500000e+000;4.3942309570e+003;4.4534614258e+003;4.4579487305e+003;4.4500000000e+003;4.4512822266e+003;4.2775639648e+003;4.4501284180e+003;4.4648715820e+003;4.4648715820e+003;4.4467949219e+003;4.4616665039e+003;4.4550000000e+003;4.4580771484e+003;4.4617949219e+003;
3.1640625000e+000;4.3665385742e+003;4.4255126953e+003;4.4253847656e+003;4.4228203125e+003;4.4226923828e+003;4.2534614258e+003;4.4244873047e+003;4.4356411133e+003;4.4329487305e+003;4.4148715820e+003;4.4312822266e+003;4.4252563477e+003;4.4278203125e+003;4.4321796875e+003;
3.1718750000e+000;4.3615385742e+003;4.4189741211e+003;4.4146152344e+003;4.4158974609e+003;4.4182050781e+003;4.2489741211e+003;4.4211538086e+003;4.4276923828e+003;4.4215385742e+003;4.4057690430e+003;4.4219228516e+003;4.4146152344e+003;4.4192309570e+003;4.4241025391e+003;
3.1796875000e+000;4.3146152344e+003;4.3634614258e+003;4.3702563477e+003;4.3638461914e+003;4.3725639648e+003;4.2125639648e+003;4.3867949219e+003;4.3826923828e+003;4.3689741211e+003;4.3539741211e+003;4.3712822266e+003;4.3617949219e+003;4.3698715820e+003;4.3743588867e+003;
3.1875000000e+000;4.3251284180e+003;4.3741025391e+003;4.3784614258e+003;4.3723076172e+003;4.3801284180e+003;4.2182050781e+003;4.3942309570e+003;4.3887177734e+003;4.3739741211e+003;4.3610258789e+003;4.3798715820e+003;4.3715385742e+003;4.3784614258e+003;4.3814101563e+003;
3.1953125000e+000;4.2873076172e+003;4.3307690430e+003;4.3361538086e+003;4.3338461914e+003;4.3367949219e+003;4.1783334961e+003;4.3512822266e+003;4.3428203125e+003;4.3193588867e+003;4.3137177734e+003;4.3302563477e+003;4.3278203125e+003;4.3317949219e+003;4.3387177734e+003;
3.2031250000e+000;4.3896152344e+003;4.4320512695e+003;4.4312822266e+003;4.4271796875e+003;4.4375639648e+003;4.2653847656e+003;4.4373076172e+003;4.4284614258e+003;4.4137177734e+003;4.4128203125e+003;4.4376923828e+003;4.4265385742e+003;4.4396152344e+003;4.4416665039e+003;
3.2109375000e+000;4.3937177734e+003;4.4369228516e+003;4.4382050781e+003;4.4311538086e+003;4.4380771484e+003;4.2643588867e+003;4.4358974609e+003;4.4298715820e+003;4.4193588867e+003;4.4198715820e+003;4.4430771484e+003;4.4350000000e+003;4.4462822266e+003;4.4455126953e+003;
3.2187500000e+000;4.4201284180e+003;4.4628203125e+003;4.4644873047e+003;4.4508974609e+003;4.4542309570e+003;4.2733334961e+003;4.4475639648e+003;4.4511538086e+003;4.4480771484e+003;4.4470512695e+003;4.4635898438e+003;4.4603847656e+003;4.4682050781e+003;4.4650000000e+003;
3.2265625000e+000;4.4378203125e+003;4.4805126953e+003;4.4814101563e+003;4.4664101563e+003;4.4700000000e+003;4.2876923828e+003;4.4617949219e+003;4.4724360352e+003;4.4705126953e+003;4.4674360352e+003;4.4846152344e+003;4.4785898438e+003;4.4856411133e+003;4.4841025391e+003;
3.2343750000e+000;4.4112822266e+003;4.4553847656e+003;4.4587177734e+003;4.4453847656e+003;4.4419228516e+003;4.2639741211e+003;4.4392309570e+003;4.4543588867e+003;4.4526923828e+003;4.4437177734e+003;4.4679487305e+003;4.4560258789e+003;4.4633334961e+003;4.4620512695e+003;
3.2421875000e+000;4.4088461914e+003;4.4547436523e+003;4.4587177734e+003;4.4453847656e+003;4.4407690430e+003;4.2632050781e+003;4.4407690430e+003;4.4542309570e+003;4.4523076172e+003;4.4421796875e+003;4.4691025391e+003;4.4544873047e+003;4.4639741211e+003;4.4602563477e+003;
3.2500000000e+000;4.3937177734e+003;4.4371796875e+003;4.4474360352e+003;4.4301284180e+003;4.4302563477e+003;4.2585898438e+003;4.4305126953e+003;4.4483334961e+003;4.4421796875e+003;4.4316665039e+003;4.4475639648e+003;4.4421796875e+003;4.4443588867e+003;4.4442309570e+003;
3.2578125000e+000;4.3569228516e+003;4.3989741211e+003;4.4112822266e+003;4.3960258789e+003;4.3958974609e+003;4.2301284180e+003;4.3985898438e+003;4.4135898438e+003;4.4048715820e+003;4.3902563477e+003;4.4030771484e+003;4.4035898438e+003;4.4029487305e+003;4.4056411133e+003;
3.2656250000e+000;4.3758974609e+003;4.4241025391e+003;4.4321796875e+003;4.4167949219e+003;4.4244873047e+003;4.2614101563e+003;4.4303847656e+003;4.4353847656e+003;4.4250000000e+003;4.4044873047e+003;4.4183334961e+003;4.4169228516e+003;4.4232050781e+003;4.4234614258e+003;
3.2734375000e+000;4.4153847656e+003;4.4678203125e+003;4.4733334961e+003;4.4546152344e+003;4.4684614258e+003;4.3053847656e+003;4.4753847656e+003;4.4782050781e+003;4.4675639648e+003;4.4485898438e+003;4.4638461914e+003;4.4567949219e+003;4.4669228516e+003;4.4657690430e+003;
3.2812500000e+000;4.4538461914e+003;4.5030771484e+003;4.5110258789e+003;4.4914101563e+003;4.5105126953e+003;4.3528203125e+003;4.5169228516e+003;4.5134614258e+003;4.5020512695e+003;4.4925639648e+003;4.5096152344e+003;4.4942309570e+003;4.5067949219e+003;4.5102563477e+003;
3.2890625000e+000;4.4703847656e+003;4.5183334961e+003;4.5271796875e+003;4.5083334961e+003;4.5285898438e+003;4.3698715820e+003;4.5306411133e+003;4.5266665039e+003;4.5174360352e+003;4.5096152344e+003;4.5241025391e+003;4.5102563477e+003;4.5244873047e+003;4.5267949219e+003;
3.2968750000e+000;4.4757690430e+003;4.5244873047e+003;4.5346152344e+003;4.5150000000e+003;4.5365385742e+003;4.3773076172e+003;4.5347436523e+003;4.5321796875e+003;4.5250000000e+003;4.5187177734e+003;4.5291025391e+003;4.5185898438e+003;4.5330771484e+003;4.5332050781e+003;
3.3046875000e+000;4.4574360352e+003;4.5080771484e+003;4.5197436523e+003;4.4987177734e+003;4.5208974609e+003;4.3628203125e+003;4.5183334961e+003;4.5160258789e+003;4.5089741211e+003;4.5044873047e+003;4.5117949219e+003;4.5051284180e+003;4.5176923828e+003;4.5169228516e+003;
3.3125000000e+000;4.4780771484e+003;4.5328203125e+003;4.5383334961e+003;4.5167949219e+003;4.5328203125e+003;4.3685898438e+003;4.5294873047e+003;4.5193588867e+003;4.5110258789e+003;4.5207690430e+003;4.5366665039e+003;4.5194873047e+003;4.5374360352e+003;4.5405126953e+003;
3.3203125000e+000;4.4951284180e+003;4.5526923828e+003;4.5526923828e+003;4.5311538086e+003;4.5473076172e+003;4.3771796875e+003;4.5338461914e+003;4.5303847656e+003;4.5210258789e+003;4.5316665039e+003;4.5514101563e+003;4.5410258789e+003;4.5512822266e+003;4.5550000000e+003;
3.3281250000e+000;4.5303847656e+003;4.5934614258e+003;4.5919228516e+003;4.5680771484e+003;4.5858974609e+003;4.4083334961e+003;4.5689741211e+003;4.5711538086e+003;4.5611538086e+003;4.5712822266e+003;4.5920512695e+003;4.5800000000e+003;4.5916665039e+003;4.5946152344e+003;
3.3359375000e+000;4.5267949219e+003;4.5962822266e+003;4.5953847656e+003;4.5743588867e+003;4.5873076172e+003;4.4055126953e+003;4.5666665039e+003;4.5778203125e+003;4.5712822266e+003;4.5761538086e+003;4.5961538086e+003;4.5792309570e+003;4.5942309570e+003;4.5967949219e+003;
3.3437500000e+000;4.5571796875e+003;4.6362822266e+003;4.6188461914e+003;4.6046152344e+003;4.6221796875e+003;4.4408974609e+003;4.5980771484e+003;4.6217949219e+003;4.6157690430e+003;4.6180771484e+003;4.6291025391e+003;4.6107690430e+003;4.6234614258e+003;4.6205126953e+003;
3.3515625000e+000;4.5294873047e+003;4.6096152344e+003;4.5948715820e+003;4.5767949219e+003;4.5948715820e+003;4.4171796875e+003;4.5753847656e+003;4.5961538086e+003;4.5889741211e+003;4.5900000000e+003;4.6029487305e+003;4.5856411133e+003;4.5957690430e+003;4.5952563477e+003;
3.3593750000e+000;4.4991025391e+003;4.5780771484e+003;4.5692309570e+003;4.5439741211e+003;4.5658974609e+003;4.3941025391e+003;4.5501284180e+003;4.5603847656e+003;4.5551284180e+003;4.5538461914e+003;4.5705126953e+003;4.5485898438e+003;4.5637177734e+003;4.5648715820e+003;
3.3671875000e+000;4.5007690430e+003;4.5782050781e+003;4.5716665039e+003;4.5455126953e+003;4.5683334961e+003;4.3997436523e+003;4.5514101563e+003;4.5624360352e+003;4.5584614258e+003;4.5567949219e+003;4.5721796875e+003;4.5462822266e+003;4.5661538086e+003;4.5658974609e+003;
3.3750000000e+000;4.4426923828e+003;4.5171796875e+003;4.5144873047e+003;4.4964101563e+003;4.5148715820e+003;4.3552563477e+003;4.5060258789e+003;4.5082050781e+003;4.5074360352e+003;4.4948715820e+003;4.5152563477e+003;4.4856411133e+003;4.5092309570e+003;4.5037177734e+003;
3.3828125000e+000;4.4564101563e+003;4.5328203125e+003;4.5265385742e+003;4.5098715820e+003;4.5319228516e+003;4.3705126953e+003;4.5239741211e+003;4.5200000000e+003;4.5198715820e+003;4.5075639648e+003;4.5282050781e+003;4.4991025391e+003;4.5221796875e+003;4.5155126953e+003;
3.3906250000e+000;4.4643588867e+003;4.5434614258e+003;4.5355126953e+003;4.5174360352e+003;4.5450000000e+003;4.3900000000e+003;4.5376923828e+003;4.5389741211e+003;4.5338461914e+003;4.5285898438e+003;4.5411538086e+003;4.5133334961e+003;4.5332050781e+003;4.5267949219e+003;
3.3984375000e+000;4.4226923828e+003;4.4991025391e+003;4.4955126953e+003;4.4776923828e+003;4.5033334961e+003;4.3578203125e+003;4.5007690430e+003;4.5053847656e+003;4.4971796875e+003;4.4911538086e+003;4.5015385742e+003;4.4742309570e+003;4.4929487305e+003;4.4871796875e+003;
3.4062500000e+000;4.4116665039e+003;4.4753847656e+003;4.4801284180e+003;4.4625639648e+003;4.4835898438e+003;4.3405126953e+003;4.4867949219e+003;4.4901284180e+003;4.4846152344e+003;4.4716665039e+003;4.4846152344e+003;4.4566665039e+003;4.4725639648e+003;4.4703847656e+003;
3.4140625000e+000;4.4332050781e+003;4.4965385742e+003;4.5014101563e+003;4.4820512695e+003;4.5019228516e+003;4.3548715820e+003;4.5015385742e+003;4.5076923828e+003;4.5034614258e+003;4.4941025391e+003;4.5062822266e+003;4.4794873047e+003;4.4919228516e+003;4.4916665039e+003;
3.4218750000e+000;4.4351284180e+003;4.4997436523e+003;4.5039741211e+003;4.4837177734e+003;4.5010258789e+003;4.3521796875e+003;4.4987177734e+003;4.5061538086e+003;4.5016665039e+003;4.4965385742e+003;4.5088461914e+003;4.4837177734e+003;4.4941025391e+003;4.4948715820e+003;
3.4296875000e+000;4.4764101563e+003;4.5483334961e+003;4.5460258789e+003;4.5252563477e+003;4.5273076172e+003;4.3719228516e+003;4.5223076172e+003;4.5357690430e+003;4.5344873047e+003;4.5342309570e+003;4.5520512695e+003;4.5314101563e+003;4.5435898438e+003;4.5492309570e+003;
