Time (s);AF3;F7;F3;FC5;T7;P7;O1;O2;P8;T8;FC6;F4;F8;AF4;Sampling Rate
0.0000000000e+000;4.3000000000e+003;4.3869228516e+003;4.3732050781e+003;4.3235898438e+003;4.3846152344e+003;4.3766665039e+003;4.3937177734e+003;4.3751284180e+003;4.3814101563e+003;4.4157690430e+003;4.3765385742e+003;4.3876923828e+003;4.3879487305e+003;4.3900000000e+003;128
7.8125000000e-003;4.3965385742e+003;4.4843588867e+003;4.4712822266e+003;4.4114101563e+003;4.4785898438e+003;4.4639741211e+003;4.4870512695e+003;4.4632050781e+003;4.4651284180e+003;4.5053847656e+003;4.4802563477e+003;4.4901284180e+003;4.4867949219e+003;4.4914101563e+003;
1.5625000000e-002;4.4684614258e+003;4.5579487305e+003;4.5433334961e+003;4.4793588867e+003;4.5461538086e+003;4.5276923828e+003;4.5533334961e+003;4.5317949219e+003;4.5264101563e+003;4.5712822266e+003;4.5517949219e+003;4.5653847656e+003;4.5508974609e+003;4.5621796875e+003;
2.3437500000e-002;4.6003847656e+003;4.6979487305e+003;4.6778203125e+003;4.6120512695e+003;4.6723076172e+003;4.6414101563e+003;4.6733334961e+003;4.6767949219e+003;4.6616665039e+003;4.7147436523e+003;4.6865385742e+003;4.7062822266e+003;4.6852563477e+003;4.6979487305e+003;
3.1250000000e-002;4.5796152344e+003;4.6797436523e+003;4.6597436523e+003;4.5969228516e+003;4.6548715820e+003;4.6235898438e+003;4.6551284180e+003;4.6651284180e+003;4.6529487305e+003;4.7019228516e+003;4.6705126953e+003;4.6885898438e+003;4.6724360352e+003;4.6803847656e+003;
3.9062500000e-002;4.6332050781e+003;4.7466665039e+003;4.7138461914e+003;4.6552563477e+003;4.7291025391e+003;4.6858974609e+003;4.7142309570e+003;4.7234614258e+003;4.7212822266e+003;4.7605126953e+003;4.7288461914e+003;4.7391025391e+003;4.7287177734e+003;4.7321796875e+003;
4.6875000000e-002;4.7991025391e+003;4.9417949219e+003;4.8867949219e+003;4.8294873047e+003;4.9129487305e+003;4.8546152344e+003;4.8847436523e+003;4.9165385742e+003;4.9206411133e+003;4.9656411133e+003;4.9155126953e+003;4.9138461914e+003;4.9166665039e+003;4.9134614258e+003;
5.4687500000e-002;4.7985898438e+003;4.9469228516e+003;4.8896152344e+003;4.8326923828e+003;4.9165385742e+003;4.8571796875e+003;4.8848715820e+003;4.9247436523e+003;4.9306411133e+003;4.9743588867e+003;4.9216665039e+003;4.9164101563e+003;4.9234614258e+003;4.9156411133e+003;
6.2500000000e-002;4.7937177734e+003;4.9458974609e+003;4.8882050781e+003;4.8302563477e+003;4.9161538086e+003;4.8555126953e+003;4.8787177734e+003;4.9221796875e+003;4.9315385742e+003;4.9738461914e+003;4.9203847656e+003;4.9126923828e+003;4.9207690430e+003;4.9106411133e+003;
7.0312500000e-002;4.7993588867e+003;4.9561538086e+003;4.9039741211e+003;4.8385898438e+003;4.9284614258e+003;4.8683334961e+003;4.8830771484e+003;4.9188461914e+003;4.9366665039e+003;4.9806411133e+003;4.9252563477e+003;4.9216665039e+003;4.9208974609e+003;4.9178203125e+003;
7.8125000000e-002;4.8589741211e+003;5.0210258789e+003;4.9721796875e+003;4.9001284180e+003;4.9937177734e+003;4.9425639648e+003;4.9585898438e+003;4.9703847656e+003;4.9897436523e+003;5.0408974609e+003;4.9924360352e+003;4.9941025391e+003;4.9961538086e+003;4.9882050781e+003;
8.5937500000e-002;4.8787177734e+003;5.0450000000e+003;4.9950000000e+003;4.9210258789e+003;5.0205126953e+003;4.9687177734e+003;4.9851284180e+003;4.9947436523e+003;5.0119228516e+003;5.0652563477e+003;5.0215385742e+003;5.0196152344e+003;5.0237177734e+003;5.0094873047e+003;
9.3750000000e-002;4.8737177734e+003;5.0435898438e+003;4.9965385742e+003;4.9188461914e+003;5.0235898438e+003;4.9705126953e+003;4.9884614258e+003;4.9951284180e+003;5.0101284180e+003;5.0641025391e+003;5.0250000000e+003;5.0205126953e+003;5.0212822266e+003;5.0061538086e+003;
1.0156250000e-001;4.8473076172e+003;5.0191025391e+003;4.9782050781e+003;4.8960258789e+003;5.0032050781e+003;4.9502563477e+003;4.9721796875e+003;4.9720512695e+003;4.9847436523e+003;5.0379487305e+003;5.0028203125e+003;4.9985898438e+003;4.9923076172e+003;4.9821796875e+003;
1.0937500000e-001;4.8278203125e+003;5.0017949219e+003;4.9664101563e+003;4.8828203125e+003;4.9797436523e+003;4.9401284180e+003;4.9706411133e+003;4.9580771484e+003;4.9535898438e+003;5.0137177734e+003;4.9847436523e+003;4.9893588867e+003;4.9796152344e+003;4.9720512695e+003;
1.1718750000e-001;4.8138461914e+003;4.9870512695e+003;4.9555126953e+003;4.8737177734e+003;4.9657690430e+003;4.9282050781e+003;4.9574360352e+003;4.9478203125e+003;4.9371796875e+003;5.0001284180e+003;4.9735898438e+003;4.9807690430e+003;4.9714101563e+003;4.9565385742e+003;
1.2500000000e-001;4.7605126953e+003;4.9271796875e+003;4.9102563477e+003;4.8247436523e+003;4.9107690430e+003;4.8656411133e+003;4.9012822266e+003;4.8944873047e+003;4.8719228516e+003;4.9303847656e+003;4.9166665039e+003;4.9244873047e+003;4.9110258789e+003;4.8937177734e+003;
1.3281250000e-001;4.7153847656e+003;4.8802563477e+003;4.8642309570e+003;4.7817949219e+003;4.8574360352e+003;4.8167949219e+003;4.8538461914e+003;4.8683334961e+003;4.8571796875e+003;4.8951284180e+003;4.8765385742e+003;4.8924360352e+003;4.8683334961e+003;4.8541025391e+003;
1.4062500000e-001;4.7101284180e+003;4.8764101563e+003;4.8588461914e+003;4.7794873047e+003;4.8537177734e+003;4.8126923828e+003;4.8478203125e+003;4.8701284180e+003;4.8652563477e+003;4.8926923828e+003;4.8728203125e+003;4.8887177734e+003;4.8638461914e+003;4.8457690430e+003;
1.4843750000e-001;4.7535898438e+003;4.9203847656e+003;4.8991025391e+003;4.8176923828e+003;4.9021796875e+003;4.8589741211e+003;4.8871796875e+003;4.9228203125e+003;4.9232050781e+003;4.9375639648e+003;4.9107690430e+003;4.9155126953e+003;4.9005126953e+003;4.8792309570e+003;
1.5625000000e-001;4.7430771484e+003;4.9084614258e+003;4.8894873047e+003;4.8066665039e+003;4.8906411133e+003;4.8491025391e+003;4.8750000000e+003;4.9133334961e+003;4.9143588867e+003;4.9288461914e+003;4.8973076172e+003;4.9024360352e+003;4.8858974609e+003;4.8693588867e+003;
1.6406250000e-001;4.7158974609e+003;4.8808974609e+003;4.8642309570e+003;4.7823076172e+003;4.8629487305e+003;4.8223076172e+003;4.8456411133e+003;4.8861538086e+003;4.8897436523e+003;4.9038461914e+003;4.8675639648e+003;4.8753847656e+003;4.8553847656e+003;4.8417949219e+003;
1.7187500000e-001;4.6517949219e+003;4.8201284180e+003;4.8021796875e+003;4.7280771484e+003;4.8024360352e+003;4.7615385742e+003;4.7796152344e+003;4.8155126953e+003;4.8264101563e+003;4.8389741211e+003;4.7996152344e+003;4.8102563477e+003;4.7889741211e+003;4.7701284180e+003;
1.7968750000e-001;4.6561538086e+003;4.8273076172e+003;4.7953847656e+003;4.7306411133e+003;4.8126923828e+003;4.7735898438e+003;4.7880771484e+003;4.7928203125e+003;4.8042309570e+003;4.8214101563e+003;4.7961538086e+003;4.7974360352e+003;4.7900000000e+003;4.7635898438e+003;
1.8750000000e-001;4.7076923828e+003;4.8788461914e+003;4.8453847656e+003;4.7779487305e+003;4.8661538086e+003;4.8234614258e+003;4.8403847656e+003;4.8370512695e+003;4.8478203125e+003;4.8685898438e+003;4.8425639648e+003;4.8434614258e+003;4.8393588867e+003;4.8153847656e+003;
1.9531250000e-001;4.7692309570e+003;4.9403847656e+003;4.9100000000e+003;4.8362822266e+003;4.9298715820e+003;4.8819228516e+003;4.9020512695e+003;4.8948715820e+003;4.9041025391e+003;4.9293588867e+003;4.8983334961e+003;4.9041025391e+003;4.8985898438e+003;4.8796152344e+003;
2.0312500000e-001;4.8162822266e+003;4.9875639648e+003;4.9633334961e+003;4.8820512695e+003;4.9783334961e+003;4.9264101563e+003;4.9484614258e+003;4.9411538086e+003;4.9464101563e+003;4.9766665039e+003;4.9407690430e+003;4.9547436523e+003;4.9432050781e+003;4.9303847656e+003;
2.1093750000e-001;4.6937177734e+003;4.8651284180e+003;4.8461538086e+003;4.7707690430e+003;4.8538461914e+003;4.8085898438e+003;4.8346152344e+003;4.8212822266e+003;4.8046152344e+003;4.8397436523e+003;4.8293588867e+003;4.8384614258e+003;4.8176923828e+003;4.8052563477e+003;
2.1875000000e-001;4.6543588867e+003;4.8206411133e+003;4.8085898438e+003;4.7250000000e+003;4.8070512695e+003;4.7544873047e+003;4.7852563477e+003;4.7792309570e+003;4.7437177734e+003;4.7932050781e+003;4.7916665039e+003;4.8019228516e+003;4.7860258789e+003;4.7826923828e+003;
2.2656250000e-001;4.6082050781e+003;4.7757690430e+003;4.7619228516e+003;4.6817949219e+003;4.7606411133e+003;4.7088461914e+003;4.7357690430e+003;4.7385898438e+003;4.6991025391e+003;4.7507690430e+003;4.7524360352e+003;4.7647436523e+003;4.7447436523e+003;4.7426923828e+003;
2.3437500000e-001;4.4406411133e+003;4.6041025391e+003;4.5898715820e+003;4.5250000000e+003;4.5880771484e+003;4.5487177734e+003;4.5751284180e+003;4.5846152344e+003;4.5484614258e+003;4.5885898438e+003;4.5912822266e+003;4.6052563477e+003;4.5860258789e+003;4.5782050781e+003;
2.4218750000e-001;4.4324360352e+003;4.5708974609e+003;4.5682050781e+003;4.5014101563e+003;4.5612822266e+003;4.5247436523e+003;4.5558974609e+003;4.5823076172e+003;4.5806411133e+003;4.5879487305e+003;4.5665385742e+003;4.5726923828e+003;4.5615385742e+003;4.5589741211e+003;
2.5000000000e-001;4.4106411133e+003;4.5491025391e+003;4.5444873047e+003;4.4791025391e+003;4.5416665039e+003;4.5085898438e+003;4.5339741211e+003;4.5606411133e+003;4.5650000000e+003;4.5670512695e+003;4.5470512695e+003;4.5523076172e+003;4.5344873047e+003;4.5365385742e+003;
2.5781250000e-001;4.3739741211e+003;4.5142309570e+003;4.5037177734e+003;4.4433334961e+003;4.5135898438e+003;4.4896152344e+003;4.5064101563e+003;4.5220512695e+003;4.5346152344e+003;4.5300000000e+003;4.5096152344e+003;4.5106411133e+003;4.4969228516e+003;4.4969228516e+003;
2.6562500000e-001;4.3715385742e+003;4.5107690430e+003;4.5005126953e+003;4.4392309570e+003;4.5142309570e+003;4.4919228516e+003;4.5069228516e+003;4.5187177734e+003;4.5341025391e+003;4.5257690430e+003;4.5034614258e+003;4.5032050781e+003;4.4966665039e+003;4.4943588867e+003;
2.7343750000e-001;4.3724360352e+003;4.5043588867e+003;4.4980771484e+003;4.4321796875e+003;4.5147436523e+003;4.4885898438e+003;4.5041025391e+003;4.5060258789e+003;4.5246152344e+003;4.5053847656e+003;4.4924360352e+003;4.4942309570e+003;4.4903847656e+003;4.4946152344e+003;
2.8125000000e-001;4.4142309570e+003;4.5466665039e+003;4.5351284180e+003;4.4721796875e+003;4.5564101563e+003;4.5298715820e+003;4.5469228516e+003;4.5428203125e+003;4.5592309570e+003;4.5455126953e+003;4.5324360352e+003;4.5325639648e+003;4.5288461914e+003;4.5324360352e+003;
2.8906250000e-001;4.4665385742e+003;4.6005126953e+003;4.5832050781e+003;4.5226923828e+003;4.6088461914e+003;4.5846152344e+003;4.6026923828e+003;4.5930771484e+003;4.6065385742e+003;4.6015385742e+003;4.5848715820e+003;4.5820512695e+003;4.5805126953e+003;4.5808974609e+003;
2.9687500000e-001;4.5170512695e+003;4.6508974609e+003;4.6326923828e+003;4.5684614258e+003;4.6569228516e+003;4.6383334961e+003;4.6583334961e+003;4.6425639648e+003;4.6525639648e+003;4.6558974609e+003;4.6385898438e+003;4.6319228516e+003;4.6364101563e+003;4.6320512695e+003;
3.0468750000e-001;4.5273076172e+003;4.6592309570e+003;4.6441025391e+003;4.5753847656e+003;4.6638461914e+003;4.6429487305e+003;4.6662822266e+003;4.6511538086e+003;4.6596152344e+003;4.6619228516e+003;4.6505126953e+003;4.6429487305e+003;4.6502563477e+003;4.6467949219e+003;
3.1250000000e-001;4.5532050781e+003;4.6842309570e+003;4.6705126953e+003;4.5980771484e+003;4.6864101563e+003;4.6597436523e+003;4.6878203125e+003;4.6765385742e+003;4.6815385742e+003;4.6852563477e+003;4.6789741211e+003;4.6711538086e+003;4.6797436523e+003;4.6783334961e+003;
3.2031250000e-001;4.6232050781e+003;4.7660258789e+003;4.7415385742e+003;4.6655126953e+003;4.7546152344e+003;4.7146152344e+003;4.7462822266e+003;4.7567949219e+003;4.7350000000e+003;4.7701284180e+003;4.7652563477e+003;4.7558974609e+003;4.7666665039e+003;4.7546152344e+003;
3.2812500000e-001;4.5555126953e+003;4.6850000000e+003;4.6774360352e+003;4.5942309570e+003;4.6742309570e+003;4.6258974609e+003;4.6620512695e+003;4.6847436523e+003;4.6600000000e+003;4.6901284180e+003;4.6993588867e+003;4.6920512695e+003;4.6846152344e+003;4.6887177734e+003;
3.3593750000e-001;4.5362822266e+003;4.6644873047e+003;4.6582050781e+003;4.5797436523e+003;4.6539741211e+003;4.6052563477e+003;4.6429487305e+003;4.6662822266e+003;4.6426923828e+003;4.6720512695e+003;4.6787177734e+003;4.6743588867e+003;4.6600000000e+003;4.6696152344e+003;
3.4375000000e-001;4.5101284180e+003;4.6465385742e+003;4.6301284180e+003;4.5653847656e+003;4.6382050781e+003;4.5952563477e+003;4.6207690430e+003;4.6491025391e+003;4.6425639648e+003;4.6620512695e+003;4.6523076172e+003;4.6407690430e+003;4.6489741211e+003;4.6347436523e+003;
3.5156250000e-001;4.4996152344e+003;4.6333334961e+003;4.6191025391e+003;4.5524360352e+003;4.6258974609e+003;4.5879487305e+003;4.6091025391e+003;4.6384614258e+003;4.6378203125e+003;4.6510258789e+003;4.6387177734e+003;4.6252563477e+003;4.6391025391e+003;4.6208974609e+003;
3.5937500000e-001;4.5460258789e+003;4.6751284180e+003;4.6601284180e+003;4.5906411133e+003;4.6693588867e+003;4.6335898438e+003;4.6552563477e+003;4.6761538086e+003;4.6833334961e+003;4.6878203125e+003;4.6761538086e+003;4.6620512695e+003;4.6706411133e+003;4.6623076172e+003;
3.6718750000e-001;4.6156411133e+003;4.7487177734e+003;4.7274360352e+003;4.6594873047e+003;4.7443588867e+003;4.7057690430e+003;4.7294873047e+003;4.7434614258e+003;4.7529487305e+003;4.7565385742e+003;4.7450000000e+003;4.7305126953e+003;4.7350000000e+003;4.7312822266e+003;
3.7500000000e-001;4.8530771484e+003;5.0058974609e+003;4.9728203125e+003;4.9019228516e+003;5.0103847656e+003;4.9674360352e+003;4.9901284180e+003;4.9926923828e+003;5.0011538086e+003;5.0089741211e+003;4.9924360352e+003;4.9747436523e+003;4.9847436523e+003;4.9717949219e+003;
3.8281250000e-001;4.8993588867e+003;5.0558974609e+003;5.0229487305e+003;4.9460258789e+003;5.0625639648e+003;5.0180771484e+003;5.0403847656e+003;5.0447436523e+003;5.0521796875e+003;5.0621796875e+003;5.0424360352e+003;5.0220512695e+003;5.0353847656e+003;5.0192309570e+003;
3.9062500000e-001;4.8955126953e+003;5.0565385742e+003;5.0247436523e+003;4.9400000000e+003;5.0597436523e+003;5.0165385742e+003;5.0441025391e+003;5.0528203125e+003;5.0575639648e+003;5.0710258789e+003;5.0487177734e+003;5.0276923828e+003;5.0337177734e+003;5.0215385742e+003;
3.9843750000e-001;4.8665385742e+003;5.0280771484e+003;4.9978203125e+003;4.9126923828e+003;5.0278203125e+003;4.9878203125e+003;5.0205126953e+003;5.0279487305e+003;5.0293588867e+003;5.0442309570e+003;5.0241025391e+003;5.0067949219e+003;5.0051284180e+003;4.9964101563e+003;
4.0625000000e-001;4.8697436523e+003;5.0391025391e+003;5.0065385742e+003;4.9201284180e+003;5.0366665039e+003;4.9896152344e+003;5.0242309570e+003;5.0346152344e+003;5.0247436523e+003;5.0476923828e+003;5.0300000000e+003;5.0189741211e+003;5.0200000000e+003;5.0082050781e+003;
4.1406250000e-001;4.8753847656e+003;5.0484614258e+003;5.0143588867e+003;4.9262822266e+003;5.0453847656e+003;4.9938461914e+003;5.0250000000e+003;5.0398715820e+003;5.0276923828e+003;5.0534614258e+003;5.0352563477e+003;5.0230771484e+003;5.0283334961e+003;5.0153847656e+003;
4.2187500000e-001;4.8700000000e+003;5.0439741211e+003;5.0112822266e+003;4.9206411133e+003;5.0388461914e+003;4.9855126953e+003;5.0152563477e+003;5.0317949219e+003;5.0176923828e+003;5.0448715820e+003;5.0294873047e+003;5.0176923828e+003;5.0217949219e+003;5.0107690430e+003;
4.2968750000e-001;4.8338461914e+003;5.0079487305e+003;4.9834614258e+003;4.8823076172e+003;4.9876923828e+003;4.9235898438e+003;4.9598715820e+003;4.9908974609e+003;4.9751284180e+003;5.0111538086e+003;5.0112822266e+003;4.9980771484e+003;4.9943588867e+003;4.9907690430e+003;
4.3750000000e-001;4.8034614258e+003;4.9802563477e+003;4.9537177734e+003;4.8569228516e+003;4.9616665039e+003;4.8993588867e+003;4.9302563477e+003;4.9642309570e+003;4.9510258789e+003;4.9870512695e+003;4.9837177734e+003;4.9653847656e+003;4.9703847656e+003;4.9615385742e+003;
4.4531250000e-001;4.8589741211e+003;5.0411538086e+003;5.0069228516e+003;4.9119228516e+003;5.0221796875e+003;4.9598715820e+003;4.9829487305e+003;5.0251284180e+003;5.0112822266e+003;5.0434614258e+003;5.0339741211e+003;5.0121796875e+003;5.0232050781e+003;5.0125639648e+003;
4.5312500000e-001;4.9497436523e+003;5.1321796875e+003;5.1021796875e+003;5.0001284180e+003;5.1146152344e+003;5.0412822266e+003;5.0776923828e+003;5.1166665039e+003;5.1048715820e+003;5.1296152344e+003;5.1264101563e+003;5.1097436523e+003;5.1097436523e+003;5.1106411133e+003;
4.6093750000e-001;4.9496152344e+003;5.1332050781e+003;5.1057690430e+003;5.0019228516e+003;5.1192309570e+003;5.0480771484e+003;5.0848715820e+003;5.1198715820e+003;5.1138461914e+003;5.1369228516e+003;5.1287177734e+003;5.1117949219e+003;5.1143588867e+003;5.1142309570e+003;
4.6875000000e-001;4.7621796875e+003;4.9534614258e+003;4.9287177734e+003;4.8278203125e+003;4.9471796875e+003;4.9028203125e+003;4.9251284180e+003;4.9441025391e+003;4.9462822266e+003;4.9582050781e+003;4.9442309570e+003;4.9350000000e+003;4.9337177734e+003;4.9315385742e+003;
4.7656250000e-001;4.7101284180e+003;4.8989741211e+003;4.8748715820e+003;4.7782050781e+003;4.8933334961e+003;4.8546152344e+003;4.8766665039e+003;4.8891025391e+003;4.8887177734e+003;4.8947436523e+003;4.8894873047e+003;4.8803847656e+003;4.8764101563e+003;4.8750000000e+003;
4.8437500000e-001;4.6944873047e+003;4.8733334961e+003;4.8538461914e+003;4.7644873047e+003;4.8670512695e+003;4.8330771484e+003;4.8605126953e+003;4.8662822266e+003;4.8593588867e+003;4.8620512695e+003;4.8648715820e+003;4.8517949219e+003;4.8485898438e+003;4.8494873047e+003;
4.9218750000e-001;4.6957690430e+003;4.8705126953e+003;4.8542309570e+003;4.7667949219e+003;4.8642309570e+003;4.8320512695e+003;4.8605126953e+003;4.8658974609e+003;4.8573076172e+003;4.8621796875e+003;4.8592309570e+003;4.8475639648e+003;4.8456411133e+003;4.8494873047e+003;
5.0000000000e-001;4.7019228516e+003;4.8702563477e+003;4.8551284180e+003;4.7706411133e+003;4.8710258789e+003;4.8326923828e+003;4.8584614258e+003;4.8650000000e+003;4.8570512695e+003;4.8638461914e+003;4.8533334961e+003;4.8470512695e+003;4.8448715820e+003;4.8578203125e+003;
5.0781250000e-001;4.7046152344e+003;4.8703847656e+003;4.8565385742e+003;4.7715385742e+003;4.8735898438e+003;4.8343588867e+003;4.8600000000e+003;4.8676923828e+003;4.8596152344e+003;4.8652563477e+003;4.8607690430e+003;4.8511538086e+003;4.8473076172e+003;4.8598715820e+003;
5.1562500000e-001;4.6924360352e+003;4.8555126953e+003;4.8451284180e+003;4.7584614258e+003;4.8592309570e+003;4.8228203125e+003;4.8492309570e+003;4.8587177734e+003;4.8496152344e+003;4.8546152344e+003;4.8546152344e+003;4.8419228516e+003;4.8366665039e+003;4.8470512695e+003;
5.2343750000e-001;4.6758974609e+003;4.8370512695e+003;4.8301284180e+003;4.7405126953e+003;4.8391025391e+003;4.8067949219e+003;4.8346152344e+003;4.8461538086e+003;4.8360258789e+003;4.8416665039e+003;4.8417949219e+003;4.8278203125e+003;4.8233334961e+003;4.8302563477e+003;
5.3125000000e-001;4.8491025391e+003;5.0074360352e+003;4.9925639648e+003;4.9000000000e+003;5.0007690430e+003;4.9479487305e+003;4.9847436523e+003;5.0193588867e+003;5.0079487305e+003;5.0214101563e+003;5.0074360352e+003;4.9955126953e+003;4.9969228516e+003;5.0066665039e+003;
5.3906250000e-001;4.8861538086e+003;5.0443588867e+003;5.0284614258e+003;4.9374360352e+003;5.0357690430e+003;4.9793588867e+003;5.0161538086e+003;5.0560258789e+003;5.0453847656e+003;5.0578203125e+003;5.0446152344e+003;5.0320512695e+003;5.0301284180e+003;5.0433334961e+003;
5.4687500000e-001;4.9197436523e+003;5.0900000000e+003;5.0693588867e+003;4.9774360352e+003;5.0782050781e+003;5.0174360352e+003;5.0519228516e+003;5.0982050781e+003;5.0923076172e+003;5.0997436523e+003;5.0911538086e+003;5.0653847656e+003;5.0748715820e+003;5.0764101563e+003;
5.5468750000e-001;4.8939741211e+003;5.0638461914e+003;5.0466665039e+003;4.9564101563e+003;5.0575639648e+003;4.9941025391e+003;5.0317949219e+003;5.0691025391e+003;5.0634614258e+003;5.0717949219e+003;5.0629487305e+003;5.0447436523e+003;5.0524360352e+003;5.0575639648e+003;
5.6250000000e-001;4.8617949219e+003;5.0335898438e+003;5.0155126953e+003;4.9287177734e+003;5.0262822266e+003;4.9673076172e+003;5.0017949219e+003;5.0341025391e+003;5.0291025391e+003;5.0388461914e+003;5.0300000000e+003;5.0128203125e+003;5.0150000000e+003;5.0258974609e+003;
5.7031250000e-001;4.7757690430e+003;4.9556411133e+003;4.9387177734e+003;4.8543588867e+003;4.9489741211e+003;4.9044873047e+003;4.9276923828e+003;4.9560258789e+003;4.9420512695e+003;4.9529487305e+003;4.9491025391e+003;4.9244873047e+003;4.9232050781e+003;4.9385898438e+003;
5.7812500000e-001;4.7424360352e+003;4.9189741211e+003;4.9057690430e+003;4.8196152344e+003;4.9157690430e+003;4.8729487305e+003;4.8969228516e+003;4.9237177734e+003;4.9066665039e+003;4.9155126953e+003;4.9119228516e+003;4.8884614258e+003;4.8897436523e+003;4.9038461914e+003;
5.8593750000e-001;4.7062822266e+003;4.8771796875e+003;4.8675639648e+003;4.7812822266e+003;4.8783334961e+003;4.8367949219e+003;4.8629487305e+003;4.8850000000e+003;4.8683334961e+003;4.8735898438e+003;4.8693588867e+003;4.8485898438e+003;4.8523076172e+003;4.8651284180e+003;
5.9375000000e-001;4.6771796875e+003;4.8421796875e+003;4.8351284180e+003;4.7511538086e+003;4.8476923828e+003;4.8079487305e+003;4.8358974609e+003;4.8511538086e+003;4.8370512695e+003;4.8382050781e+003;4.8342309570e+003;4.8156411133e+003;4.8205126953e+003;4.8328203125e+003;
6.0156250000e-001;4.7407690430e+003;4.9021796875e+003;4.8946152344e+003;4.8175639648e+003;4.9102563477e+003;4.8732050781e+003;4.8993588867e+003;4.9050000000e+003;4.8915385742e+003;4.8961538086e+003;4.9029487305e+003;4.8828203125e+003;4.8824360352e+003;4.8946152344e+003;
6.0937500000e-001;4.7562822266e+003;4.9156411133e+003;4.9102563477e+003;4.8307690430e+003;4.9183334961e+003;4.8797436523e+003;4.9080771484e+003;4.9153847656e+003;4.9043588867e+003;4.9130771484e+003;4.9192309570e+003;4.8965385742e+003;4.9034614258e+003;4.9074360352e+003;
6.1718750000e-001;4.7734614258e+003;4.9337177734e+003;4.9274360352e+003;4.8476923828e+003;4.9352563477e+003;4.8935898438e+003;4.9220512695e+003;4.9293588867e+003;4.9188461914e+003;4.9255126953e+003;4.9314101563e+003;4.9110258789e+003;4.9178203125e+003;4.9217949219e+003;
6.2500000000e-001;4.8438461914e+003;5.0100000000e+003;4.9969228516e+003;4.9162822266e+003;4.9992309570e+003;4.9493588867e+003;4.9817949219e+003;5.0080771484e+003;4.9957690430e+003;4.9985898438e+003;5.0033334961e+003;4.9879487305e+003;4.9869228516e+003;4.9980771484e+003;
6.3281250000e-001;4.9182050781e+003;5.0797436523e+003;5.0734614258e+003;4.9861538086e+003;5.0706411133e+003;5.0098715820e+003;5.0524360352e+003;5.0880771484e+003;5.0743588867e+003;5.0838461914e+003;5.0828203125e+003;5.0620512695e+003;5.0676923828e+003;5.0724360352e+003;
6.4062500000e-001;4.9552563477e+003;5.1211538086e+003;5.1106411133e+003;5.0228203125e+003;5.1124360352e+003;5.0479487305e+003;5.0889741211e+003;5.1308974609e+003;5.1150000000e+003;5.1292309570e+003;5.1201284180e+003;5.0985898438e+003;5.1064101563e+003;5.1076923828e+003;
6.4843750000e-001;4.9542309570e+003;5.1256411133e+003;5.1103847656e+003;5.0243588867e+003;5.1160258789e+003;5.0535898438e+003;5.0902563477e+003;5.1385898438e+003;5.1203847656e+003;5.1360258789e+003;5.1202563477e+003;5.1000000000e+003;5.1060258789e+003;5.1076923828e+003;
6.5625000000e-001;4.8542309570e+003;5.0267949219e+003;5.0117949219e+003;4.9332050781e+003;5.0189741211e+003;4.9711538086e+003;5.0000000000e+003;5.0453847656e+003;5.0276923828e+003;5.0323076172e+003;5.0219228516e+003;5.0028203125e+003;5.0008974609e+003;5.0142309570e+003;
6.6406250000e-001;4.8193588867e+003;4.9879487305e+003;4.9770512695e+003;4.9002563477e+003;4.9841025391e+003;4.9400000000e+003;4.9680771484e+003;5.0044873047e+003;4.9896152344e+003;4.9879487305e+003;4.9857690430e+003;4.9643588867e+003;4.9632050781e+003;4.9808974609e+003;
6.7187500000e-001;4.8075639648e+003;4.9721796875e+003;4.9689741211e+003;4.8897436523e+003;4.9720512695e+003;4.9296152344e+003;4.9560258789e+003;4.9752563477e+003;4.9624360352e+003;4.9606411133e+003;4.9651284180e+003;4.9470512695e+003;4.9478203125e+003;4.9697436523e+003;
6.7968750000e-001;4.7896152344e+003;4.9557690430e+003;4.9506411133e+003;4.8742309570e+003;4.9532050781e+003;4.9144873047e+003;4.9387177734e+003;4.9551284180e+003;4.9405126953e+003;4.9380771484e+003;4.9447436523e+003;4.9292309570e+003;4.9265385742e+003;4.9521796875e+003;
6.8750000000e-001;4.7969228516e+003;4.9653847656e+003;4.9523076172e+003;4.8851284180e+003;4.9634614258e+003;4.9261538086e+003;4.9487177734e+003;4.9584614258e+003;4.9421796875e+003;4.9383334961e+003;4.9517949219e+003;4.9301284180e+003;4.9325639648e+003;4.9578203125e+003;
6.9531250000e-001;4.8273076172e+003;4.9952563477e+003;4.9810258789e+003;4.9141025391e+003;4.9969228516e+003;4.9573076172e+003;4.9805126953e+003;4.9880771484e+003;4.9721796875e+003;4.9710258789e+003;4.9833334961e+003;4.9580771484e+003;4.9671796875e+003;4.9870512695e+003;
7.0312500000e-001;4.8601284180e+003;5.0257690430e+003;5.0135898438e+003;4.9429487305e+003;5.0310258789e+003;4.9900000000e+003;5.0138461914e+003;5.0203847656e+003;5.0052563477e+003;5.0082050781e+003;5.0170512695e+003;4.9910258789e+003;5.0051284180e+003;5.0191025391e+003;
7.1093750000e-001;4.8653847656e+003;5.0211538086e+003;5.0238461914e+003;4.9583334961e+003;5.0298715820e+003;4.9884614258e+003;5.0198715820e+003;5.0379487305e+003;5.0262822266e+003;5.0317949219e+003;5.0419228516e+003;5.0133334961e+003;5.0165385742e+003;5.0284614258e+003;
7.1875000000e-001;4.8020512695e+003;4.9535898438e+003;4.9612822266e+003;4.8992309570e+003;4.9639741211e+003;4.9233334961e+003;4.9574360352e+003;4.9774360352e+003;4.9639741211e+003;4.9656411133e+003;4.9775639648e+003;4.9496152344e+003;4.9523076172e+003;4.9632050781e+003;
7.2656250000e-001;4.6671796875e+003;4.8075639648e+003;4.8157690430e+003;4.7515385742e+003;4.8158974609e+003;4.7825639648e+003;4.8180771484e+003;4.8461538086e+003;4.8360258789e+003;4.8191025391e+003;4.8362822266e+003;4.8097436523e+003;4.8166665039e+003;4.8202563477e+003;
7.3437500000e-001;4.6817949219e+003;4.8135898438e+003;4.8141025391e+003;4.7541025391e+003;4.8201284180e+003;4.7788461914e+003;4.8208974609e+003;4.8601284180e+003;4.8406411133e+003;4.8228203125e+003;4.8448715820e+003;4.8165385742e+003;4.8202563477e+003;4.8193588867e+003;
7.4218750000e-001;4.6978203125e+003;4.8270512695e+003;4.8274360352e+003;4.7691025391e+003;4.8339741211e+003;4.7898715820e+003;4.8320512695e+003;4.8756411133e+003;4.8508974609e+003;4.8344873047e+003;4.8548715820e+003;4.8233334961e+003;4.8317949219e+003;4.8289741211e+003;
7.5000000000e-001;4.6391025391e+003;4.7638461914e+003;4.7719228516e+003;4.7130771484e+003;4.7706411133e+003;4.7426923828e+003;4.7673076172e+003;4.8126923828e+003;4.7914101563e+003;4.7714101563e+003;4.7842309570e+003;4.7600000000e+003;4.7687177734e+003;4.7700000000e+003;
7.5781250000e-001;4.5893588867e+003;4.7123076172e+003;4.7206411133e+003;4.6647436523e+003;4.7201284180e+003;4.6976923828e+003;4.7175639648e+003;4.7579487305e+003;4.7398715820e+003;4.7183334961e+003;4.7333334961e+003;4.7130771484e+003;4.7179487305e+003;4.7197436523e+003;
7.6562500000e-001;4.4594873047e+003;4.5766665039e+003;4.5817949219e+003;4.5369228516e+003;4.5892309570e+003;4.5716665039e+003;4.5885898438e+003;4.6171796875e+003;4.5997436523e+003;4.5747436523e+003;4.5993588867e+003;4.5774360352e+003;4.5807690430e+003;4.5805126953e+003;
7.7343750000e-001;4.3830771484e+003;4.4943588867e+003;4.5000000000e+003;4.4610258789e+003;4.5101284180e+003;4.4971796875e+003;4.5119228516e+003;4.5323076172e+003;4.5141025391e+003;4.4865385742e+003;4.5158974609e+003;4.4923076172e+003;4.4967949219e+003;4.4978203125e+003;
7.8125000000e-001;4.3121796875e+003;4.4010258789e+003;4.4088461914e+003;4.3898715820e+003;4.4223076172e+003;4.4215385742e+003;4.4297436523e+003;4.4229487305e+003;4.4041025391e+003;4.3710258789e+003;4.4106411133e+003;4.3926923828e+003;4.3970512695e+003;4.4057690430e+003;
7.8906250000e-001;4.3652563477e+003;4.4503847656e+003;4.4561538086e+003;4.4416665039e+003;4.4705126953e+003;4.4665385742e+003;4.4789741211e+003;4.4678203125e+003;4.4469228516e+003;4.4139741211e+003;4.4574360352e+003;4.4407690430e+003;4.4424360352e+003;4.4524360352e+003;
7.9687500000e-001;4.4314101563e+003;4.5147436523e+003;4.5188461914e+003;4.5050000000e+003;4.5328203125e+003;4.5246152344e+003;4.5432050781e+003;4.5300000000e+003;4.5065385742e+003;4.4747436523e+003;4.5219228516e+003;4.5043588867e+003;4.5037177734e+003;4.5150000000e+003;
8.0468750000e-001;4.4930771484e+003;4.5753847656e+003;4.5787177734e+003;4.5614101563e+003;4.5914101563e+003;4.5800000000e+003;4.6034614258e+003;4.5898715820e+003;4.5650000000e+003;4.5356411133e+003;4.5848715820e+003;4.5644873047e+003;4.5639741211e+003;4.5762822266e+003;
8.1250000000e-001;4.4880771484e+003;4.5573076172e+003;4.5674360352e+003;4.5346152344e+003;4.5633334961e+003;4.5492309570e+003;4.5720512695e+003;4.5764101563e+003;4.5575639648e+003;4.5367949219e+003;4.5761538086e+003;4.5539741211e+003;4.5638461914e+003;4.5720512695e+003;
8.2031250000e-001;4.2170512695e+003;4.2582050781e+003;4.2858974609e+003;4.2621796875e+003;4.2652563477e+003;4.2625639648e+003;4.2920512695e+003;4.3076923828e+003;4.2862822266e+003;4.2428203125e+003;4.2950000000e+003;4.2798715820e+003;4.2753847656e+003;4.2955126953e+003;
8.2812500000e-001;4.2061538086e+003;4.2424360352e+003;4.2707690430e+003;4.2469228516e+003;4.2511538086e+003;4.2512822266e+003;4.2778203125e+003;4.2987177734e+003;4.2779487305e+003;4.2282050781e+003;4.2814101563e+003;4.2664101563e+003;4.2628203125e+003;4.2832050781e+003;
8.3593750000e-001;4.2225639648e+003;4.2466665039e+003;4.2796152344e+003;4.2526923828e+003;4.2558974609e+003;4.2511538086e+003;4.2805126953e+003;4.3097436523e+003;4.2860258789e+003;4.2305126953e+003;4.2865385742e+003;4.2735898438e+003;4.2742309570e+003;4.2948715820e+003;
8.4375000000e-001;4.2520512695e+003;4.2648715820e+003;4.2982050781e+003;4.2697436523e+003;4.2700000000e+003;4.2608974609e+003;4.2932050781e+003;4.3246152344e+003;4.2985898438e+003;4.2543588867e+003;4.3138461914e+003;4.2923076172e+003;4.2929487305e+003;4.3198715820e+003;
8.5156250000e-001;4.2191025391e+003;4.2305126953e+003;4.2620512695e+003;4.2347436523e+003;4.2378203125e+003;4.2341025391e+003;4.2607690430e+003;4.2865385742e+003;4.2634614258e+003;4.2152563477e+003;4.2748715820e+003;4.2537177734e+003;4.2570512695e+003;4.2826923828e+003;
8.5937500000e-001;4.1915385742e+003;4.2016665039e+003;4.2282050781e+003;4.2048715820e+003;4.2160258789e+003;4.2142309570e+003;4.2351284180e+003;4.2462822266e+003;4.2270512695e+003;4.1737177734e+003;4.2316665039e+003;4.2126923828e+003;4.2242309570e+003;4.2451284180e+003;
8.6718750000e-001;4.1847436523e+003;4.1944873047e+003;4.2202563477e+003;4.2006411133e+003;4.2119228516e+003;4.2116665039e+003;4.2317949219e+003;4.2366665039e+003;4.2161538086e+003;4.1648715820e+003;4.2214101563e+003;4.2037177734e+003;4.2144873047e+003;4.2360258789e+003;
8.7500000000e-001;4.1648715820e+003;4.1661538086e+003;4.1951284180e+003;4.1798715820e+003;4.1939741211e+003;4.2061538086e+003;4.2215385742e+003;4.2079487305e+003;4.1839741211e+003;4.1423076172e+003;4.1938461914e+003;4.1738461914e+003;4.1762822266e+003;4.2060258789e+003;
8.8281250000e-001;4.1812822266e+003;4.1797436523e+003;4.2083334961e+003;4.1897436523e+003;4.2111538086e+003;4.2237177734e+003;4.2364101563e+003;4.2192309570e+003;4.1974360352e+003;4.1578203125e+003;4.2058974609e+003;4.1834614258e+003;4.1888461914e+003;4.2188461914e+003;
8.9062500000e-001;4.1820512695e+003;4.1782050781e+003;4.2062822266e+003;4.1843588867e+003;4.2102563477e+003;4.2211538086e+003;4.2321796875e+003;4.2116665039e+003;4.1958974609e+003;4.1556411133e+003;4.1998715820e+003;4.1762822266e+003;4.1875639648e+003;4.2185898438e+003;
8.9843750000e-001;4.1544873047e+003;4.1506411133e+003;4.1784614258e+003;4.1584614258e+003;4.1792309570e+003;4.1900000000e+003;4.2021796875e+003;4.1797436523e+003;4.1666665039e+003;4.1241025391e+003;4.1700000000e+003;4.1462822266e+003;4.1579487305e+003;4.1915385742e+003;
9.0625000000e-001;4.0600000000e+003;4.0483332520e+003;4.0800000000e+003;4.0628205566e+003;4.0711538086e+003;4.0841025391e+003;4.0988461914e+003;4.0734614258e+003;4.0634614258e+003;4.0170512695e+003;4.0710256348e+003;4.0455129395e+003;4.0552563477e+003;4.0944870605e+003;
9.1406250000e-001;4.0382050781e+003;4.0193588867e+003;4.0558974609e+003;4.0357692871e+003;4.0443588867e+003;4.0592307129e+003;4.0746154785e+003;4.0498718262e+003;4.0387180176e+003;3.9929487305e+003;4.0473076172e+003;4.0232050781e+003;4.0317949219e+003;4.0698718262e+003;
9.2187500000e-001;4.0238461914e+003;3.9969230957e+003;4.0379487305e+003;4.0158974609e+003;4.0241025391e+003;4.0410256348e+003;4.0574357910e+003;4.0355129395e+003;4.0233332520e+003;3.9776923828e+003;4.0296154785e+003;4.0075642090e+003;4.0150000000e+003;4.0512819824e+003;
9.2968750000e-001;4.0094870605e+003;3.9751281738e+003;4.0189743652e+003;3.9982050781e+003;4.0029487305e+003;4.0221794434e+003;4.0392307129e+003;4.0239743652e+003;4.0116667480e+003;3.9646154785e+003;4.0107692871e+003;3.9911538086e+003;3.9971794434e+003;4.0323076172e+003;
9.3750000000e-001;3.9629487305e+003;3.9048718262e+003;3.9602563477e+003;3.9466667480e+003;3.9248718262e+003;3.9439743652e+003;3.9739743652e+003;3.9824357910e+003;3.9766667480e+003;3.9083332520e+003;3.9491025391e+003;3.9388461914e+003;3.9382050781e+003;3.9773076172e+003;
9.4531250000e-001;4.1462822266e+003;4.0806411133e+003;4.1314101563e+003;4.1078203125e+003;4.0992309570e+003;4.0906411133e+003;4.1284614258e+003;4.1633334961e+003;4.1521796875e+003;4.0933332520e+003;4.1315385742e+003;4.1138461914e+003;4.1169228516e+003;4.1524360352e+003;
9.5312500000e-001;4.1239741211e+003;4.0615385742e+003;4.1085898438e+003;4.0902563477e+003;4.0785898438e+003;4.0748718262e+003;4.1069228516e+003;4.1437177734e+003;4.1271796875e+003;4.0673076172e+003;4.1056411133e+003;4.0932050781e+003;4.0932050781e+003;4.1297436523e+003;
9.6093750000e-001;4.1321796875e+003;4.0757692871e+003;4.1114101563e+003;4.0985898438e+003;4.0938461914e+003;4.0955129395e+003;4.1175639648e+003;4.1448715820e+003;4.1237177734e+003;4.0684614258e+003;4.1073076172e+003;4.0967949219e+003;4.1006411133e+003;4.1311538086e+003;
9.6875000000e-001;4.1607690430e+003;4.1039741211e+003;4.1370512695e+003;4.1223076172e+003;4.1270512695e+003;4.1279487305e+003;4.1476923828e+003;4.1662822266e+003;4.1478203125e+003;4.0978203125e+003;4.1357690430e+003;4.1217949219e+003;4.1280771484e+003;4.1548715820e+003;
9.7656250000e-001;4.1612822266e+003;4.1033334961e+003;4.1393588867e+003;4.1239741211e+003;4.1384614258e+003;4.1466665039e+003;4.1644873047e+003;4.1570512695e+003;4.1448715820e+003;4.0979487305e+003;4.1323076172e+003;4.1184614258e+003;4.1203847656e+003;4.1547436523e+003;
9.8437500000e-001;4.1430771484e+003;4.0924357910e+003;4.1174360352e+003;4.1132050781e+003;4.1212822266e+003;4.1378203125e+003;4.1533334961e+003;4.1314101563e+003;4.1112822266e+003;4.0720512695e+003;4.1062822266e+003;4.1002563477e+003;4.1005126953e+003;4.1350000000e+003;
9.9218750000e-001;4.1533334961e+003;4.0982050781e+003;4.1262822266e+003;4.1198715820e+003;4.1297436523e+003;4.1444873047e+003;4.1597436523e+003;4.1329487305e+003;4.1138461914e+003;4.0783332520e+003;4.1151284180e+003;4.1097436523e+003;4.1084614258e+003;4.1416665039e+003;
1.0000000000e+000;4.1597436523e+003;4.0943588867e+003;4.1346152344e+003;4.1205126953e+003;4.1288461914e+003;4.1461538086e+003;4.1566665039e+003;4.1353847656e+003;4.1208974609e+003;4.0814101563e+003;4.1273076172e+003;4.1175639648e+003;4.1135898438e+003;4.1493588867e+003;
1.0078125000e+000;4.1244873047e+003;4.0578205566e+003;4.0985898438e+003;4.0861538086e+003;4.0887180176e+003;4.1117949219e+003;4.1220512695e+003;4.1057690430e+003;4.0901281738e+003;4.0474357910e+003;4.0937180176e+003;4.0862819824e+003;4.0767949219e+003;4.1169228516e+003;
1.0156250000e+000;4.0639743652e+003;3.9921794434e+003;4.0311538086e+003;4.0229487305e+003;4.0193588867e+003;4.0448718262e+003;4.0617949219e+003;4.0470512695e+003;4.0338461914e+003;3.9857692871e+003;4.0312819824e+003;4.0276923828e+003;4.0108974609e+003;4.0555129395e+003;
1.0234375000e+000;4.0761538086e+003;4.0029487305e+003;4.0401281738e+003;4.0323076172e+003;4.0305129395e+003;4.0500000000e+003;4.0716667480e+003;4.0570512695e+003;4.0491025391e+003;3.9987180176e+003;4.0433332520e+003;4.0369230957e+003;4.0241025391e+003;4.0655129395e+003;
1.0312500000e+000;4.1374360352e+003;4.0616667480e+003;4.1014101563e+003;4.0900000000e+003;4.0911538086e+003;4.0958974609e+003;4.1223076172e+003;4.1271796875e+003;4.1251284180e+003;4.0703845215e+003;4.1106411133e+003;4.0947436523e+003;4.0950000000e+003;4.1282050781e+003;
1.0390625000e+000;4.1355126953e+003;4.0584614258e+003;4.0985898438e+003;4.0858974609e+003;4.0864101563e+003;4.0898718262e+003;4.1161538086e+003;4.1297436523e+003;4.1242309570e+003;4.0693588867e+003;4.1074360352e+003;4.0920512695e+003;4.0914101563e+003;4.1252563477e+003;
1.0468750000e+000;4.1401284180e+003;4.0637180176e+003;4.1011538086e+003;4.0875642090e+003;4.0880769043e+003;4.0892307129e+003;4.1169228516e+003;4.1382050781e+003;4.1292309570e+003;4.0752563477e+003;4.1093588867e+003;4.0951281738e+003;4.0932050781e+003;4.1271796875e+003;
1.0546875000e+000;4.1551284180e+003;4.0811538086e+003;4.1143588867e+003;4.1003847656e+003;4.1003847656e+003;4.0987177734e+003;4.1289741211e+003;4.1562822266e+003;4.1453847656e+003;4.0929487305e+003;4.1220512695e+003;4.1083334961e+003;4.1064101563e+003;4.1397436523e+003;
1.0625000000e+000;4.1994873047e+003;4.1293588867e+003;4.1571796875e+003;4.1462822266e+003;4.1478203125e+003;4.1358974609e+003;4.1687177734e+003;4.1957690430e+003;4.1848715820e+003;4.1341025391e+003;4.1633334961e+003;4.1410258789e+003;4.1460258789e+003;4.1794873047e+003;
1.0703125000e+000;4.1943588867e+003;4.1255126953e+003;4.1529487305e+003;4.1406411133e+003;4.1476923828e+003;4.1338461914e+003;4.1641025391e+003;4.1870512695e+003;4.1765385742e+003;4.1283334961e+003;4.1548715820e+003;4.1344873047e+003;4.1397436523e+003;4.1726923828e+003;
1.0781250000e+000;4.1433334961e+003;4.0788461914e+003;4.1041025391e+003;4.0887180176e+003;4.1064101563e+003;4.1011538086e+003;4.1265385742e+003;4.1267949219e+003;4.1124360352e+003;4.0756411133e+003;4.0975639648e+003;4.0841025391e+003;4.0861538086e+003;4.1194873047e+003;
1.0859375000e+000;4.0476923828e+003;3.9862819824e+003;4.0105129395e+003;4.0041025391e+003;4.0180769043e+003;4.0298718262e+003;4.0516667480e+003;4.0317949219e+003;4.0124357910e+003;3.9706411133e+003;4.0102563477e+003;3.9923076172e+003;3.9875642090e+003;4.0264101563e+003;
1.0937500000e+000;4.0205129395e+003;3.9576923828e+003;3.9826923828e+003;3.9761538086e+003;3.9905129395e+003;4.0052563477e+003;4.0235898438e+003;3.9966667480e+003;3.9794870605e+003;3.9384614258e+003;3.9774357910e+003;3.9647436523e+003;3.9612819824e+003;3.9979487305e+003;
1.1015625000e+000;4.2098715820e+003;4.1460258789e+003;4.1608974609e+003;4.1517949219e+003;4.1750000000e+003;4.1789741211e+003;4.1934614258e+003;4.1579487305e+003;4.1489741211e+003;4.1294873047e+003;4.1608974609e+003;4.1464101563e+003;4.1657690430e+003;4.1857690430e+003;
1.1093750000e+000;4.2734614258e+003;4.2153847656e+003;4.2352563477e+003;4.2174360352e+003;4.2476923828e+003;4.2489741211e+003;4.2583334961e+003;4.2425639648e+003;4.2430771484e+003;4.2146152344e+003;4.2442309570e+003;4.2244873047e+003;4.2335898438e+003;4.2584614258e+003;
1.1171875000e+000;4.2570512695e+003;4.1997436523e+003;4.2203847656e+003;4.2007690430e+003;4.2367949219e+003;4.2353847656e+003;4.2438461914e+003;4.2350000000e+003;4.2405126953e+003;4.2057690430e+003;4.2287177734e+003;4.2093588867e+003;4.2170512695e+003;4.2410258789e+003;
1.1250000000e+000;4.2498715820e+003;4.1934614258e+003;4.2134614258e+003;4.1938461914e+003;4.2335898438e+003;4.2300000000e+003;4.2388461914e+003;4.2365385742e+003;4.2457690430e+003;4.2074360352e+003;4.2226923828e+003;4.2029487305e+003;4.2126923828e+003;4.2334614258e+003;
1.1328125000e+000;4.2364101563e+003;4.1802563477e+003;4.2008974609e+003;4.1853847656e+003;4.2158974609e+003;4.2162822266e+003;4.2292309570e+003;4.2346152344e+003;4.2442309570e+003;4.2030771484e+003;4.2139741211e+003;4.1934614258e+003;4.2067949219e+003;4.2237177734e+003;
1.1406250000e+000;4.1880771484e+003;4.1330771484e+003;4.1593588867e+003;4.1411538086e+003;4.1511538086e+003;4.1519228516e+003;4.1691025391e+003;4.1910258789e+003;4.1912822266e+003;4.1457690430e+003;4.1629487305e+003;4.1439741211e+003;4.1491025391e+003;4.1750000000e+003;
1.1484375000e+000;4.1780771484e+003;4.1238461914e+003;4.1500000000e+003;4.1293588867e+003;4.1392309570e+003;4.1375639648e+003;4.1557690430e+003;4.1852563477e+003;4.1800000000e+003;4.1344873047e+003;4.1493588867e+003;4.1325639648e+003;4.1360258789e+003;4.1633334961e+003;
1.1562500000e+000;4.1789741211e+003;4.1250000000e+003;4.1494873047e+003;4.1287177734e+003;4.1396152344e+003;4.1360258789e+003;4.1571796875e+003;4.1912822266e+003;4.1801284180e+003;4.1361538086e+003;4.1483334961e+003;4.1330771484e+003;4.1375639648e+003;4.1635898438e+003;
1.1640625000e+000;4.2000000000e+003;4.1466665039e+003;4.1656411133e+003;4.1482050781e+003;4.1616665039e+003;4.1566665039e+003;4.1853847656e+003;4.2191025391e+003;4.2017949219e+003;4.1648715820e+003;4.1761538086e+003;4.1573076172e+003;4.1693588867e+003;4.1867949219e+003;
1.1718750000e+000;4.1910258789e+003;4.1380771484e+003;4.1561538086e+003;4.1394873047e+003;4.1538461914e+003;4.1498715820e+003;4.1801284180e+003;4.2084614258e+003;4.1919228516e+003;4.1587177734e+003;4.1715385742e+003;4.1512822266e+003;4.1647436523e+003;4.1801284180e+003;
1.1796875000e+000;4.1669228516e+003;4.1135898438e+003;4.1329487305e+003;4.1160258789e+003;4.1312822266e+003;4.1293588867e+003;4.1588461914e+003;4.1773076172e+003;4.1629487305e+003;4.1311538086e+003;4.1471796875e+003;4.1283334961e+003;4.1410258789e+003;4.1575639648e+003;
1.1875000000e+000;4.4733334961e+003;4.4394873047e+003;4.4346152344e+003;4.4130771484e+003;4.4552563477e+003;4.4335898438e+003;4.4514101563e+003;4.4538461914e+003;4.4360258789e+003;4.4271796875e+003;4.4433334961e+003;4.4232050781e+003;4.4460258789e+003;4.4637177734e+003;
1.1953125000e+000;4.4716665039e+003;4.4398715820e+003;4.4376923828e+003;4.4098715820e+003;4.4547436523e+003;4.4341025391e+003;4.4503847656e+003;4.4520512695e+003;4.4326923828e+003;4.4348715820e+003;4.4469228516e+003;4.4270512695e+003;4.4479487305e+003;4.4652563477e+003;
1.2031250000e+000;4.4230771484e+003;4.3901284180e+003;4.4010258789e+003;4.3635898438e+003;4.4119228516e+003;4.3916665039e+003;4.4035898438e+003;4.3820512695e+003;4.3655126953e+003;4.3667949219e+003;4.4017949219e+003;4.3807690430e+003;4.3982050781e+003;4.4205126953e+003;
1.2109375000e+000;4.5030771484e+003;4.4850000000e+003;4.4838461914e+003;4.4446152344e+003;4.4952563477e+003;4.4758974609e+003;4.4858974609e+003;4.4775639648e+003;4.4678203125e+003;4.4735898438e+003;4.4930771484e+003;4.4662822266e+003;4.4896152344e+003;4.5062822266e+003;
1.2187500000e+000;4.4842309570e+003;4.4685898438e+003;4.4687177734e+003;4.4244873047e+003;4.4784614258e+003;4.4607690430e+003;4.4717949219e+003;4.4652563477e+003;4.4624360352e+003;4.4678203125e+003;4.4751284180e+003;4.4505126953e+003;4.4767949219e+003;4.4905126953e+003;
1.2265625000e+000;4.4538461914e+003;4.4432050781e+003;4.4443588867e+003;4.4003847656e+003;4.4561538086e+003;4.4344873047e+003;4.4444873047e+003;4.4469228516e+003;4.4591025391e+003;4.4402563477e+003;4.4489741211e+003;4.4235898438e+003;4.4546152344e+003;4.4665385742e+003;
1.2343750000e+000;4.4538461914e+003;4.4455126953e+003;4.4433334961e+003;4.4035898438e+003;4.4538461914e+003;4.4320512695e+003;4.4419228516e+003;4.4535898438e+003;4.4638461914e+003;4.4394873047e+003;4.4515385742e+003;4.4243588867e+003;4.4514101563e+003;4.4671796875e+003;
1.2421875000e+000;4.3926923828e+003;4.3867949219e+003;4.3832050781e+003;4.3448715820e+003;4.3865385742e+003;4.3691025391e+003;4.3826923828e+003;4.4093588867e+003;4.4123076172e+003;4.3874360352e+003;4.3925639648e+003;4.3676923828e+003;4.3839741211e+003;4.4073076172e+003;
1.2500000000e+000;4.3280771484e+003;4.3206411133e+003;4.3225639648e+003;4.2821796875e+003;4.3219228516e+003;4.3070512695e+003;4.3246152344e+003;4.3520512695e+003;4.3517949219e+003;4.3253847656e+003;4.3279487305e+003;4.3062822266e+003;4.3184614258e+003;4.3432050781e+003;
1.2578125000e+000;4.2971796875e+003;4.2806411133e+003;4.2938461914e+003;4.2566665039e+003;4.2950000000e+003;4.2758974609e+003;4.3070512695e+003;4.3211538086e+003;4.3060258789e+003;4.2701284180e+003;4.2912822266e+003;4.2733334961e+003;4.2838461914e+003;4.3060258789e+003;
1.2656250000e+000;4.3794873047e+003;4.3657690430e+003;4.3712822266e+003;4.3370512695e+003;4.3767949219e+003;4.3541025391e+003;4.3862822266e+003;4.4007690430e+003;4.3791025391e+003;4.3493588867e+003;4.3711538086e+003;4.3547436523e+003;4.3652563477e+003;4.3871796875e+003;
1.2734375000e+000;4.4560258789e+003;4.4479487305e+003;4.4453847656e+003;4.4119228516e+003;4.4525639648e+003;4.4289741211e+003;4.4596152344e+003;4.4771796875e+003;4.4497436523e+003;4.4294873047e+003;4.4469228516e+003;4.4337177734e+003;4.4419228516e+003;4.4657690430e+003;
1.2812500000e+000;4.4897436523e+003;4.4874360352e+003;4.4810258789e+003;4.4456411133e+003;4.4861538086e+003;4.4646152344e+003;4.4924360352e+003;4.5123076172e+003;4.4811538086e+003;4.4689741211e+003;4.4815385742e+003;4.4719228516e+003;4.4766665039e+003;4.5032050781e+003;
1.2890625000e+000;4.4008974609e+003;4.3991025391e+003;4.3993588867e+003;4.3614101563e+003;4.4108974609e+003;4.3889741211e+003;4.4096152344e+003;4.4107690430e+003;4.3853847656e+003;4.3775639648e+003;4.3983334961e+003;4.3806411133e+003;4.3991025391e+003;4.4153847656e+003;
1.2968750000e+000;4.4046152344e+003;4.4007690430e+003;4.4010258789e+003;4.3656411133e+003;4.4179487305e+003;4.3961538086e+003;4.4126923828e+003;4.4079487305e+003;4.3832050781e+003;4.3764101563e+003;4.4010258789e+003;4.3848715820e+003;4.4017949219e+003;4.4198715820e+003;
1.3046875000e+000;4.4420512695e+003;4.4461538086e+003;4.4414101563e+003;4.4056411133e+003;4.4529487305e+003;4.4394873047e+003;4.4452563477e+003;4.4273076172e+003;4.4110258789e+003;4.4065385742e+003;4.4326923828e+003;4.4232050781e+003;4.4330771484e+003;4.4582050781e+003;
1.3125000000e+000;4.3879487305e+003;4.3871796875e+003;4.3855126953e+003;4.3575639648e+003;4.3957690430e+003;4.3848715820e+003;4.3907690430e+003;4.3765385742e+003;4.3757690430e+003;4.3665385742e+003;4.3846152344e+003;4.3703847656e+003;4.3878203125e+003;4.3991025391e+003;
1.3203125000e+000;4.3541025391e+003;4.3491025391e+003;4.3505126953e+003;4.3243588867e+003;4.3644873047e+003;4.3523076172e+003;4.3550000000e+003;4.3452563477e+003;4.3485898438e+003;4.3358974609e+003;4.3514101563e+003;4.3374360352e+003;4.3533334961e+003;4.3660258789e+003;
1.3281250000e+000;4.2676923828e+003;4.2580771484e+003;4.2593588867e+003;4.2355126953e+003;4.2705126953e+003;4.2660258789e+003;4.2644873047e+003;4.2598715820e+003;4.2771796875e+003;4.2456411133e+003;4.2583334961e+003;4.2451284180e+003;4.2614101563e+003;4.2714101563e+003;
1.3359375000e+000;4.3274360352e+003;4.3124360352e+003;4.3116665039e+003;4.2916665039e+003;4.3246152344e+003;4.3142309570e+003;4.3217949219e+003;4.3270512695e+003;4.3423076172e+003;4.2970512695e+003;4.3188461914e+003;4.3008974609e+003;4.3232050781e+003;4.3207690430e+003;
1.3437500000e+000;4.3484614258e+003;4.3321796875e+003;4.3346152344e+003;4.3100000000e+003;4.3493588867e+003;4.3324360352e+003;4.3429487305e+003;4.3593588867e+003;4.3673076172e+003;4.3205126953e+003;4.3432050781e+003;4.3248715820e+003;4.3428203125e+003;4.3448715820e+003;
1.3515625000e+000;4.3416665039e+003;4.3238461914e+003;4.3306411133e+003;4.3016665039e+003;4.3428203125e+003;4.3237177734e+003;4.3371796875e+003;4.3639741211e+003;4.3626923828e+003;4.3155126953e+003;4.3378203125e+003;4.3229487305e+003;4.3328203125e+003;4.3403847656e+003;
1.3593750000e+000;4.2960258789e+003;4.2730771484e+003;4.2850000000e+003;4.2574360352e+003;4.2855126953e+003;4.2720512695e+003;4.2933334961e+003;4.3269228516e+003;4.3093588867e+003;4.2661538086e+003;4.2876923828e+003;4.2815385742e+003;4.2828203125e+003;4.2874360352e+003;
1.3671875000e+000;4.2992309570e+003;4.2744873047e+003;4.2907690430e+003;4.2666665039e+003;4.2923076172e+003;4.2757690430e+003;4.3008974609e+003;4.3271796875e+003;4.3065385742e+003;4.2675639648e+003;4.2898715820e+003;4.2851284180e+003;4.2906411133e+003;4.2866665039e+003;
1.3750000000e+000;4.2750000000e+003;4.2487177734e+003;4.2687177734e+003;4.2416665039e+003;4.2701284180e+003;4.2537177734e+003;4.2767949219e+003;4.3000000000e+003;4.2826923828e+003;4.2397436523e+003;4.2657690430e+003;4.2628203125e+003;4.2621796875e+003;4.2653847656e+003;
1.3828125000e+000;4.1338461914e+003;4.0958974609e+003;4.1175639648e+003;4.0985898438e+003;4.1066665039e+003;4.1087177734e+003;4.1261538086e+003;4.1378203125e+003;4.1189741211e+003;4.0773076172e+003;4.1203847656e+003;4.1148715820e+003;4.1102563477e+003;4.1167949219e+003;
1.3906250000e+000;4.1079487305e+003;4.0676923828e+003;4.0893588867e+003;4.0756411133e+003;4.0770512695e+003;4.0844870605e+003;4.0996152344e+003;4.1039741211e+003;4.0826923828e+003;4.0461538086e+003;4.0928205566e+003;4.0850000000e+003;4.0862819824e+003;4.0875642090e+003;
1.3984375000e+000;4.1221796875e+003;4.0808974609e+003;4.1033334961e+003;4.0914101563e+003;4.0934614258e+003;4.1011538086e+003;4.1143588867e+003;4.1078203125e+003;4.0870512695e+003;4.0544870605e+003;4.1032050781e+003;4.0946154785e+003;4.1007690430e+003;4.0991025391e+003;
1.4062500000e+000;4.1880771484e+003;4.1464101563e+003;4.1683334961e+003;4.1544873047e+003;4.1646152344e+003;4.1662822266e+003;4.1789741211e+003;4.1602563477e+003;4.1425639648e+003;4.1132050781e+003;4.1624360352e+003;4.1544873047e+003;4.1625639648e+003;4.1614101563e+003;
1.4140625000e+000;4.4565385742e+003;4.4292309570e+003;4.4341025391e+003;4.4124360352e+003;4.4428203125e+003;4.4194873047e+003;4.4293588867e+003;4.4121796875e+003;4.4006411133e+003;4.3955126953e+003;4.4233334961e+003;4.4226923828e+003;4.4208974609e+003;4.4308974609e+003;
1.4218750000e+000;4.4265385742e+003;4.4029487305e+003;4.4067949219e+003;4.3871796875e+003;4.4148715820e+003;4.3942309570e+003;4.4014101563e+003;4.3873076172e+003;4.3793588867e+003;4.3757690430e+003;4.3994873047e+003;4.3957690430e+003;4.3987177734e+003;4.4052563477e+003;
1.4296875000e+000;4.3838461914e+003;4.3641025391e+003;4.3671796875e+003;4.3502563477e+003;4.3806411133e+003;4.3652563477e+003;4.3648715820e+003;4.3526923828e+003;4.3698715820e+003;4.3438461914e+003;4.3719228516e+003;4.3521796875e+003;4.3637177734e+003;4.3638461914e+003;
1.4375000000e+000;4.4316665039e+003;4.4151284180e+003;4.4232050781e+003;4.3955126953e+003;4.4292309570e+003;4.4046152344e+003;4.4125639648e+003;4.4264101563e+003;4.4332050781e+003;4.3979487305e+003;4.4182050781e+003;4.4115385742e+003;4.4043588867e+003;4.4185898438e+003;
1.4453125000e+000;4.4298715820e+003;4.4169228516e+003;4.4247436523e+003;4.3965385742e+003;4.4301284180e+003;4.4020512695e+003;4.4141025391e+003;4.4376923828e+003;4.4371796875e+003;4.4046152344e+003;4.4205126953e+003;4.4143588867e+003;4.4092309570e+003;4.4206411133e+003;
1.4531250000e+000;4.4116665039e+003;4.3920512695e+003;4.4076923828e+003;4.3814101563e+003;4.4093588867e+003;4.3785898438e+003;4.4078203125e+003;4.4350000000e+003;4.4220512695e+003;4.3888461914e+003;4.4139741211e+003;4.4012822266e+003;4.4046152344e+003;4.4076923828e+003;
1.4609375000e+000;4.5328203125e+003;4.5182050781e+003;4.5362822266e+003;4.4975639648e+003;4.5297436523e+003;4.4920512695e+003;4.5321796875e+003;4.5635898438e+003;4.5433334961e+003;4.5187177734e+003;4.5414101563e+003;4.5288461914e+003;4.5223076172e+003;4.5350000000e+003;
1.4687500000e+000;4.4984614258e+003;4.4896152344e+003;4.5069228516e+003;4.4682050781e+003;4.4980771484e+003;4.4648715820e+003;4.5016665039e+003;4.5329487305e+003;4.5106411133e+003;4.4903847656e+003;4.5096152344e+003;4.4980771484e+003;4.4902563477e+003;4.5032050781e+003;
1.4765625000e+000;4.3493588867e+003;4.3464101563e+003;4.3585898438e+003;4.3325639648e+003;4.3551284180e+003;4.3385898438e+003;4.3584614258e+003;4.3707690430e+003;4.3523076172e+003;4.3366665039e+003;4.3603847656e+003;4.3492309570e+003;4.3461538086e+003;4.3553847656e+003;
1.4843750000e+000;4.3329487305e+003;4.3266665039e+003;4.3423076172e+003;4.3164101563e+003;4.3394873047e+003;4.3265385742e+003;4.3412822266e+003;4.3503847656e+003;4.3325639648e+003;4.3187177734e+003;4.3447436523e+003;4.3323076172e+003;4.3288461914e+003;4.3403847656e+003;
1.4921875000e+000;4.2291025391e+003;4.2152563477e+003;4.2433334961e+003;4.2153847656e+003;4.2367949219e+003;4.2352563477e+003;4.2421796875e+003;4.2439741211e+003;4.2226923828e+003;4.2116665039e+003;4.2424360352e+003;4.2297436523e+003;4.2226923828e+003;4.2411538086e+003;
1.5000000000e+000;4.1526923828e+003;4.1369228516e+003;4.1658974609e+003;4.1403847656e+003;4.1612822266e+003;4.1643588867e+003;4.1689741211e+003;4.1625639648e+003;4.1415385742e+003;4.1291025391e+003;4.1637177734e+003;4.1523076172e+003;4.1458974609e+003;4.1643588867e+003;
1.5078125000e+000;4.0905129395e+003;4.0688461914e+003;4.0833332520e+003;4.0766667480e+003;4.0921794434e+003;4.0950000000e+003;4.0956411133e+003;4.0692307129e+003;4.0673076172e+003;4.0408974609e+003;4.0830769043e+003;4.0742307129e+003;4.0820512695e+003;4.0928205566e+003;
1.5156250000e+000;4.1216665039e+003;4.0976923828e+003;4.1112822266e+003;4.1067949219e+003;4.1187177734e+003;4.1207690430e+003;4.1192309570e+003;4.0933332520e+003;4.0976923828e+003;4.0676923828e+003;4.1088461914e+003;4.0974360352e+003;4.1105126953e+003;4.1202563477e+003;
1.5234375000e+000;4.1600000000e+003;4.1356411133e+003;4.1493588867e+003;4.1446152344e+003;4.1548715820e+003;4.1556411133e+003;4.1517949219e+003;4.1289741211e+003;4.1373076172e+003;4.1062822266e+003;4.1441025391e+003;4.1287177734e+003;4.1462822266e+003;4.1547436523e+003;
1.5312500000e+000;4.1989741211e+003;4.1770512695e+003;4.1888461914e+003;4.1830771484e+003;4.1955126953e+003;4.1937177734e+003;4.1885898438e+003;4.1692309570e+003;4.1800000000e+003;4.1505126953e+003;4.1825639648e+003;4.1641025391e+003;4.1841025391e+003;4.1907690430e+003;
1.5390625000e+000;4.4791025391e+003;4.4706411133e+003;4.4674360352e+003;4.4474360352e+003;4.4907690430e+003;4.4628203125e+003;4.4782050781e+003;4.4746152344e+003;4.4908974609e+003;4.4670512695e+003;4.4800000000e+003;4.4582050781e+003;4.4719228516e+003;4.4796152344e+003;
1.5468750000e+000;4.5625639648e+003;4.5553847656e+003;4.5544873047e+003;4.5253847656e+003;4.5723076172e+003;4.5371796875e+003;4.5597436523e+003;4.5714101563e+003;4.5823076172e+003;4.5585898438e+003;4.5705126953e+003;4.5465385742e+003;4.5576923828e+003;4.5696152344e+003;
1.5546875000e+000;4.4401284180e+003;4.4344873047e+003;4.4470512695e+003;4.4083334961e+003;4.4403847656e+003;4.4096152344e+003;4.4389741211e+003;4.4766665039e+003;4.4687177734e+003;4.4393588867e+003;4.4505126953e+003;4.4442309570e+003;4.4408974609e+003;4.4561538086e+003;
1.5625000000e+000;4.3573076172e+003;4.3464101563e+003;4.3635898438e+003;4.3292309570e+003;4.3548715820e+003;4.3261538086e+003;4.3585898438e+003;4.3867949219e+003;4.3802563477e+003;4.3421796875e+003;4.3619228516e+003;4.3537177734e+003;4.3544873047e+003;4.3632050781e+003;
1.5703125000e+000;4.3726923828e+003;4.3597436523e+003;4.3814101563e+003;4.3451284180e+003;4.3692309570e+003;4.3414101563e+003;4.3716665039e+003;4.4035898438e+003;4.3950000000e+003;4.3585898438e+003;4.3797436523e+003;4.3685898438e+003;4.3656411133e+003;4.3788461914e+003;
1.5781250000e+000;4.2183334961e+003;4.1975639648e+003;4.2251284180e+003;4.1926923828e+003;4.2142309570e+003;4.2005126953e+003;4.2150000000e+003;4.2437177734e+003;4.2298715820e+003;4.1960258789e+003;4.2102563477e+003;4.2116665039e+003;4.1941025391e+003;4.2180771484e+003;
1.5859375000e+000;3.9675642090e+003;3.9294870605e+003;3.9697436523e+003;3.9487180176e+003;3.9608974609e+003;3.9733332520e+003;3.9778205566e+003;3.9716667480e+003;3.9597436523e+003;3.9184614258e+003;3.9442307129e+003;3.9508974609e+003;3.9383332520e+003;3.9564101563e+003;
1.5937500000e+000;3.9184614258e+003;3.8698718262e+003;3.9153845215e+003;3.8966667480e+003;3.9029487305e+003;3.9239743652e+003;3.9252563477e+003;3.9080769043e+003;3.8970512695e+003;3.8534614258e+003;3.8906411133e+003;3.8943588867e+003;3.8820512695e+003;3.9016667480e+003;
1.6015625000e+000;3.8833332520e+003;3.8261538086e+003;3.8712819824e+003;3.8555129395e+003;3.8573076172e+003;3.8848718262e+003;3.8819230957e+003;3.8575642090e+003;3.8483332520e+003;3.8041025391e+003;3.8507692871e+003;3.8505129395e+003;3.8380769043e+003;3.8603845215e+003;
1.6093750000e+000;3.7970512695e+003;3.7311538086e+003;3.7662819824e+003;3.7591025391e+003;3.7542307129e+003;3.7928205566e+003;3.7828205566e+003;3.7548718262e+003;3.7515385742e+003;3.7065385742e+003;3.7580769043e+003;3.7538461914e+003;3.7425642090e+003;3.7680769043e+003;
1.6171875000e+000;3.7473076172e+003;3.6776923828e+003;3.7103845215e+003;3.7082050781e+003;3.7002563477e+003;3.7424357910e+003;3.7333332520e+003;3.7051281738e+003;3.7051281738e+003;3.6575642090e+003;3.7061538086e+003;3.7026923828e+003;3.6935898438e+003;3.7179487305e+003;
1.6250000000e+000;3.7196154785e+003;3.6441025391e+003;3.6776923828e+003;3.6802563477e+003;3.6700000000e+003;3.7126923828e+003;3.7078205566e+003;3.6784614258e+003;3.6819230957e+003;3.6302563477e+003;3.6755129395e+003;3.6720512695e+003;3.6669230957e+003;3.6879487305e+003;
1.6328125000e+000;4.0807692871e+003;3.9984614258e+003;4.0257692871e+003;4.0216667480e+003;4.0233332520e+003;4.0391025391e+003;4.0433332520e+003;4.0307692871e+003;4.0407692871e+003;3.9838461914e+003;4.0256411133e+003;4.0134614258e+003;4.0169230957e+003;4.0335898438e+003;
1.6406250000e+000;4.1834614258e+003;4.1132050781e+003;4.1293588867e+003;4.1243588867e+003;4.1308974609e+003;4.1355126953e+003;4.1437177734e+003;4.1414101563e+003;4.1478203125e+003;4.0994873047e+003;4.1351284180e+003;4.1193588867e+003;4.1278203125e+003;4.1400000000e+003;
1.6484375000e+000;4.2535898438e+003;4.1925639648e+003;4.2014101563e+003;4.1991025391e+003;4.2026923828e+003;4.1967949219e+003;4.2124360352e+003;4.2280771484e+003;4.2316665039e+003;4.1944873047e+003;4.2147436523e+003;4.1970512695e+003;4.2092309570e+003;4.2141025391e+003;
1.6562500000e+000;4.2084614258e+003;4.1424360352e+003;4.1583334961e+003;4.1558974609e+003;4.1524360352e+003;4.1497436523e+003;4.1655126953e+003;4.1858974609e+003;4.1902563477e+003;4.1503847656e+003;4.1679487305e+003;4.1542309570e+003;4.1605126953e+003;4.1698715820e+003;
1.6640625000e+000;4.0083332520e+003;3.9369230957e+003;3.9664101563e+003;3.9575642090e+003;3.9480769043e+003;3.9548718262e+003;3.9646154785e+003;3.9924357910e+003;3.9934614258e+003;3.9383332520e+003;3.9674357910e+003;3.9582050781e+003;3.9482050781e+003;3.9743588867e+003;
1.6718750000e+000;3.9641025391e+003;3.8935898438e+003;3.9216667480e+003;3.9133332520e+003;3.9057692871e+003;3.9124357910e+003;3.9237180176e+003;3.9494870605e+003;3.9480769043e+003;3.8934614258e+003;3.9256411133e+003;3.9139743652e+003;3.9055129395e+003;3.9278205566e+003;
1.6796875000e+000;3.9205129395e+003;3.8315385742e+003;3.8664101563e+003;3.8641025391e+003;3.8571794434e+003;3.8608974609e+003;3.8788461914e+003;3.8838461914e+003;3.8826923828e+003;3.8332050781e+003;3.8705129395e+003;3.8565385742e+003;3.8555129395e+003;3.8706411133e+003;
1.6875000000e+000;3.8453845215e+003;3.7569230957e+003;3.7898718262e+003;3.7996154785e+003;3.7800000000e+003;3.7967949219e+003;3.8048718262e+003;3.7983332520e+003;3.7930769043e+003;3.7400000000e+003;3.7798718262e+003;3.7775642090e+003;3.7720512695e+003;3.7992307129e+003;
1.6953125000e+000;3.8283332520e+003;3.7407692871e+003;3.7712819824e+003;3.7851281738e+003;3.7620512695e+003;3.7834614258e+003;3.7882050781e+003;3.7732050781e+003;3.7658974609e+003;3.7143588867e+003;3.7578205566e+003;3.7571794434e+003;3.7508974609e+003;3.7783332520e+003;
1.7031250000e+000;3.8433332520e+003;3.7537180176e+003;3.7825642090e+003;3.7983332520e+003;3.7764101563e+003;3.7984614258e+003;3.8005129395e+003;3.7767949219e+003;3.7692307129e+003;3.7215385742e+003;3.7682050781e+003;3.7664101563e+003;3.7616667480e+003;3.7871794434e+003;
1.7109375000e+000;3.9144870605e+003;3.8175642090e+003;3.8469230957e+003;3.8614101563e+003;3.8493588867e+003;3.8662819824e+003;3.8642307129e+003;3.8330769043e+003;3.8291025391e+003;3.7901281738e+003;3.8366667480e+003;3.8326923828e+003;3.8288461914e+003;3.8538461914e+003;
1.7187500000e+000;3.9382050781e+003;3.8430769043e+003;3.8700000000e+003;3.8873076172e+003;3.8770512695e+003;3.9021794434e+003;3.8965385742e+003;3.8691025391e+003;3.8810256348e+003;3.8348718262e+003;3.8744870605e+003;3.8661538086e+003;3.8542307129e+003;3.8885898438e+003;
1.7265625000e+000;3.9551281738e+003;3.8619230957e+003;3.8865385742e+003;3.9048718262e+003;3.8957692871e+003;3.9244870605e+003;3.9194870605e+003;3.8938461914e+003;3.9115385742e+003;3.8616667480e+003;3.8958974609e+003;3.8837180176e+003;3.8735898438e+003;3.9048718262e+003;
1.7343750000e+000;3.9821794434e+003;3.8896154785e+003;3.9129487305e+003;3.9303845215e+003;3.9239743652e+003;3.9539743652e+003;3.9507692871e+003;3.9278205566e+003;3.9484614258e+003;3.8973076172e+003;3.9243588867e+003;3.9101281738e+003;3.9035898438e+003;3.9292307129e+003;
1.7421875000e+000;4.0106411133e+003;3.9173076172e+003;3.9405129395e+003;3.9556411133e+003;3.9519230957e+003;3.9800000000e+003;3.9793588867e+003;3.9608974609e+003;3.9805129395e+003;3.9307692871e+003;3.9503845215e+003;3.9369230957e+003;3.9351281738e+003;3.9544870605e+003;
1.7500000000e+000;4.0155129395e+003;3.9257692871e+003;3.9501281738e+003;3.9552563477e+003;3.9466667480e+003;3.9564101563e+003;3.9670512695e+003;3.9766667480e+003;3.9826923828e+003;3.9392307129e+003;3.9529487305e+003;3.9420512695e+003;3.9505129395e+003;3.9641025391e+003;
1.7578125000e+000;3.9946154785e+003;3.9026923828e+003;3.9310256348e+003;3.9360256348e+003;3.9212819824e+003;3.9306411133e+003;3.9458974609e+003;3.9564101563e+003;3.9602563477e+003;3.9161538086e+003;3.9341025391e+003;3.9230769043e+003;3.9262819824e+003;3.9447436523e+003;
1.7656250000e+000;4.0432050781e+003;3.9457692871e+003;3.9726923828e+003;3.9878205566e+003;3.9524357910e+003;3.9521794434e+003;3.9802563477e+003;3.9932050781e+003;3.9955129395e+003;3.9489743652e+003;3.9712819824e+003;3.9620512695e+003;3.9638461914e+003;3.9819230957e+003;
1.7734375000e+000;4.0662819824e+003;3.9684614258e+003;4.0015385742e+003;4.0058974609e+003;3.9766667480e+003;3.9729487305e+003;3.9950000000e+003;4.0101281738e+003;4.0189743652e+003;3.9711538086e+003;4.0005129395e+003;3.9923076172e+003;3.9866667480e+003;4.0134614258e+003;
1.7812500000e+000;4.0720512695e+003;3.9752563477e+003;4.0089743652e+003;4.0097436523e+003;3.9855129395e+003;3.9812819824e+003;4.0037180176e+003;4.0133332520e+003;4.0211538086e+003;3.9778205566e+003;4.0082050781e+003;4.0021794434e+003;3.9919230957e+003;4.0238461914e+003;
1.7890625000e+000;4.0955129395e+003;4.0014101563e+003;4.0303845215e+003;4.0360256348e+003;4.0089743652e+003;4.0070512695e+003;4.0252563477e+003;4.0250000000e+003;4.0221794434e+003;4.0008974609e+003;4.0242307129e+003;4.0265385742e+003;4.0202563477e+003;4.0473076172e+003;
1.7968750000e+000;4.0756411133e+003;3.9797436523e+003;4.0105129395e+003;4.0160256348e+003;3.9885898438e+003;3.9897436523e+003;4.0025642090e+003;3.9980769043e+003;3.9974357910e+003;3.9747436523e+003;4.0030769043e+003;4.0043588867e+003;4.0006411133e+003;4.0256411133e+003;
1.8046875000e+000;4.0687180176e+003;3.9802563477e+003;4.0019230957e+003;4.0056411133e+003;3.9938461914e+003;3.9947436523e+003;3.9985898438e+003;3.9830769043e+003;3.9978205566e+003;3.9655129395e+003;4.0001281738e+003;3.9908974609e+003;3.9888461914e+003;4.0156411133e+003;
1.8125000000e+000;4.0761538086e+003;3.9925642090e+003;4.0120512695e+003;4.0271794434e+003;4.0098718262e+003;4.0107692871e+003;4.0096154785e+003;3.9924357910e+003;4.0078205566e+003;3.9914101563e+003;4.0070512695e+003;4.0015385742e+003;4.0062819824e+003;4.0210256348e+003;
1.8203125000e+000;4.0835898438e+003;3.9989743652e+003;4.0176923828e+003;4.0341025391e+003;4.0161538086e+003;4.0174357910e+003;4.0147436523e+003;3.9964101563e+003;4.0143588867e+003;3.9979487305e+003;4.0150000000e+003;4.0060256348e+003;4.0169230957e+003;4.0278205566e+003;
1.8281250000e+000;4.0879487305e+003;4.0042307129e+003;4.0193588867e+003;4.0365385742e+003;4.0183332520e+003;4.0208974609e+003;4.0175642090e+003;4.0002563477e+003;4.0214101563e+003;3.9993588867e+003;4.0210256348e+003;4.0078205566e+003;4.0221794434e+003;4.0320512695e+003;
1.8359375000e+000;4.0761538086e+003;4.0002563477e+003;4.0066667480e+003;4.0241025391e+003;4.0051281738e+003;4.0111538086e+003;4.0094870605e+003;4.0011538086e+003;4.0226923828e+003;3.9857692871e+003;4.0114101563e+003;3.9985898438e+003;4.0064101563e+003;4.0211538086e+003;
1.8437500000e+000;4.1091025391e+003;4.0396154785e+003;4.0461538086e+003;4.0575642090e+003;4.0452563477e+003;4.0411538086e+003;4.0483332520e+003;4.0543588867e+003;4.0651281738e+003;4.0325642090e+003;4.0433332520e+003;4.0367949219e+003;4.0421794434e+003;4.0565385742e+003;
1.8515625000e+000;4.1117949219e+003;4.0430769043e+003;4.0506411133e+003;4.0607692871e+003;4.0489743652e+003;4.0423076172e+003;4.0533332520e+003;4.0594870605e+003;4.0689743652e+003;4.0353845215e+003;4.0478205566e+003;4.0380769043e+003;4.0464101563e+003;4.0594870605e+003;
1.8593750000e+000;4.1032050781e+003;4.0361538086e+003;4.0438461914e+003;4.0529487305e+003;4.0408974609e+003;4.0334614258e+003;4.0480769043e+003;4.0535898438e+003;4.0624357910e+003;4.0241025391e+003;4.0419230957e+003;4.0283332520e+003;4.0373076172e+003;4.0507692871e+003;
1.8671875000e+000;4.0953845215e+003;4.0303845215e+003;4.0374357910e+003;4.0446154785e+003;4.0324357910e+003;4.0248718262e+003;4.0421794434e+003;4.0498718262e+003;4.0571794434e+003;4.0146154785e+003;4.0367949219e+003;4.0202563477e+003;4.0270512695e+003;4.0420512695e+003;
1.8750000000e+000;4.1283334961e+003;4.0588461914e+003;4.0742307129e+003;4.0775642090e+003;4.0565385742e+003;4.0467949219e+003;4.0683332520e+003;4.0878205566e+003;4.0852563477e+003;4.0548718262e+003;4.0675642090e+003;4.0616667480e+003;4.0644870605e+003;4.0793588867e+003;
1.8828125000e+000;4.1591025391e+003;4.0892307129e+003;4.1016665039e+003;4.1070512695e+003;4.0869230957e+003;4.0735898438e+003;4.0980771484e+003;4.1115385742e+003;4.1093588867e+003;4.0820512695e+003;4.0955129395e+003;4.0887180176e+003;4.0989741211e+003;4.1096152344e+003;
1.8906250000e+000;4.1980771484e+003;4.1366665039e+003;4.1416665039e+003;4.1441025391e+003;4.1373076172e+003;4.1182050781e+003;4.1393588867e+003;4.1485898438e+003;4.1441025391e+003;4.1250000000e+003;4.1378203125e+003;4.1284614258e+003;4.1367949219e+003;4.1474360352e+003;
1.8984375000e+000;4.1821796875e+003;4.1238461914e+003;4.1280771484e+003;4.1356411133e+003;4.1248715820e+003;4.1141025391e+003;4.1241025391e+003;4.1162822266e+003;4.1141025391e+003;4.0997436523e+003;4.1189741211e+003;4.1153847656e+003;4.1180771484e+003;4.1257690430e+003;
1.9062500000e+000;4.2270512695e+003;4.1728203125e+003;4.1697436523e+003;4.1808974609e+003;4.1711538086e+003;4.1587177734e+003;4.1697436523e+003;4.1564101563e+003;4.1571796875e+003;4.1457690430e+003;4.1691025391e+003;4.1589741211e+003;4.1701284180e+003;4.1697436523e+003;
1.9140625000e+000;4.2593588867e+003;4.2107690430e+003;4.2052563477e+003;4.2055126953e+003;4.2117949219e+003;4.1983334961e+003;4.2064101563e+003;4.1984614258e+003;4.2043588867e+003;4.1947436523e+003;4.2166665039e+003;4.2003847656e+003;4.2124360352e+003;4.2073076172e+003;
1.9218750000e+000;4.2112822266e+003;4.1624360352e+003;4.1602563477e+003;4.1567949219e+003;4.1652563477e+003;4.1553847656e+003;4.1583334961e+003;4.1547436523e+003;4.1650000000e+003;4.1502563477e+003;4.1701284180e+003;4.1574360352e+003;4.1637177734e+003;4.1606411133e+003;
1.9296875000e+000;4.0007692871e+003;3.9425642090e+003;3.9514101563e+003;3.9525642090e+003;3.9491025391e+003;3.9541025391e+003;3.9569230957e+003;3.9494870605e+003;3.9717949219e+003;3.9383332520e+003;3.9603845215e+003;3.9541025391e+003;3.9530769043e+003;3.9482050781e+003;
1.9375000000e+000;3.9548718262e+003;3.8907692871e+003;3.9017949219e+003;3.9061538086e+003;3.9001281738e+003;3.9070512695e+003;3.9146154785e+003;3.9019230957e+003;3.9244870605e+003;3.8857692871e+003;3.9110256348e+003;3.9043588867e+003;3.9035898438e+003;3.8978205566e+003;
1.9453125000e+000;3.9176923828e+003;3.8474357910e+003;3.8608974609e+003;3.8701281738e+003;3.8630769043e+003;3.8705129395e+003;3.8788461914e+003;3.8684614258e+003;3.8885898438e+003;3.8405129395e+003;3.8674357910e+003;3.8633332520e+003;3.8601281738e+003;3.8539743652e+003;
1.9531250000e+000;3.8824357910e+003;3.8098718262e+003;3.8283332520e+003;3.8396154785e+003;3.8270512695e+003;3.8373076172e+003;3.8423076172e+003;3.8400000000e+003;3.8573076172e+003;3.8046154785e+003;3.8302563477e+003;3.8317949219e+003;3.8232050781e+003;3.8187180176e+003;
1.9609375000e+000;3.8217949219e+003;3.7435898438e+003;3.7705129395e+003;3.7841025391e+003;3.7605129395e+003;3.7765385742e+003;3.7798718262e+003;3.7846154785e+003;3.7979487305e+003;3.7408974609e+003;3.7662819824e+003;3.7743588867e+003;3.7588461914e+003;3.7575642090e+003;
1.9687500000e+000;3.6621794434e+003;3.5401281738e+003;3.5874357910e+003;3.6043588867e+003;3.5611538086e+003;3.5820512695e+003;3.5967949219e+003;3.5937180176e+003;3.5874357910e+003;3.5274357910e+003;3.5665385742e+003;3.5871794434e+003;3.5635898438e+003;3.5658974609e+003;
1.9765625000e+000;3.6589743652e+003;3.5317949219e+003;3.5812819824e+003;3.5976923828e+003;3.5523076172e+003;3.5694870605e+003;3.5856411133e+003;3.5812819824e+003;3.5753845215e+003;3.5155129395e+003;3.5607692871e+003;3.5829487305e+003;3.5560256348e+003;3.5612819824e+003;
1.9843750000e+000;3.6524357910e+003;3.5153845215e+003;3.5617949219e+003;3.5874357910e+003;3.5294870605e+003;3.5497436523e+003;3.5660256348e+003;3.5646154785e+003;3.5532050781e+003;3.5056411133e+003;3.5480769043e+003;3.5666667480e+003;3.5382050781e+003;3.5483332520e+003;
1.9921875000e+000;3.6488461914e+003;3.5120512695e+003;3.5534614258e+003;3.5839743652e+003;3.5257692871e+003;3.5493588867e+003;3.5629487305e+003;3.5576923828e+003;3.5448718262e+003;3.4991025391e+003;3.5382050781e+003;3.5570512695e+003;3.5324357910e+003;3.5398718262e+003;
2.0000000000e+000;3.6779487305e+003;3.5438461914e+003;3.5748718262e+003;3.6108974609e+003;3.5608974609e+003;3.5812819824e+003;3.5878205566e+003;3.5708974609e+003;3.5632050781e+003;3.5170512695e+003;3.5544870605e+003;3.5733332520e+003;3.5552563477e+003;3.5587180176e+003;
2.0078125000e+000;3.6274357910e+003;3.4839743652e+003;3.5188461914e+003;3.5564101563e+003;3.5065385742e+003;3.5311538086e+003;3.5275642090e+003;3.5080769043e+003;3.5151281738e+003;3.4741025391e+003;3.5051281738e+003;3.5237180176e+003;3.5002563477e+003;3.5062819824e+003;
2.0156250000e+000;3.5933332520e+003;3.4474357910e+003;3.4837180176e+003;3.5206411133e+003;3.4697436523e+003;3.4970512695e+003;3.4933332520e+003;3.4703845215e+003;3.4829487305e+003;3.4380769043e+003;3.4697436523e+003;3.4882050781e+003;3.4694870605e+003;3.4719230957e+003;
2.0234375000e+000;3.5444870605e+003;3.3891025391e+003;3.4276923828e+003;3.4666667480e+003;3.4084614258e+003;3.4408974609e+003;3.4364101563e+003;3.4080769043e+003;3.4316667480e+003;3.3769230957e+003;3.4117949219e+003;3.4291025391e+003;3.4156411133e+003;3.4169230957e+003;
2.0312500000e+000;3.5142307129e+003;3.3516667480e+003;3.3911538086e+003;3.4355129395e+003;3.3703845215e+003;3.4070512695e+003;3.4012819824e+003;3.3719230957e+003;3.3976923828e+003;3.3400000000e+003;3.3761538086e+003;3.3941025391e+003;3.3775642090e+003;3.3825642090e+003;
2.0390625000e+000;3.4678205566e+003;3.3002563477e+003;3.3319230957e+003;3.3938461914e+003;3.3230769043e+003;3.3600000000e+003;3.3557692871e+003;3.3306411133e+003;3.3547436523e+003;3.2919230957e+003;3.3284614258e+003;3.3408974609e+003;3.3267949219e+003;3.3287180176e+003;
2.0468750000e+000;3.4693588867e+003;3.3026923828e+003;3.3346154785e+003;3.3955129395e+003;3.3257692871e+003;3.3605129395e+003;3.3598718262e+003;3.3379487305e+003;3.3603845215e+003;3.2969230957e+003;3.3328205566e+003;3.3423076172e+003;3.3311538086e+003;3.3297436523e+003;
2.0546875000e+000;3.4391025391e+003;3.2448718262e+003;3.2962819824e+003;3.3462819824e+003;3.2707692871e+003;3.3065385742e+003;3.3133332520e+003;3.3041025391e+003;3.3102563477e+003;3.2524357910e+003;3.2803845215e+003;3.3026923828e+003;3.2741025391e+003;3.2839743652e+003;
2.0625000000e+000;3.4274357910e+003;3.2250000000e+003;3.2791025391e+003;3.3297436523e+003;3.2528205566e+003;3.2870512695e+003;3.2937180176e+003;3.2892307129e+003;3.2896154785e+003;3.2314101563e+003;3.2602563477e+003;3.2862819824e+003;3.2508974609e+003;3.2643588867e+003;
2.0703125000e+000;3.4028205566e+003;3.2000000000e+003;3.2516667480e+003;3.3112819824e+003;3.2276923828e+003;3.2596154785e+003;3.2702563477e+003;3.2634614258e+003;3.2594870605e+003;3.1943588867e+003;3.2364101563e+003;3.2576923828e+003;3.2206411133e+003;3.2332050781e+003;
2.0781250000e+000;3.3993588867e+003;3.1978205566e+003;3.2480769043e+003;3.3115385742e+003;3.2235898438e+003;3.2557692871e+003;3.2705129395e+003;3.2575642090e+003;3.2548718262e+003;3.1870512695e+003;3.2339743652e+003;3.2515385742e+003;3.2202563477e+003;3.2285898438e+003;
2.0859375000e+000;3.4096154785e+003;3.2073076172e+003;3.2564101563e+003;3.3210256348e+003;3.2311538086e+003;3.2630769043e+003;3.2807692871e+003;3.2637180176e+003;3.2632050781e+003;3.1958974609e+003;3.2414101563e+003;3.2580769043e+003;3.2341025391e+003;3.2371794434e+003;
2.0937500000e+000;3.4255129395e+003;3.2211538086e+003;3.2689743652e+003;3.3326923828e+003;3.2442307129e+003;3.2748718262e+003;3.2925642090e+003;3.2765385742e+003;3.2782050781e+003;3.2129487305e+003;3.2517949219e+003;3.2712819824e+003;3.2520512695e+003;3.2510256348e+003;
2.1015625000e+000;3.4107692871e+003;3.2035898438e+003;3.2443588867e+003;3.3119230957e+003;3.2233332520e+003;3.2587180176e+003;3.2702563477e+003;3.2578205566e+003;3.2674357910e+003;3.1982050781e+003;3.2296154785e+003;3.2570512695e+003;3.2264101563e+003;3.2370512695e+003;
2.1093750000e+000;3.5508974609e+003;3.3506411133e+003;3.3784614258e+003;3.4448718262e+003;3.3761538086e+003;3.3993588867e+003;3.4008974609e+003;3.3735898438e+003;3.3960256348e+003;3.3471794434e+003;3.3671794434e+003;3.3794870605e+003;3.3693588867e+003;3.3688461914e+003;
2.1171875000e+000;3.5501281738e+003;3.3524357910e+003;3.3783332520e+003;3.4430769043e+003;3.3792307129e+003;3.4001281738e+003;3.3974357910e+003;3.3720512695e+003;3.3970512695e+003;3.3478205566e+003;3.3658974609e+003;3.3797436523e+003;3.3696154785e+003;3.3683332520e+003;
2.1250000000e+000;3.5343588867e+003;3.3408974609e+003;3.3598718262e+003;3.4276923828e+003;3.3620512695e+003;3.3883332520e+003;3.3820512695e+003;3.3626923828e+003;3.3916667480e+003;3.3411538086e+003;3.3608974609e+003;3.3716667480e+003;3.3603845215e+003;3.3619230957e+003;
2.1328125000e+000;3.4558974609e+003;3.2488461914e+003;3.2776923828e+003;3.3493588867e+003;3.2758974609e+003;3.3066667480e+003;3.2988461914e+003;3.2866667480e+003;3.3208974609e+003;3.2687180176e+003;3.2861538086e+003;3.2957692871e+003;3.2855129395e+003;3.2905129395e+003;
2.1406250000e+000;3.4432050781e+003;3.2329487305e+003;3.2661538086e+003;3.3353845215e+003;3.2625642090e+003;3.2925642090e+003;3.2852563477e+003;3.2764101563e+003;3.3092307129e+003;3.2542307129e+003;3.2671794434e+003;3.2808974609e+003;3.2726923828e+003;3.2770512695e+003;
2.1484375000e+000;3.4112819824e+003;3.1976923828e+003;3.2370512695e+003;3.3026923828e+003;3.2239743652e+003;3.2621794434e+003;3.2594870605e+003;3.2567949219e+003;3.2805129395e+003;3.2230769043e+003;3.2332050781e+003;3.2552563477e+003;3.2434614258e+003;3.2483332520e+003;
2.1562500000e+000;3.4019230957e+003;3.1864101563e+003;3.2261538086e+003;3.2930769043e+003;3.2098718262e+003;3.2502563477e+003;3.2530769043e+003;3.2508974609e+003;3.2697436523e+003;3.2135898438e+003;3.2269230957e+003;3.2482050781e+003;3.2332050781e+003;3.2382050781e+003;
2.1640625000e+000;3.4192307129e+003;3.1902563477e+003;3.2338461914e+003;3.2973076172e+003;3.2153845215e+003;3.2400000000e+003;3.2605129395e+003;3.2529487305e+003;3.2646154785e+003;3.2133332520e+003;3.2320512695e+003;3.2502563477e+003;3.2258974609e+003;3.2319230957e+003;
2.1718750000e+000;3.4319230957e+003;3.1991025391e+003;3.2473076172e+003;3.3044870605e+003;3.2250000000e+003;3.2453845215e+003;3.2676923828e+003;3.2589743652e+003;3.2664101563e+003;3.2173076172e+003;3.2358974609e+003;3.2593588867e+003;3.2292307129e+003;3.2379487305e+003;
2.1796875000e+000;3.4741025391e+003;3.2476923828e+003;3.2921794434e+003;3.3500000000e+003;3.2670512695e+003;3.2873076172e+003;3.3073076172e+003;3.3032050781e+003;3.2952563477e+003;3.2610256348e+003;3.2815385742e+003;3.3088461914e+003;3.2725642090e+003;3.2832050781e+003;
2.1875000000e+000;3.4623076172e+003;3.2351281738e+003;3.2785898438e+003;3.3402563477e+003;3.2562819824e+003;3.2761538086e+003;3.2966667480e+003;3.2902563477e+003;3.2823076172e+003;3.2505129395e+003;3.2712819824e+003;3.2966667480e+003;3.2630769043e+003;3.2719230957e+003;
2.1953125000e+000;3.4382050781e+003;3.2030769043e+003;3.2508974609e+003;3.3098718262e+003;3.2342307129e+003;3.2489743652e+003;3.2726923828e+003;3.2528205566e+003;3.2553845215e+003;3.2166667480e+003;3.2378205566e+003;3.2652563477e+003;3.2300000000e+003;3.2398718262e+003;
2.2031250000e+000;3.4464101563e+003;3.2114101563e+003;3.2588461914e+003;3.3146154785e+003;3.2439743652e+003;3.2574357910e+003;3.2810256348e+003;3.2569230957e+003;3.2661538086e+003;3.2229487305e+003;3.2442307129e+003;3.2721794434e+003;3.2337180176e+003;3.2447436523e+003;
2.2109375000e+000;3.4550000000e+003;3.2248718262e+003;3.2682050781e+003;3.3241025391e+003;3.2539743652e+003;3.2701281738e+003;3.2908974609e+003;3.2664101563e+003;3.2800000000e+003;3.2352563477e+003;3.2565385742e+003;3.2829487305e+003;3.2433332520e+003;3.2535898438e+003;
2.2187500000e+000;3.4500000000e+003;3.2261538086e+003;3.2635898438e+003;3.3233332520e+003;3.2493588867e+003;3.2708974609e+003;3.2875642090e+003;3.2630769043e+003;3.2784614258e+003;3.2358974609e+003;3.2566667480e+003;3.2806411133e+003;3.2438461914e+003;3.2510256348e+003;
2.2265625000e+000;3.4834614258e+003;3.2620512695e+003;3.2874357910e+003;3.3508974609e+003;3.2932050781e+003;3.3079487305e+003;3.3139743652e+003;3.2783332520e+003;3.2991025391e+003;3.2703845215e+003;3.2751281738e+003;3.2985898438e+003;3.2820512695e+003;3.2774357910e+003;
2.2343750000e+000;3.4102563477e+003;3.1925642090e+003;3.2185898438e+003;3.2928205566e+003;3.2215385742e+003;3.2430769043e+003;3.2506411133e+003;3.2198718262e+003;3.2456411133e+003;3.2108974609e+003;3.2135898438e+003;3.2338461914e+003;3.2089743652e+003;3.2115385742e+003;
2.2421875000e+000;3.3873076172e+003;3.1698718262e+003;3.1956411133e+003;3.2700000000e+003;3.1978205566e+003;3.2193588867e+003;3.2316667480e+003;3.2001281738e+003;3.2260256348e+003;3.1878205566e+003;3.1926923828e+003;3.2123076172e+003;3.1910256348e+003;3.1901281738e+003;
2.2500000000e+000;3.3502563477e+003;3.1243588867e+003;3.1539743652e+003;3.2294870605e+003;3.1571794434e+003;3.1791025391e+003;3.1944870605e+003;3.1705129395e+003;3.1939743652e+003;3.1491025391e+003;3.1539743652e+003;3.1771794434e+003;3.1535898438e+003;3.1511538086e+003;
2.2578125000e+000;3.3320512695e+003;3.1005129395e+003;3.1323076172e+003;3.2094870605e+003;3.1350000000e+003;3.1584614258e+003;3.1725642090e+003;3.1544870605e+003;3.1734614258e+003;3.1275642090e+003;3.1329487305e+003;3.1571794434e+003;3.1294870605e+003;3.1298718262e+003;
2.2656250000e+000;3.3110256348e+003;3.0767949219e+003;3.1102563477e+003;3.1829487305e+003;3.1055129395e+003;3.1266667480e+003;3.1441025391e+003;3.1391025391e+003;3.1401281738e+003;3.0979487305e+003;3.1088461914e+003;3.1321794434e+003;3.1010256348e+003;3.1042307129e+003;
2.2734375000e+000;3.2924357910e+003;3.0475642090e+003;3.0925642090e+003;3.1707692871e+003;3.0857692871e+003;3.0989743652e+003;3.1228205566e+003;3.1079487305e+003;3.1035898438e+003;3.0678205566e+003;3.0769230957e+003;3.1094870605e+003;3.0817949219e+003;3.0765385742e+003;
2.2812500000e+000;3.3156411133e+003;3.0644870605e+003;3.1120512695e+003;3.1911538086e+003;3.1053845215e+003;3.1135898438e+003;3.1380769043e+003;3.1198718262e+003;3.1139743652e+003;3.0833332520e+003;3.0942307129e+003;3.1260256348e+003;3.0989743652e+003;3.0955129395e+003;
2.2890625000e+000;3.3305129395e+003;3.0798718262e+003;3.1214101563e+003;3.1888461914e+003;3.1092307129e+003;3.1155129395e+003;3.1416667480e+003;3.1223076172e+003;3.1120512695e+003;3.0902563477e+003;3.1056411133e+003;3.1466667480e+003;3.0993588867e+003;3.1142307129e+003;
2.2968750000e+000;3.3196154785e+003;3.0766667480e+003;3.1097436523e+003;3.1798718262e+003;3.1001281738e+003;3.1078205566e+003;3.1339743652e+003;3.1133332520e+003;3.1058974609e+003;3.0848718262e+003;3.0973076172e+003;3.1394870605e+003;3.0937180176e+003;3.1014101563e+003;
2.3046875000e+000;3.3173076172e+003;3.0810256348e+003;3.1067949219e+003;3.1830769043e+003;3.1014101563e+003;3.1092307129e+003;3.1343588867e+003;3.1119230957e+003;3.1092307129e+003;3.0891025391e+003;3.0976923828e+003;3.1366667480e+003;3.0996154785e+003;3.0929487305e+003;
2.3125000000e+000;3.3176923828e+003;3.0787180176e+003;3.1071794434e+003;3.1884614258e+003;3.1035898438e+003;3.1126923828e+003;3.1328205566e+003;3.1074357910e+003;3.1126923828e+003;3.0924357910e+003;3.0993588867e+003;3.1278205566e+003;3.1041025391e+003;3.0846154785e+003;
2.3203125000e+000;3.2517949219e+003;2.9996154785e+003;3.0362819824e+003;3.1170512695e+003;3.0321794434e+003;3.0582050781e+003;3.0673076172e+003;3.0376923828e+003;3.0566667480e+003;3.0302563477e+003;3.0319230957e+003;3.0594870605e+003;3.0289743652e+003;3.0378205566e+003;
2.3281250000e+000;3.2092307129e+003;2.9583332520e+003;2.9925642090e+003;3.0793588867e+003;2.9932050781e+003;3.0246154785e+003;3.0306411133e+003;2.9992307129e+003;3.0228205566e+003;2.9950000000e+003;2.9917949219e+003;3.0214101563e+003;2.9926923828e+003;2.9993588867e+003;
2.3359375000e+000;3.1665385742e+003;2.9155129395e+003;2.9497436523e+003;3.0417949219e+003;2.9550000000e+003;2.9888461914e+003;2.9935898438e+003;2.9593588867e+003;2.9853845215e+003;2.9553845215e+003;2.9514101563e+003;2.9816667480e+003;2.9570512695e+003;2.9555129395e+003;
2.3437500000e+000;3.1403845215e+003;2.8855129395e+003;2.9224357910e+003;3.0158974609e+003;2.9308974609e+003;2.9639743652e+003;2.9693588867e+003;2.9324357910e+003;2.9589743652e+003;2.9255129395e+003;2.9258974609e+003;2.9541025391e+003;2.9330769043e+003;2.9239743652e+003;
2.3515625000e+000;3.1675642090e+003;2.9056411133e+003;2.9371794434e+003;3.0311538086e+003;2.9384614258e+003;2.9715385742e+003;2.9808974609e+003;2.9551281738e+003;2.9829487305e+003;2.9394870605e+003;2.9411538086e+003;2.9684614258e+003;2.9397436523e+003;2.9405129395e+003;
2.3593750000e+000;3.1601281738e+003;2.9029487305e+003;2.9291025391e+003;3.0258974609e+003;2.9269230957e+003;2.9606411133e+003;2.9738461914e+003;2.9506411133e+003;2.9742307129e+003;2.9339743652e+003;2.9320512695e+003;2.9639743652e+003;2.9356411133e+003;2.9337180176e+003;
2.3671875000e+000;3.1866667480e+003;2.9244870605e+003;2.9511538086e+003;3.0423076172e+003;2.9516667480e+003;2.9696154785e+003;2.9946154785e+003;2.9797436523e+003;2.9874357910e+003;2.9569230957e+003;2.9600000000e+003;2.9917949219e+003;2.9710256348e+003;2.9574357910e+003;
2.3750000000e+000;3.1661538086e+003;2.8996154785e+003;2.9311538086e+003;3.0243588867e+003;2.9270512695e+003;2.9379487305e+003;2.9611538086e+003;2.9417949219e+003;2.9476923828e+003;2.9178205566e+003;2.9308974609e+003;2.9628205566e+003;2.9337180176e+003;2.9364101563e+003;
2.3828125000e+000;3.1821794434e+003;2.9192307129e+003;2.9453845215e+003;3.0401281738e+003;2.9396154785e+003;2.9487180176e+003;2.9719230957e+003;2.9507692871e+003;2.9541025391e+003;2.9306411133e+003;2.9444870605e+003;2.9752563477e+003;2.9478205566e+003;2.9507692871e+003;
2.3906250000e+000;3.3025642090e+003;3.0446154785e+003;3.0594870605e+003;3.1475642090e+003;3.0500000000e+003;3.0446154785e+003;3.0766667480e+003;3.0569230957e+003;3.0591025391e+003;3.0523076172e+003;3.0633332520e+003;3.0924357910e+003;3.0744870605e+003;3.0694870605e+003;
2.3984375000e+000;3.3741025391e+003;3.1193588867e+003;3.1356411133e+003;3.2157692871e+003;3.1297436523e+003;3.1162819824e+003;3.1402563477e+003;3.1212819824e+003;3.1361538086e+003;3.1251281738e+003;3.1256411133e+003;3.1616667480e+003;3.1446154785e+003;3.1406411133e+003;
2.4062500000e+000;3.3444870605e+003;3.0924357910e+003;3.1067949219e+003;3.1894870605e+003;3.1030769043e+003;3.0957692871e+003;3.1138461914e+003;3.0944870605e+003;3.1091025391e+003;3.0996154785e+003;3.0966667480e+003;3.1332050781e+003;3.1137180176e+003;3.1112819824e+003;
2.4140625000e+000;3.3050000000e+003;3.0555129395e+003;3.0665385742e+003;3.1532050781e+003;3.0656411133e+003;3.0644870605e+003;3.0787180176e+003;3.0558974609e+003;3.0701281738e+003;3.0617949219e+003;3.0589743652e+003;3.0938461914e+003;3.0734614258e+003;3.0714101563e+003;
2.4218750000e+000;3.3024357910e+003;3.0585898438e+003;3.0608974609e+003;3.1512819824e+003;3.0678205566e+003;3.0653845215e+003;3.0789743652e+003;3.0417949219e+003;3.0621794434e+003;3.0538461914e+003;3.0560256348e+003;3.0833332520e+003;3.0717949219e+003;3.0647436523e+003;
2.4296875000e+000;3.3366667480e+003;3.0965385742e+003;3.0961538086e+003;3.1841025391e+003;3.1056411133e+003;3.0989743652e+003;3.1126923828e+003;3.0697436523e+003;3.0946154785e+003;3.0867949219e+003;3.0892307129e+003;3.1147436523e+003;3.1076923828e+003;3.0976923828e+003;
2.4375000000e+000;3.3574357910e+003;3.1212819824e+003;3.1265385742e+003;3.2053845215e+003;3.1357692871e+003;3.1325642090e+003;3.1396154785e+003;3.1014101563e+003;3.1292307129e+003;3.1224357910e+003;3.1197436523e+003;3.1508974609e+003;3.1301281738e+003;3.1251281738e+003;
2.4453125000e+000;3.3505129395e+003;3.1137180176e+003;3.1203845215e+003;3.1993588867e+003;3.1306411133e+003;3.1283332520e+003;3.1364101563e+003;3.1051281738e+003;3.1329487305e+003;3.1234614258e+003;3.1198718262e+003;3.1498718262e+003;3.1262819824e+003;3.1223076172e+003;
2.4531250000e+000;3.3453845215e+003;3.1070512695e+003;3.1150000000e+003;3.1944870605e+003;3.1257692871e+003;3.1234614258e+003;3.1343588867e+003;3.1101281738e+003;3.1388461914e+003;3.1251281738e+003;3.1198718262e+003;3.1470512695e+003;3.1256411133e+003;3.1205129395e+003;
2.4609375000e+000;3.3325642090e+003;3.0915385742e+003;3.1025642090e+003;3.1815385742e+003;3.1112819824e+003;3.1106411133e+003;3.1238461914e+003;3.1046154785e+003;3.1344870605e+003;3.1156411133e+003;3.1088461914e+003;3.1334614258e+003;3.1164101563e+003;3.1098718262e+003;
2.4687500000e+000;3.2832050781e+003;3.0374357910e+003;3.0538461914e+003;3.1297436523e+003;3.0547436523e+003;3.0641025391e+003;3.0760256348e+003;3.0605129395e+003;3.0833332520e+003;3.0535898438e+003;3.0432050781e+003;3.0741025391e+003;3.0600000000e+003;3.0483332520e+003;
2.4765625000e+000;3.3373076172e+003;3.0975642090e+003;3.1070512695e+003;3.1864101563e+003;3.1042307129e+003;3.1014101563e+003;3.1248718262e+003;3.1148718262e+003;3.1280769043e+003;3.1076923828e+003;3.1025642090e+003;3.1333332520e+003;3.1134614258e+003;3.1026923828e+003;
2.4843750000e+000;3.3646154785e+003;3.1234614258e+003;3.1338461914e+003;3.2137180176e+003;3.1288461914e+003;3.1202563477e+003;3.1465385742e+003;3.1342307129e+003;3.1478205566e+003;3.1350000000e+003;3.1335898438e+003;3.1602563477e+003;3.1429487305e+003;3.1334614258e+003;
2.4921875000e+000;3.3560256348e+003;3.1110256348e+003;3.1285898438e+003;3.2026923828e+003;3.1201281738e+003;3.1076923828e+003;3.1311538086e+003;3.1138461914e+003;3.1261538086e+003;3.1257692871e+003;3.1284614258e+003;3.1580769043e+003;3.1437180176e+003;3.1350000000e+003;
2.5000000000e+000;3.4188461914e+003;3.1734614258e+003;3.1864101563e+003;3.2611538086e+003;3.1800000000e+003;3.1679487305e+003;3.1948718262e+003;3.1724357910e+003;3.1861538086e+003;3.1903845215e+003;3.1938461914e+003;3.2223076172e+003;3.2071794434e+003;3.1965385742e+003;
2.5078125000e+000;3.4660256348e+003;3.2207692871e+003;3.2305129395e+003;3.3067949219e+003;3.2271794434e+003;3.2108974609e+003;3.2397436523e+003;3.2153845215e+003;3.2326923828e+003;3.2406411133e+003;3.2425642090e+003;3.2693588867e+003;3.2530769043e+003;3.2408974609e+003;
2.5156250000e+000;3.5437180176e+003;3.3065385742e+003;3.3097436523e+003;3.3842307129e+003;3.3210256348e+003;3.3015385742e+003;3.3239743652e+003;3.2884614258e+003;3.3141025391e+003;3.3233332520e+003;3.3223076172e+003;3.3469230957e+003;3.3407692871e+003;3.3146154785e+003;
2.5234375000e+000;3.5741025391e+003;3.3441025391e+003;3.3425642090e+003;3.4161538086e+003;3.3602563477e+003;3.3433332520e+003;3.3610256348e+003;3.3234614258e+003;3.3503845215e+003;3.3615385742e+003;3.3589743652e+003;3.3797436523e+003;3.3785898438e+003;3.3484614258e+003;
2.5312500000e+000;3.6155129395e+003;3.3964101563e+003;3.3910256348e+003;3.4644870605e+003;3.4137180176e+003;3.4024357910e+003;3.4151281738e+003;3.3762819824e+003;3.4055129395e+003;3.4246154785e+003;3.4160256348e+003;3.4333332520e+003;3.4308974609e+003;3.3984614258e+003;
2.5390625000e+000;3.6214101563e+003;3.4044870605e+003;3.4002563477e+003;3.4728205566e+003;3.4237180176e+003;3.4110256348e+003;3.4241025391e+003;3.3867949219e+003;3.4171794434e+003;3.4375642090e+003;3.4247436523e+003;3.4434614258e+003;3.4389743652e+003;3.4048718262e+003;
2.5468750000e+000;3.6388461914e+003;3.4284614258e+003;3.4241025391e+003;3.4880769043e+003;3.4521794434e+003;3.4283332520e+003;3.4448718262e+003;3.4251281738e+003;3.4534614258e+003;3.4615385742e+003;3.4393588867e+003;3.4614101563e+003;3.4558974609e+003;3.4164101563e+003;
2.5546875000e+000;3.6353845215e+003;3.4279487305e+003;3.4221794434e+003;3.4846154785e+003;3.4469230957e+003;3.4275642090e+003;3.4444870605e+003;3.4296154785e+003;3.4542307129e+003;3.4589743652e+003;3.4364101563e+003;3.4611538086e+003;3.4497436523e+003;3.4137180176e+003;
2.5625000000e+000;3.6321794434e+003;3.4267949219e+003;3.4196154785e+003;3.4821794434e+003;3.4405129395e+003;3.4275642090e+003;3.4448718262e+003;3.4326923828e+003;3.4528205566e+003;3.4560256348e+003;3.4346154785e+003;3.4612819824e+003;3.4432050781e+003;3.4106411133e+003;
2.5703125000e+000;3.6410256348e+003;3.4373076172e+003;3.4288461914e+003;3.4915385742e+003;3.4479487305e+003;3.4382050781e+003;3.4569230957e+003;3.4466667480e+003;3.4625642090e+003;3.4658974609e+003;3.4453845215e+003;3.4707692871e+003;3.4497436523e+003;3.4178205566e+003;
2.5781250000e+000;3.7698718262e+003;3.5787180176e+003;3.5683332520e+003;3.6180769043e+003;3.5925642090e+003;3.5611538086e+003;3.5897436523e+003;3.5847436523e+003;3.5961538086e+003;3.6016667480e+003;3.5765385742e+003;3.5962819824e+003;3.5879487305e+003;3.5471794434e+003;
2.5859375000e+000;3.7929487305e+003;3.6046154785e+003;3.5933332520e+003;3.6408974609e+003;3.6165385742e+003;3.5807692871e+003;3.6093588867e+003;3.6053845215e+003;3.6171794434e+003;3.6250000000e+003;3.6003845215e+003;3.6242307129e+003;3.6139743652e+003;3.5737180176e+003;
2.5937500000e+000;3.7934614258e+003;3.6193588867e+003;3.6057692871e+003;3.6566667480e+003;3.6270512695e+003;3.5828205566e+003;3.6155129395e+003;3.6089743652e+003;3.6164101563e+003;3.6424357910e+003;3.6188461914e+003;3.6484614258e+003;3.6279487305e+003;3.5924357910e+003;
2.6015625000e+000;3.8580769043e+003;3.6985898438e+003;3.6776923828e+003;3.7265385742e+003;3.6938461914e+003;3.6417949219e+003;3.6766667480e+003;3.6569230957e+003;3.6655129395e+003;3.7002563477e+003;3.6810256348e+003;3.7100000000e+003;3.6962819824e+003;3.6574357910e+003;
2.6093750000e+000;3.8670512695e+003;3.7100000000e+003;3.6896154785e+003;3.7371794434e+003;3.7015385742e+003;3.6519230957e+003;3.6811538086e+003;3.6625642090e+003;3.6728205566e+003;3.7066667480e+003;3.6893588867e+003;3.7217949219e+003;3.7067949219e+003;3.6692307129e+003;
2.6171875000e+000;3.8712819824e+003;3.7187180176e+003;3.7025642090e+003;3.7435898438e+003;3.7137180176e+003;3.6635898438e+003;3.6823076172e+003;3.6600000000e+003;3.6788461914e+003;3.7150000000e+003;3.7048718262e+003;3.7426923828e+003;3.7180769043e+003;3.6928205566e+003;
2.6250000000e+000;4.0101281738e+003;3.8760256348e+003;3.8483332520e+003;3.8833332520e+003;3.8697436523e+003;3.8120512695e+003;3.8348718262e+003;3.8044870605e+003;3.8365385742e+003;3.8784614258e+003;3.8608974609e+003;3.8846154785e+003;3.8753845215e+003;3.8391025391e+003;
2.6328125000e+000;4.0011538086e+003;3.8711538086e+003;3.8446154785e+003;3.8776923828e+003;3.8682050781e+003;3.8135898438e+003;3.8362819824e+003;3.8060256348e+003;3.8405129395e+003;3.8796154785e+003;3.8555129395e+003;3.8792307129e+003;3.8724357910e+003;3.8350000000e+003;
2.6406250000e+000;3.9219230957e+003;3.8050000000e+003;3.7810256348e+003;3.8193588867e+003;3.8152563477e+003;3.7712819824e+003;3.7953845215e+003;3.7721794434e+003;3.8041025391e+003;3.8356411133e+003;3.7955129395e+003;3.8176923828e+003;3.8093588867e+003;3.7714101563e+003;
2.6484375000e+000;3.9241025391e+003;3.8110256348e+003;3.7856411133e+003;3.8284614258e+003;3.8220512695e+003;3.7821794434e+003;3.8075642090e+003;3.7869230957e+003;3.8152563477e+003;3.8437180176e+003;3.8042307129e+003;3.8244870605e+003;3.8152563477e+003;3.7744870605e+003;
2.6562500000e+000;3.9779487305e+003;3.8693588867e+003;3.8405129395e+003;3.8843588867e+003;3.8820512695e+003;3.8421794434e+003;3.8726923828e+003;3.8566667480e+003;3.8769230957e+003;3.8971794434e+003;3.8597436523e+003;3.8796154785e+003;3.8710256348e+003;3.8271794434e+003;
2.6640625000e+000;4.0101281738e+003;3.9035898438e+003;3.8737180176e+003;3.9142307129e+003;3.9189743652e+003;3.8747436523e+003;3.9076923828e+003;3.8971794434e+003;3.9126923828e+003;3.9315385742e+003;3.8923076172e+003;3.9132050781e+003;3.9035898438e+003;3.8616667480e+003;
2.6718750000e+000;4.0194870605e+003;3.9229487305e+003;3.8976923828e+003;3.9353845215e+003;3.9423076172e+003;3.8970512695e+003;3.9271794434e+003;3.9326923828e+003;3.9332050781e+003;3.9616667480e+003;3.9242307129e+003;3.9446154785e+003;3.9234614258e+003;3.8914101563e+003;
2.6796875000e+000;4.0305129395e+003;3.9398718262e+003;3.9126923828e+003;3.9526923828e+003;3.9551281738e+003;3.9102563477e+003;3.9402563477e+003;3.9438461914e+003;3.9425642090e+003;3.9753845215e+003;3.9412819824e+003;3.9594870605e+003;3.9397436523e+003;3.9069230957e+003;
2.6875000000e+000;4.0607692871e+003;3.9774357910e+003;3.9451281738e+003;3.9856411133e+003;3.9865385742e+003;3.9388461914e+003;3.9707692871e+003;3.9708974609e+003;3.9694870605e+003;4.0074357910e+003;3.9730769043e+003;3.9892307129e+003;3.9750000000e+003;3.9397436523e+003;
2.6953125000e+000;4.0932050781e+003;4.0166667480e+003;3.9798718262e+003;4.0175642090e+003;4.0200000000e+003;3.9675642090e+003;4.0020512695e+003;3.9997436523e+003;3.9983332520e+003;4.0423076172e+003;4.0038461914e+003;4.0202563477e+003;4.0115385742e+003;3.9744870605e+003;
2.7031250000e+000;4.0953845215e+003;4.0264101563e+003;4.0002563477e+003;4.0220512695e+003;4.0252563477e+003;3.9600000000e+003;3.9973076172e+003;3.9912819824e+003;3.9823076172e+003;4.0446154785e+003;4.0079487305e+003;4.0356411133e+003;4.0191025391e+003;3.9942307129e+003;
2.7109375000e+000;4.1087177734e+003;4.0439743652e+003;4.0174357910e+003;4.0391025391e+003;4.0402563477e+003;3.9702563477e+003;4.0078205566e+003;4.0015385742e+003;3.9950000000e+003;4.0588461914e+003;4.0261538086e+003;4.0530769043e+003;4.0343588867e+003;4.0116667480e+003;
2.7187500000e+000;4.1175639648e+003;4.0641025391e+003;4.0362819824e+003;4.0552563477e+003;4.0535898438e+003;3.9774357910e+003;4.0060256348e+003;3.9976923828e+003;4.0087180176e+003;4.0684614258e+003;4.0387180176e+003;4.0651281738e+003;4.0458974609e+003;4.0280769043e+003;
2.7265625000e+000;4.0792307129e+003;4.0341025391e+003;4.0005129395e+003;4.0235898438e+003;4.0225642090e+003;3.9592307129e+003;3.9770512695e+003;3.9579487305e+003;3.9865385742e+003;4.0378205566e+003;4.0129487305e+003;4.0303845215e+003;4.0202563477e+003;3.9996154785e+003;
2.7343750000e+000;4.0550000000e+003;4.0150000000e+003;3.9803845215e+003;4.0074357910e+003;4.0039743652e+003;3.9466667480e+003;3.9628205566e+003;3.9424357910e+003;3.9737180176e+003;4.0233332520e+003;3.9982050781e+003;4.0138461914e+003;4.0019230957e+003;3.9825642090e+003;
2.7421875000e+000;4.0701281738e+003;4.0405129395e+003;4.0061538086e+003;4.0406411133e+003;4.0434614258e+003;3.9898718262e+003;4.0106411133e+003;3.9897436523e+003;4.0239743652e+003;4.0666667480e+003;4.0298718262e+003;4.0425642090e+003;4.0320512695e+003;4.0134614258e+003;
2.7500000000e+000;4.0506411133e+003;4.0164101563e+003;3.9898718262e+003;4.0201281738e+003;4.0341025391e+003;3.9852563477e+003;4.0137180176e+003;3.9987180176e+003;4.0264101563e+003;4.0533332520e+003;4.0121794434e+003;4.0224357910e+003;4.0161538086e+003;3.9953845215e+003;
2.7578125000e+000;4.0480769043e+003;4.0185898438e+003;3.9883332520e+003;4.0206411133e+003;4.0323076172e+003;3.9870512695e+003;4.0144870605e+003;4.0035898438e+003;4.0271794434e+003;4.0523076172e+003;4.0103845215e+003;4.0192307129e+003;4.0128205566e+003;3.9924357910e+003;
2.7656250000e+000;4.1405126953e+003;4.1333334961e+003;4.0874357910e+003;4.1252563477e+003;4.1410258789e+003;4.0902563477e+003;4.1171796875e+003;4.1126923828e+003;4.1273076172e+003;4.1576923828e+003;4.1129487305e+003;4.1192309570e+003;4.1141025391e+003;4.0923076172e+003;
2.7734375000e+000;4.1789741211e+003;4.1738461914e+003;4.1275639648e+003;4.1607690430e+003;4.1844873047e+003;4.1257690430e+003;4.1564101563e+003;4.1532050781e+003;4.1642309570e+003;4.1973076172e+003;4.1532050781e+003;4.1601284180e+003;4.1544873047e+003;4.1325639648e+003;
2.7812500000e+000;4.2202563477e+003;4.2173076172e+003;4.1744873047e+003;4.1978203125e+003;4.2255126953e+003;4.1588461914e+003;4.1917949219e+003;4.1985898438e+003;4.2003847656e+003;4.2401284180e+003;4.1974360352e+003;4.2082050781e+003;4.1953847656e+003;4.1785898438e+003;
2.7890625000e+000;4.2017949219e+003;4.2017949219e+003;4.1614101563e+003;4.1850000000e+003;4.2042309570e+003;4.1411538086e+003;4.1710258789e+003;4.1819228516e+003;4.1805126953e+003;4.2224360352e+003;4.1815385742e+003;4.1965385742e+003;4.1773076172e+003;4.1650000000e+003;
2.7968750000e+000;4.1655126953e+003;4.1691025391e+003;4.1301284180e+003;4.1566665039e+003;4.1667949219e+003;4.1080771484e+003;4.1346152344e+003;4.1444873047e+003;4.1428203125e+003;4.1855126953e+003;4.1479487305e+003;4.1669228516e+003;4.1432050781e+003;4.1339741211e+003;
2.8046875000e+000;4.1355126953e+003;4.1419228516e+003;4.1029487305e+003;4.1316665039e+003;4.1380771484e+003;4.0788461914e+003;4.1039741211e+003;4.1089741211e+003;4.1102563477e+003;4.1533334961e+003;4.1198715820e+003;4.1396152344e+003;4.1171796875e+003;4.1071796875e+003;
2.8125000000e+000;4.1137177734e+003;4.1219228516e+003;4.0862819824e+003;4.1076923828e+003;4.1105126953e+003;4.0357692871e+003;4.0620512695e+003;4.0534614258e+003;4.0603845215e+003;4.1182050781e+003;4.0905129395e+003;4.1175639648e+003;4.1006411133e+003;4.0871794434e+003;
2.8203125000e+000;4.1487177734e+003;4.1615385742e+003;4.1229487305e+003;4.1480771484e+003;4.1476923828e+003;4.0724357910e+003;4.0994873047e+003;4.0815385742e+003;4.0910256348e+003;4.1515385742e+003;4.1276923828e+003;4.1546152344e+003;4.1334614258e+003;4.1234614258e+003;
2.8281250000e+000;4.2458974609e+003;4.2691025391e+003;4.2238461914e+003;4.2484614258e+003;4.2596152344e+003;4.1746152344e+003;4.2032050781e+003;4.1751284180e+003;4.1964101563e+003;4.2633334961e+003;4.2380771484e+003;4.2542309570e+003;4.2375639648e+003;4.2248715820e+003;
2.8359375000e+000;4.2600000000e+003;4.2857690430e+003;4.2407690430e+003;4.2615385742e+003;4.2791025391e+003;4.1929487305e+003;4.2216665039e+003;4.1921796875e+003;4.2185898438e+003;4.2875639648e+003;4.2560258789e+003;4.2692309570e+003;4.2565385742e+003;4.2406411133e+003;
2.8437500000e+000;4.2456411133e+003;4.2775639648e+003;4.2316665039e+003;4.2506411133e+003;4.2717949219e+003;4.1983334961e+003;4.2355126953e+003;4.1957690430e+003;4.2301284180e+003;4.2905126953e+003;4.2448715820e+003;4.2552563477e+003;4.2512822266e+003;4.2288461914e+003;
2.8515625000e+000;4.2193588867e+003;4.2546152344e+003;4.2143588867e+003;4.2301284180e+003;4.2679487305e+003;4.1988461914e+003;4.2497436523e+003;4.2012822266e+003;4.2374360352e+003;4.2801284180e+003;4.2380771484e+003;4.2444873047e+003;4.2407690430e+003;4.2171796875e+003;
2.8593750000e+000;4.2246152344e+003;4.2611538086e+003;4.2220512695e+003;4.2362822266e+003;4.2785898438e+003;4.2108974609e+003;4.2635898438e+003;4.2165385742e+003;4.2491025391e+003;4.2858974609e+003;4.2462822266e+003;4.2525639648e+003;4.2482050781e+003;4.2258974609e+003;
2.8671875000e+000;4.3288461914e+003;4.3860258789e+003;4.3280771484e+003;4.3484614258e+003;4.3883334961e+003;4.3296152344e+003;4.3830771484e+003;4.3532050781e+003;4.3651284180e+003;4.4011538086e+003;4.3505126953e+003;4.3542309570e+003;4.3560258789e+003;4.3306411133e+003;
2.8750000000e+000;4.3619228516e+003;4.4247436523e+003;4.3634614258e+003;4.3835898438e+003;4.4238461914e+003;4.3665385742e+003;4.4216665039e+003;4.3942309570e+003;4.4024360352e+003;4.4435898438e+003;4.3864101563e+003;4.3889741211e+003;4.3941025391e+003;4.3660258789e+003;
2.8828125000e+000;4.4155126953e+003;4.4837177734e+003;4.4252563477e+003;4.4379487305e+003;4.4916665039e+003;4.4251284180e+003;4.4839741211e+003;4.4587177734e+003;4.4669228516e+003;4.5146152344e+003;4.4543588867e+003;4.4526923828e+003;4.4623076172e+003;4.4310258789e+003;
2.8906250000e+000;4.4317949219e+003;4.5032050781e+003;4.4465385742e+003;4.4544873047e+003;4.5164101563e+003;4.4441025391e+003;4.5028203125e+003;4.4791025391e+003;4.4871796875e+003;4.5351284180e+003;4.4779487305e+003;4.4748715820e+003;4.4833334961e+003;4.4538461914e+003;
2.8984375000e+000;4.4556411133e+003;4.5393588867e+003;4.4769228516e+003;4.4794873047e+003;4.5383334961e+003;4.4632050781e+003;4.5210258789e+003;4.4962822266e+003;4.4965385742e+003;4.5539741211e+003;4.5008974609e+003;4.5003847656e+003;4.5028203125e+003;4.4802563477e+003;
2.9062500000e+000;4.4747436523e+003;4.5620512695e+003;4.4980771484e+003;4.4994873047e+003;4.5534614258e+003;4.4760258789e+003;4.5355126953e+003;4.5098715820e+003;4.5080771484e+003;4.5750000000e+003;4.5202563477e+003;4.5206411133e+003;4.5246152344e+003;4.4992309570e+003;
2.9140625000e+000;4.4864101563e+003;4.5764101563e+003;4.5147436523e+003;4.5134614258e+003;4.5635898438e+003;4.4825639648e+003;4.5434614258e+003;4.5178203125e+003;4.5152563477e+003;4.5903847656e+003;4.5366665039e+003;4.5388461914e+003;4.5426923828e+003;4.5151284180e+003;
2.9218750000e+000;4.3202563477e+003;4.4097436523e+003;4.3664101563e+003;4.3528203125e+003;4.3998715820e+003;4.3170512695e+003;4.3611538086e+003;4.3339741211e+003;4.3451284180e+003;4.4178203125e+003;4.3821796875e+003;4.3978203125e+003;4.3862822266e+003;4.3752563477e+003;
2.9296875000e+000;4.2788461914e+003;4.3670512695e+003;4.3242309570e+003;4.3126923828e+003;4.3546152344e+003;4.2758974609e+003;4.3175639648e+003;4.2878203125e+003;4.3061538086e+003;4.3780771484e+003;4.3403847656e+003;4.3550000000e+003;4.3442309570e+003;4.3316665039e+003;
2.9375000000e+000;4.2216665039e+003;4.3034614258e+003;4.2596152344e+003;4.2571796875e+003;4.2943588867e+003;4.2228203125e+003;4.2624360352e+003;4.2216665039e+003;4.2534614258e+003;4.3120512695e+003;4.2739741211e+003;4.2865385742e+003;4.2820512695e+003;4.2632050781e+003;
2.9453125000e+000;4.2550000000e+003;4.3384614258e+003;4.2898715820e+003;4.2888461914e+003;4.3326923828e+003;4.2601284180e+003;4.2996152344e+003;4.2582050781e+003;4.2898715820e+003;4.3439741211e+003;4.3038461914e+003;4.3156411133e+003;4.3161538086e+003;4.2944873047e+003;
2.9531250000e+000;4.3752563477e+003;4.4693588867e+003;4.4142309570e+003;4.4076923828e+003;4.4635898438e+003;4.3902563477e+003;4.4344873047e+003;4.3971796875e+003;4.4220512695e+003;4.4770512695e+003;4.4289741211e+003;4.4378203125e+003;4.4444873047e+003;4.4180771484e+003;
2.9609375000e+000;4.4907690430e+003;4.5974360352e+003;4.5462822266e+003;4.5256411133e+003;4.5973076172e+003;4.5274360352e+003;4.5766665039e+003;4.5648715820e+003;4.5757690430e+003;4.6287177734e+003;4.5652563477e+003;4.5670512695e+003;4.5716665039e+003;4.5464101563e+003;
2.9687500000e+000;4.4567949219e+003;4.5611538086e+003;4.5119228516e+003;4.4891025391e+003;4.5661538086e+003;4.4966665039e+003;4.5470512695e+003;4.5356411133e+003;4.5458974609e+003;4.5903847656e+003;4.5287177734e+003;4.5346152344e+003;4.5365385742e+003;4.5125639648e+003;
2.9765625000e+000;4.4391025391e+003;4.5470512695e+003;4.4958974609e+003;4.4679487305e+003;4.5512822266e+003;4.4800000000e+003;4.5362822266e+003;4.5191025391e+003;4.5257690430e+003;4.5664101563e+003;4.5129487305e+003;4.5193588867e+003;4.5211538086e+003;4.4938461914e+003;
2.9843750000e+000;4.4578203125e+003;4.5712822266e+003;4.5176923828e+003;4.4883334961e+003;4.5693588867e+003;4.4992309570e+003;4.5557690430e+003;4.5389741211e+003;4.5424360352e+003;4.5893588867e+003;4.5379487305e+003;4.5411538086e+003;4.5437177734e+003;4.5141025391e+003;
2.9921875000e+000;4.4600000000e+003;4.5800000000e+003;4.5288461914e+003;4.5002563477e+003;4.5691025391e+003;4.5010258789e+003;4.5480771484e+003;4.5365385742e+003;4.5353847656e+003;4.5988461914e+003;4.5501284180e+003;4.5525639648e+003;4.5555126953e+003;4.5317949219e+003;
3.0000000000e+000;4.4529487305e+003;4.5719228516e+003;4.5230771484e+003;4.4929487305e+003;4.5615385742e+003;4.4889741211e+003;4.5358974609e+003;4.5247436523e+003;4.5233334961e+003;4.5876923828e+003;4.5435898438e+003;4.5462822266e+003;4.5511538086e+003;4.5296152344e+003;
3.0078125000e+000;4.4291025391e+003;4.5464101563e+003;4.5032050781e+003;4.4692309570e+003;4.5338461914e+003;4.4579487305e+003;4.5048715820e+003;4.4960258789e+003;4.4888461914e+003;4.5555126953e+003;4.5205126953e+003;4.5250000000e+003;4.5291025391e+003;4.5083334961e+003;
3.0156250000e+000;4.4106411133e+003;4.5282050781e+003;4.4866665039e+003;4.4528203125e+003;4.5128203125e+003;4.4388461914e+003;4.4826923828e+003;4.4742309570e+003;4.4628203125e+003;4.5326923828e+003;4.4996152344e+003;4.5067949219e+003;4.5080771484e+003;4.4884614258e+003;
3.0234375000e+000;4.4167949219e+003;4.5362822266e+003;4.4929487305e+003;4.4570512695e+003;4.5164101563e+003;4.4348715820e+003;4.4720512695e+003;4.4542309570e+003;4.4547436523e+003;4.5306411133e+003;4.4992309570e+003;4.5053847656e+003;4.5084614258e+003;4.4938461914e+003;
3.0312500000e+000;4.4061538086e+003;4.5255126953e+003;4.4851284180e+003;4.4467949219e+003;4.5073076172e+003;4.4232050781e+003;4.4614101563e+003;4.4401284180e+003;4.4506411133e+003;4.5225639648e+003;4.4935898438e+003;4.4982050781e+003;4.5007690430e+003;4.4870512695e+003;
3.0390625000e+000;4.3748715820e+003;4.4941025391e+003;4.4570512695e+003;4.4193588867e+003;4.4775639648e+003;4.3955126953e+003;4.4333334961e+003;4.4105126953e+003;4.4285898438e+003;4.4944873047e+003;4.4679487305e+003;4.4729487305e+003;4.4724360352e+003;4.4594873047e+003;
3.0468750000e+000;4.3403847656e+003;4.4606411133e+003;4.4238461914e+003;4.3912822266e+003;4.4444873047e+003;4.3680771484e+003;4.4026923828e+003;4.3805126953e+003;4.4024360352e+003;4.4635898438e+003;4.4364101563e+003;4.4430771484e+003;4.4396152344e+003;4.4265385742e+003;
3.0546875000e+000;4.3279487305e+003;4.4453847656e+003;4.4058974609e+003;4.3855126953e+003;4.4467949219e+003;4.3825639648e+003;4.4079487305e+003;4.3911538086e+003;4.4150000000e+003;4.4688461914e+003;4.4155126953e+003;4.4230771484e+003;4.4239741211e+003;4.4106411133e+003;
3.0625000000e+000;4.3187177734e+003;4.4305126953e+003;4.3962822266e+003;4.3707690430e+003;4.4398715820e+003;4.3780771484e+003;4.4057690430e+003;4.3900000000e+003;4.4143588867e+003;4.4580771484e+003;4.4071796875e+003;4.4110258789e+003;4.4106411133e+003;4.4016665039e+003;
3.0703125000e+000;4.2385898438e+003;4.3474360352e+003;4.3156411133e+003;4.2862822266e+003;4.3564101563e+003;4.3147436523e+003;4.3446152344e+003;4.3419228516e+003;4.3541025391e+003;4.3830771484e+003;4.3389741211e+003;4.3353847656e+003;4.3344873047e+003;4.3239741211e+003;
3.0781250000e+000;4.1589741211e+003;4.2570512695e+003;4.2339741211e+003;4.2134614258e+003;4.2662822266e+003;4.2253847656e+003;4.2626923828e+003;4.2512822266e+003;4.2528203125e+003;4.2880771484e+003;4.2461538086e+003;4.2514101563e+003;4.2610258789e+003;4.2420512695e+003;
3.0859375000e+000;4.1608974609e+003;4.2551284180e+003;4.2339741211e+003;4.2143588867e+003;4.2626923828e+003;4.2185898438e+003;4.2570512695e+003;4.2458974609e+003;4.2473076172e+003;4.2800000000e+003;4.2426923828e+003;4.2465385742e+003;4.2585898438e+003;4.2408974609e+003;
3.0937500000e+000;4.1010258789e+003;4.1889741211e+003;4.1714101563e+003;4.1538461914e+003;4.1848715820e+003;4.1494873047e+003;4.1847436523e+003;4.1734614258e+003;4.1670512695e+003;4.2002563477e+003;4.1733334961e+003;4.1851284180e+003;4.1847436523e+003;4.1771796875e+003;
3.1015625000e+000;4.1578203125e+003;4.2384614258e+003;4.2233334961e+003;4.2035898438e+003;4.2391025391e+003;4.1928203125e+003;4.2339741211e+003;4.2069228516e+003;4.1994873047e+003;4.2461538086e+003;4.2247436523e+003;4.2432050781e+003;4.2365385742e+003;4.2335898438e+003;
3.1093750000e+000;4.2038461914e+003;4.2835898438e+003;4.2671796875e+003;4.2446152344e+003;4.2810258789e+003;4.2287177734e+003;4.2711538086e+003;4.2450000000e+003;4.2403847656e+003;4.2860258789e+003;4.2710258789e+003;4.2858974609e+003;4.2800000000e+003;4.2793588867e+003;
3.1171875000e+000;4.3196152344e+003;4.4080771484e+003;4.3797436523e+003;4.3520512695e+003;4.3930771484e+003;4.3233334961e+003;4.3621796875e+003;4.3415385742e+003;4.3430771484e+003;4.3925639648e+003;4.3851284180e+003;4.3969228516e+003;4.3992309570e+003;4.3951284180e+003;
3.1250000000e+000;4.3385898438e+003;4.4335898438e+003;4.4015385742e+003;4.3744873047e+003;4.4201284180e+003;4.3474360352e+003;4.3812822266e+003;4.3605126953e+003;4.3633334961e+003;4.4197436523e+003;4.4079487305e+003;4.4214101563e+003;4.4230771484e+003;4.4175639648e+003;
3.1328125000e+000;4.3528203125e+003;4.4567949219e+003;4.4221796875e+003;4.3942309570e+003;4.4482050781e+003;4.3778203125e+003;4.3991025391e+003;4.3758974609e+003;4.3885898438e+003;4.4507690430e+003;4.4324360352e+003;4.4437177734e+003;4.4421796875e+003;4.4355126953e+003;
3.1406250000e+000;4.3717949219e+003;4.4782050781e+003;4.4412822266e+003;4.4117949219e+003;4.4696152344e+003;4.4001284180e+003;4.4160258789e+003;4.3929487305e+003;4.4157690430e+003;4.4744873047e+003;4.4535898438e+003;4.4603847656e+003;4.4621796875e+003;4.4520512695e+003;
3.1484375000e+000;4.4502563477e+003;4.5611538086e+003;4.5203847656e+003;4.4882050781e+003;4.5528203125e+003;4.4847436523e+003;4.4924360352e+003;4.4762822266e+003;4.5176923828e+003;4.5633334961e+003;4.5320512695e+003;4.5321796875e+003;4.5423076172e+003;4.5298715820e+003;
3.1562500000e+000;4.4575639648e+003;4.5703847656e+003;4.5324360352e+003;4.4971796875e+003;4.5646152344e+003;4.4992309570e+003;4.5096152344e+003;4.4941025391e+003;4.5308974609e+003;4.5753847656e+003;4.5430771484e+003;4.5429487305e+003;4.5514101563e+003;4.5434614258e+003;
3.1640625000e+000;4.4610258789e+003;4.5769228516e+003;4.5410258789e+003;4.5012822266e+003;4.5739741211e+003;4.5110258789e+003;4.5265385742e+003;4.5123076172e+003;4.5417949219e+003;4.5847436523e+003;4.5524360352e+003;4.5507690430e+003;4.5584614258e+003;4.5529487305e+003;
3.1718750000e+000;4.4612822266e+003;4.5807690430e+003;4.5450000000e+003;4.5015385742e+003;4.5805126953e+003;4.5194873047e+003;4.5410258789e+003;4.5300000000e+003;4.5521796875e+003;4.5925639648e+003;4.5591025391e+003;4.5553847656e+003;4.5635898438e+003;4.5564101563e+003;
3.1796875000e+000;4.3976923828e+003;4.5224360352e+003;4.4856411133e+003;4.4485898438e+003;4.5241025391e+003;4.4792309570e+003;4.5103847656e+003;4.5107690430e+003;4.5182050781e+003;4.5457690430e+003;4.5028203125e+003;4.5037177734e+003;4.5091025391e+003;4.4910258789e+003;
3.1875000000e+000;4.4003847656e+003;4.5292309570e+003;4.4930771484e+003;4.4532050781e+003;4.5328203125e+003;4.4779487305e+003;4.5147436523e+003;4.5179487305e+003;4.5135898438e+003;4.5458974609e+003;4.5114101563e+003;4.5082050781e+003;4.5141025391e+003;4.5010258789e+003;
3.1953125000e+000;4.3817949219e+003;4.5087177734e+003;4.4750000000e+003;4.4342309570e+003;4.5134614258e+003;4.4576923828e+003;4.4952563477e+003;4.4933334961e+003;4.4893588867e+003;4.5200000000e+003;4.4879487305e+003;4.4874360352e+003;4.4943588867e+003;4.4783334961e+003;
3.2031250000e+000;4.3691025391e+003;4.4943588867e+003;4.4619228516e+003;4.4201284180e+003;4.4925639648e+003;4.4393588867e+003;4.4714101563e+003;4.4656411133e+003;4.4623076172e+003;4.4951284180e+003;4.4660258789e+003;4.4685898438e+003;4.4760258789e+003;4.4601284180e+003;
3.2109375000e+000;4.3791025391e+003;4.4923076172e+003;4.4761538086e+003;4.4230771484e+003;4.4921796875e+003;4.4224360352e+003;4.4491025391e+003;4.4378203125e+003;4.4306411133e+003;4.4908974609e+003;4.4775639648e+003;4.4871796875e+003;4.4825639648e+003;4.4776923828e+003;
3.2187500000e+000;4.3834614258e+003;4.4947436523e+003;4.4811538086e+003;4.4255126953e+003;4.4947436523e+003;4.4232050781e+003;4.4484614258e+003;4.4339741211e+003;4.4317949219e+003;4.4907690430e+003;4.4839741211e+003;4.4926923828e+003;4.4876923828e+003;4.4817949219e+003;
3.2265625000e+000;4.3673076172e+003;4.4783334961e+003;4.4625639648e+003;4.4084614258e+003;4.4691025391e+003;4.4046152344e+003;4.4230771484e+003;4.4065385742e+003;4.4226923828e+003;4.4684614258e+003;4.4639741211e+003;4.4742309570e+003;4.4711538086e+003;4.4614101563e+003;
3.2343750000e+000;4.3628203125e+003;4.4746152344e+003;4.4547436523e+003;4.4046152344e+003;4.4626923828e+003;4.4002563477e+003;4.4143588867e+003;4.3985898438e+003;4.4261538086e+003;4.4664101563e+003;4.4561538086e+003;4.4675639648e+003;4.4671796875e+003;4.4535898438e+003;
3.2421875000e+000;4.3851284180e+003;4.5024360352e+003;4.4726923828e+003;4.4230771484e+003;4.5017949219e+003;4.4362822266e+003;4.4410258789e+003;4.4261538086e+003;4.4734614258e+003;4.5110258789e+003;4.4888461914e+003;4.4919228516e+003;4.5000000000e+003;4.4701284180e+003;
3.2500000000e+000;4.3888461914e+003;4.5061538086e+003;4.4762822266e+003;4.4232050781e+003;4.5073076172e+003;4.4464101563e+003;4.4508974609e+003;4.4348715820e+003;4.4811538086e+003;4.5146152344e+003;4.4958974609e+003;4.4951284180e+003;4.5043588867e+003;4.4716665039e+003;
3.2578125000e+000;4.3985898438e+003;4.5132050781e+003;4.4820512695e+003;4.4291025391e+003;4.5106411133e+003;4.4642309570e+003;4.4694873047e+003;4.4606411133e+003;4.4978203125e+003;4.5184614258e+003;4.4987177734e+003;4.4994873047e+003;4.5089741211e+003;4.4728203125e+003;
3.2656250000e+000;4.3885898438e+003;4.5025639648e+003;4.4705126953e+003;4.4208974609e+003;4.5002563477e+003;4.4592309570e+003;4.4647436523e+003;4.4641025391e+003;4.4948715820e+003;4.5105126953e+003;4.4842309570e+003;4.4896152344e+003;4.4978203125e+003;4.4602563477e+003;
3.2734375000e+000;4.2905126953e+003;4.3998715820e+003;4.3725639648e+003;4.3257690430e+003;4.4116665039e+003;4.3810258789e+003;4.3947436523e+003;4.4010258789e+003;4.4126923828e+003;4.4173076172e+003;4.3889741211e+003;4.3938461914e+003;4.3974360352e+003;4.3608974609e+003;
3.2812500000e+000;4.2825639648e+003;4.3898715820e+003;4.3619228516e+003;4.3150000000e+003;4.4019228516e+003;4.3732050781e+003;4.3925639648e+003;4.3983334961e+003;4.4048715820e+003;4.4078203125e+003;4.3825639648e+003;4.3829487305e+003;4.3876923828e+003;4.3505126953e+003;
3.2890625000e+000;4.2782050781e+003;4.3841025391e+003;4.3555126953e+003;4.3084614258e+003;4.3938461914e+003;4.3669228516e+003;4.3903847656e+003;4.3982050781e+003;4.4011538086e+003;4.4038461914e+003;4.3788461914e+003;4.3776923828e+003;4.3824360352e+003;4.3448715820e+003;
3.2968750000e+000;4.2567949219e+003;4.3616665039e+003;4.3344873047e+003;4.2870512695e+003;4.3688461914e+003;4.3446152344e+003;4.3692309570e+003;4.3796152344e+003;4.3800000000e+003;4.3832050781e+003;4.3570512695e+003;4.3591025391e+003;4.3601284180e+003;4.3243588867e+003;
3.3046875000e+000;4.2978203125e+003;4.3971796875e+003;4.3723076172e+003;4.3271796875e+003;4.3969228516e+003;4.3715385742e+003;4.3914101563e+003;4.3903847656e+003;4.3794873047e+003;4.3948715820e+003;4.3855126953e+003;4.3934614258e+003;4.3902563477e+003;4.3606411133e+003;
3.3125000000e+000;4.3498715820e+003;4.4438461914e+003;4.4230771484e+003;4.3629487305e+003;4.4366665039e+003;4.3866665039e+003;4.4091025391e+003;4.4185898438e+003;4.4103847656e+003;4.4412822266e+003;4.4266665039e+003;4.4406411133e+003;4.4410258789e+003;4.4176923828e+003;
3.3203125000e+000;4.3116665039e+003;4.4053847656e+003;4.3860258789e+003;4.3253847656e+003;4.3975639648e+003;4.3491025391e+003;4.3687177734e+003;4.3766665039e+003;4.3715385742e+003;4.4008974609e+003;4.3905126953e+003;4.4028203125e+003;4.4020512695e+003;4.3808974609e+003;
3.3281250000e+000;4.2852563477e+003;4.3770512695e+003;4.3592309570e+003;4.3035898438e+003;4.3671796875e+003;4.3238461914e+003;4.3405126953e+003;4.3419228516e+003;4.3437177734e+003;4.3730771484e+003;4.3671796875e+003;4.3742309570e+003;4.3748715820e+003;4.3534614258e+003;
3.3359375000e+000;4.2843588867e+003;4.3742309570e+003;4.3573076172e+003;4.3032050781e+003;4.3647436523e+003;4.3191025391e+003;4.3350000000e+003;4.3352563477e+003;4.3425639648e+003;4.3730771484e+003;4.3656411133e+003;4.3716665039e+003;4.3733334961e+003;4.3516665039e+003;
3.3437500000e+000;4.2693588867e+003;4.3548715820e+003;4.3414101563e+003;4.2824360352e+003;4.3517949219e+003;4.2948715820e+003;4.3025639648e+003;4.3089741211e+003;4.3366665039e+003;4.3566665039e+003;4.3452563477e+003;4.3530771484e+003;4.3538461914e+003;4.3325639648e+003;
3.3515625000e+000;4.3630771484e+003;4.4523076172e+003;4.4341025391e+003;4.3843588867e+003;4.4539741211e+003;4.4144873047e+003;4.4226923828e+003;4.4183334961e+003;4.4411538086e+003;4.4575639648e+003;4.4428203125e+003;4.4491025391e+003;4.4505126953e+003;4.4261538086e+003;
3.3593750000e+000;4.4094873047e+003;4.5000000000e+003;4.4785898438e+003;4.4282050781e+003;4.5053847656e+003;4.4692309570e+003;4.4808974609e+003;4.4724360352e+003;4.4933334961e+003;4.5119228516e+003;4.4944873047e+003;4.4943588867e+003;4.4978203125e+003;4.4732050781e+003;
3.3671875000e+000;4.4257690430e+003;4.5161538086e+003;4.4942309570e+003;4.4401284180e+003;4.5264101563e+003;4.4926923828e+003;4.5071796875e+003;4.4974360352e+003;4.5174360352e+003;4.5343588867e+003;4.5148715820e+003;4.5096152344e+003;4.5129487305e+003;4.4892309570e+003;
3.3750000000e+000;4.4134614258e+003;4.5035898438e+003;4.4832050781e+003;4.4256411133e+003;4.5185898438e+003;4.4869228516e+003;4.5033334961e+003;4.4944873047e+003;4.5137177734e+003;4.5237177734e+003;4.5033334961e+003;4.4965385742e+003;4.4985898438e+003;4.4760258789e+003;
3.3828125000e+000;4.4902563477e+003;4.6014101563e+003;4.5634614258e+003;4.5184614258e+003;4.6108974609e+003;4.5830771484e+003;4.6005126953e+003;4.6124360352e+003;4.6196152344e+003;4.6160258789e+003;4.5769228516e+003;4.5738461914e+003;4.5871796875e+003;4.5543588867e+003;
3.3906250000e+000;4.4906411133e+003;4.6017949219e+003;4.5644873047e+003;4.5198715820e+003;4.6103847656e+003;4.5843588867e+003;4.6021796875e+003;4.6182050781e+003;4.6226923828e+003;4.6250000000e+003;4.5808974609e+003;4.5782050781e+003;4.5892309570e+003;4.5578203125e+003;
3.3984375000e+000;4.3320512695e+003;4.4273076172e+003;4.4088461914e+003;4.3585898438e+003;4.4385898438e+003;4.4142309570e+003;4.4319228516e+003;4.4425639648e+003;4.4488461914e+003;4.4479487305e+003;4.4224360352e+003;4.4228203125e+003;4.4208974609e+003;4.4012822266e+003;
3.4062500000e+000;4.2775639648e+003;4.3715385742e+003;4.3547436523e+003;4.3058974609e+003;4.3802563477e+003;4.3553847656e+003;4.3712822266e+003;4.3792309570e+003;4.3861538086e+003;4.3811538086e+003;4.3639741211e+003;4.3687177734e+003;4.3647436523e+003;4.3466665039e+003;
3.4140625000e+000;4.1914101563e+003;4.2835898438e+003;4.2667949219e+003;4.2242309570e+003;4.2843588867e+003;4.2602563477e+003;4.2739741211e+003;4.2732050781e+003;4.2782050781e+003;4.2782050781e+003;4.2662822266e+003;4.2808974609e+003;4.2765385742e+003;4.2596152344e+003;
3.4218750000e+000;4.1653847656e+003;4.2532050781e+003;4.2375639648e+003;4.1971796875e+003;4.2516665039e+003;4.2271796875e+003;4.2410258789e+003;4.2348715820e+003;4.2384614258e+003;4.2464101563e+003;4.2364101563e+003;4.2507690430e+003;4.2474360352e+003;4.2324360352e+003;
3.4296875000e+000;4.1115385742e+003;4.1802563477e+003;4.1789741211e+003;4.1347436523e+003;4.1800000000e+003;4.1514101563e+003;4.1615385742e+003;4.1533334961e+003;4.1587177734e+003;4.1766665039e+003;4.1848715820e+003;4.1941025391e+003;4.1833334961e+003;4.1814101563e+003;
