Time (s);AF3;F7;F3;FC5;T7;P7;O1;O2;P8;T8;FC6;F4;F8;AF4;Sampling Rate
0.0000000000e+000;3.8962819824e+003;3.8807692871e+003;3.8678205566e+003;3.8733332520e+003;3.8857692871e+003;3.8807692871e+003;3.8594870605e+003;3.8362819824e+003;3.8533332520e+003;3.8932050781e+003;3.8600000000e+003;3.8853845215e+003;3.8667949219e+003;3.8666667480e+003;128
7.8125000000e-003;3.8843588867e+003;3.8602563477e+003;3.8560256348e+003;3.8641025391e+003;3.8626923828e+003;3.8583332520e+003;3.8393588867e+003;3.8198718262e+003;3.8389743652e+003;3.8808974609e+003;3.8547436523e+003;3.8793588867e+003;3.8529487305e+003;3.8565385742e+003;
1.5625000000e-002;3.8628205566e+003;3.8333332520e+003;3.8362819824e+003;3.8448718262e+003;3.8391025391e+003;3.8317949219e+003;3.8164101563e+003;3.7983332520e+003;3.8184614258e+003;3.8584614258e+003;3.8344870605e+003;3.8597436523e+003;3.8311538086e+003;3.8364101563e+003;
2.3437500000e-002;3.8666667480e+003;3.8339743652e+003;3.8410256348e+003;3.8478205566e+003;3.8421794434e+003;3.8273076172e+003;3.8183332520e+003;3.8050000000e+003;3.8257692871e+003;3.8619230957e+003;3.8389743652e+003;3.8650000000e+003;3.8355129395e+003;3.8423076172e+003;
3.1250000000e-002;3.8948718262e+003;3.8519230957e+003;3.8692307129e+003;3.8607692871e+003;3.8496154785e+003;3.8291025391e+003;3.8392307129e+003;3.8716667480e+003;3.8892307129e+003;3.9055129395e+003;3.8801281738e+003;3.9016667480e+003;3.8758974609e+003;3.8771794434e+003;
3.9062500000e-002;3.9144870605e+003;3.8735898438e+003;3.8874357910e+003;3.8787180176e+003;3.8712819824e+003;3.8471794434e+003;3.8582050781e+003;3.8906411133e+003;3.9088461914e+003;3.9261538086e+003;3.8993588867e+003;3.9220512695e+003;3.8947436523e+003;3.8958974609e+003;
4.6875000000e-002;3.8557692871e+003;3.8200000000e+003;3.8233332520e+003;3.8223076172e+003;3.8152563477e+003;3.7917949219e+003;3.8005129395e+003;3.8350000000e+003;3.8521794434e+003;3.8701281738e+003;3.8410256348e+003;3.8617949219e+003;3.8291025391e+003;3.8389743652e+003;
5.4687500000e-002;3.8292307129e+003;3.7908974609e+003;3.7942307129e+003;3.7939743652e+003;3.7832050781e+003;3.7670512695e+003;3.7753845215e+003;3.8047436523e+003;3.8208974609e+003;3.8371794434e+003;3.8091025391e+003;3.8276923828e+003;3.7984614258e+003;3.8082050781e+003;
6.2500000000e-002;3.8441025391e+003;3.8021794434e+003;3.8057692871e+003;3.8044870605e+003;3.7970512695e+003;3.7884614258e+003;3.7930769043e+003;3.8110256348e+003;3.8253845215e+003;3.8441025391e+003;3.8108974609e+003;3.8310256348e+003;3.8062819824e+003;3.8156411133e+003;
7.0312500000e-002;3.8638461914e+003;3.8273076172e+003;3.8173076172e+003;3.8314101563e+003;3.8589743652e+003;3.8389743652e+003;3.8243588867e+003;3.8105129395e+003;3.8302563477e+003;3.8532050781e+003;3.8233332520e+003;3.8393588867e+003;3.8223076172e+003;3.8264101563e+003;
7.8125000000e-002;3.8915385742e+003;3.8592307129e+003;3.8465385742e+003;3.8585898438e+003;3.8896154785e+003;3.8680769043e+003;3.8514101563e+003;3.8388461914e+003;3.8579487305e+003;3.8847436523e+003;3.8544870605e+003;3.8687180176e+003;3.8544870605e+003;3.8541025391e+003;
8.5937500000e-002;3.8600000000e+003;3.8308974609e+003;3.8219230957e+003;3.8339743652e+003;3.8569230957e+003;3.8470512695e+003;3.8283332520e+003;3.8103845215e+003;3.8223076172e+003;3.8548718262e+003;3.8229487305e+003;3.8433332520e+003;3.8230769043e+003;3.8241025391e+003;
9.3750000000e-002;3.8489743652e+003;3.8191025391e+003;3.8110256348e+003;3.8264101563e+003;3.8478205566e+003;3.8406411133e+003;3.8226923828e+003;3.7966667480e+003;3.8061538086e+003;3.8397436523e+003;3.8085898438e+003;3.8302563477e+003;3.8083332520e+003;3.8116667480e+003;
1.0156250000e-001;3.9065385742e+003;3.8733332520e+003;3.8648718262e+003;3.8747436523e+003;3.9016667480e+003;3.8932050781e+003;3.8776923828e+003;3.8573076172e+003;3.8674357910e+003;3.9041025391e+003;3.8721794434e+003;3.8852563477e+003;3.8688461914e+003;3.8664101563e+003;
1.0937500000e-001;3.8961538086e+003;3.8594870605e+003;3.8538461914e+003;3.8608974609e+003;3.8846154785e+003;3.8784614258e+003;3.8648718262e+003;3.8497436523e+003;3.8596154785e+003;3.8960256348e+003;3.8641025391e+003;3.8775642090e+003;3.8597436523e+003;3.8548718262e+003;
1.1718750000e-001;3.9538461914e+003;3.9141025391e+003;3.9101281738e+003;3.9210256348e+003;3.9421794434e+003;3.9092307129e+003;3.9108974609e+003;3.9102563477e+003;3.9252563477e+003;3.9626923828e+003;3.9287180176e+003;3.9392307129e+003;3.9224357910e+003;3.9184614258e+003;
1.2500000000e-001;3.9546154785e+003;3.9173076172e+003;3.9165385742e+003;3.9264101563e+003;3.9437180176e+003;3.9039743652e+003;3.9101281738e+003;3.9187180176e+003;3.9353845215e+003;3.9717949219e+003;3.9358974609e+003;3.9443588867e+003;3.9296154785e+003;3.9258974609e+003;
1.3281250000e-001;3.9158974609e+003;3.8819230957e+003;3.8851281738e+003;3.8850000000e+003;3.8944870605e+003;3.8547436523e+003;3.8703845215e+003;3.8926923828e+003;3.9088461914e+003;3.9380769043e+003;3.9046154785e+003;3.9110256348e+003;3.9008974609e+003;3.8912819824e+003;
1.4062500000e-001;3.9306411133e+003;3.8966667480e+003;3.8976923828e+003;3.8906411133e+003;3.9015385742e+003;3.8610256348e+003;3.8805129395e+003;3.9083332520e+003;3.9242307129e+003;3.9516667480e+003;3.9203845215e+003;3.9261538086e+003;3.9165385742e+003;3.9046154785e+003;
1.4843750000e-001;3.9562819824e+003;3.9206411133e+003;3.9203845215e+003;3.9078205566e+003;3.9215385742e+003;3.8792307129e+003;3.8998718262e+003;3.9330769043e+003;3.9492307129e+003;3.9769230957e+003;3.9460256348e+003;3.9532050781e+003;3.9402563477e+003;3.9296154785e+003;
1.5625000000e-001;3.9601281738e+003;3.9214101563e+003;3.9230769043e+003;3.9084614258e+003;3.9228205566e+003;3.8800000000e+003;3.8993588867e+003;3.9357692871e+003;3.9516667480e+003;3.9801281738e+003;3.9479487305e+003;3.9591025391e+003;3.9398718262e+003;3.9333332520e+003;
1.6406250000e-001;3.9538461914e+003;3.9233332520e+003;3.9178205566e+003;3.9191025391e+003;3.9334614258e+003;3.8902563477e+003;3.9061538086e+003;3.9257692871e+003;3.9378205566e+003;3.9644870605e+003;3.9288461914e+003;3.9396154785e+003;3.9297436523e+003;3.9135898438e+003;
1.7187500000e-001;3.8925642090e+003;3.8694870605e+003;3.8538461914e+003;3.8674357910e+003;3.8874357910e+003;3.8594870605e+003;3.8580769043e+003;3.8596154785e+003;3.8710256348e+003;3.9057692871e+003;3.8697436523e+003;3.8776923828e+003;3.8651281738e+003;3.8558974609e+003;
1.7968750000e-001;3.8943588867e+003;3.8710256348e+003;3.8541025391e+003;3.8725642090e+003;3.8912819824e+003;3.8620512695e+003;3.8596154785e+003;3.8569230957e+003;3.8656411133e+003;3.9052563477e+003;3.8692307129e+003;3.8753845215e+003;3.8653845215e+003;3.8560256348e+003;
1.8750000000e-001;3.8625642090e+003;3.8421794434e+003;3.8257692871e+003;3.8503845215e+003;3.8657692871e+003;3.8376923828e+003;3.8307692871e+003;3.8194870605e+003;3.8275642090e+003;3.8691025391e+003;3.8357692871e+003;3.8414101563e+003;3.8367949219e+003;3.8244870605e+003;
1.9531250000e-001;3.8776923828e+003;3.8542307129e+003;3.8439743652e+003;3.8551281738e+003;3.8639743652e+003;3.8551281738e+003;3.8429487305e+003;3.8207692871e+003;3.8306411133e+003;3.8734614258e+003;3.8453845215e+003;3.8593588867e+003;3.8448718262e+003;3.8412819824e+003;
2.0312500000e-001;3.8447436523e+003;3.8160256348e+003;3.8117949219e+003;3.8235898438e+003;3.8283332520e+003;3.8208974609e+003;3.8085898438e+003;3.7867949219e+003;3.7961538086e+003;3.8379487305e+003;3.8094870605e+003;3.8267949219e+003;3.8067949219e+003;3.8065385742e+003;
2.1093750000e-001;3.8170512695e+003;3.7864101563e+003;3.7801281738e+003;3.7964101563e+003;3.8093588867e+003;3.7885898438e+003;3.7785898438e+003;3.7533332520e+003;3.7658974609e+003;3.7989743652e+003;3.7776923828e+003;3.7917949219e+003;3.7737180176e+003;3.7741025391e+003;
2.1875000000e-001;3.8471794434e+003;3.8198718262e+003;3.8066667480e+003;3.8217949219e+003;3.8425642090e+003;3.8152563477e+003;3.8056411133e+003;3.7851281738e+003;3.7984614258e+003;3.8294870605e+003;3.8098718262e+003;3.8211538086e+003;3.8042307129e+003;3.8053845215e+003;
2.2656250000e-001;3.8447436523e+003;3.8138461914e+003;3.8043588867e+003;3.8106411133e+003;3.8255129395e+003;3.8030769043e+003;3.7996154785e+003;3.7994870605e+003;3.8050000000e+003;3.8374357910e+003;3.8125642090e+003;3.8324357910e+003;3.8065385742e+003;3.8121794434e+003;
2.3437500000e-001;3.8528205566e+003;3.8203845215e+003;3.8148718262e+003;3.8203845215e+003;3.8328205566e+003;3.8044870605e+003;3.8082050781e+003;3.8101281738e+003;3.8144870605e+003;3.8455129395e+003;3.8197436523e+003;3.8407692871e+003;3.8192307129e+003;3.8206411133e+003;
2.4218750000e-001;3.9037180176e+003;3.8746154785e+003;3.8716667480e+003;3.8776923828e+003;3.8888461914e+003;3.8446154785e+003;3.8585898438e+003;3.8739743652e+003;3.8773076172e+003;3.9047436523e+003;3.8757692871e+003;3.8921794434e+003;3.8751281738e+003;3.8696154785e+003;
2.5000000000e-001;3.9030769043e+003;3.8726923828e+003;3.8702563477e+003;3.8753845215e+003;3.8864101563e+003;3.8444870605e+003;3.8578205566e+003;3.8724357910e+003;3.8746154785e+003;3.9038461914e+003;3.8728205566e+003;3.8902563477e+003;3.8684614258e+003;3.8662819824e+003;
2.5781250000e-001;3.9792307129e+003;3.9521794434e+003;3.9465385742e+003;3.9451281738e+003;3.9662819824e+003;3.9214101563e+003;3.9311538086e+003;3.9430769043e+003;3.9489743652e+003;3.9833332520e+003;3.9438461914e+003;3.9630769043e+003;3.9425642090e+003;3.9415385742e+003;
2.6562500000e-001;4.0148718262e+003;3.9937180176e+003;3.9857692871e+003;3.9823076172e+003;4.0083332520e+003;3.9605129395e+003;3.9684614258e+003;3.9802563477e+003;3.9891025391e+003;4.0238461914e+003;3.9806411133e+003;4.0008974609e+003;3.9839743652e+003;3.9802563477e+003;
2.7343750000e-001;4.0157692871e+003;4.0002563477e+003;3.9907692871e+003;3.9884614258e+003;4.0153845215e+003;3.9675642090e+003;3.9747436523e+003;3.9837180176e+003;3.9930769043e+003;4.0271794434e+003;3.9832050781e+003;4.0052563477e+003;3.9893588867e+003;3.9834614258e+003;
2.8125000000e-001;4.0003845215e+003;3.9878205566e+003;3.9765385742e+003;3.9783332520e+003;4.0034614258e+003;3.9576923828e+003;3.9651281738e+003;3.9682050781e+003;3.9758974609e+003;4.0097436523e+003;3.9684614258e+003;3.9915385742e+003;3.9739743652e+003;3.9674357910e+003;
2.8906250000e-001;3.9861538086e+003;3.9760256348e+003;3.9633332520e+003;3.9698718262e+003;3.9998718262e+003;3.9626923828e+003;3.9546154785e+003;3.9493588867e+003;3.9593588867e+003;3.9997436523e+003;3.9614101563e+003;3.9884614258e+003;3.9605129395e+003;3.9579487305e+003;
2.9687500000e-001;3.9858974609e+003;3.9708974609e+003;3.9579487305e+003;3.9697436523e+003;3.9996154785e+003;3.9646154785e+003;3.9575642090e+003;3.9311538086e+003;3.9410256348e+003;3.9839743652e+003;3.9632050781e+003;3.9843588867e+003;3.9593588867e+003;3.9533332520e+003;
3.0468750000e-001;3.9808974609e+003;3.9646154785e+003;3.9526923828e+003;3.9635898438e+003;3.9891025391e+003;3.9617949219e+003;3.9528205566e+003;3.9273076172e+003;3.9385898438e+003;3.9808974609e+003;3.9603845215e+003;3.9819230957e+003;3.9542307129e+003;3.9501281738e+003;
3.1250000000e-001;3.9498718262e+003;3.9326923828e+003;3.9233332520e+003;3.9276923828e+003;3.9571794434e+003;3.9333332520e+003;3.9228205566e+003;3.8941025391e+003;3.9062819824e+003;3.9462819824e+003;3.9258974609e+003;3.9530769043e+003;3.9229487305e+003;3.9202563477e+003;
3.2031250000e-001;3.9473076172e+003;3.9250000000e+003;3.9255129395e+003;3.9232050781e+003;3.9570512695e+003;3.9156411133e+003;3.9129487305e+003;3.9051281738e+003;3.9146154785e+003;3.9484614258e+003;3.9273076172e+003;3.9578205566e+003;3.9184614258e+003;3.9197436523e+003;
3.2812500000e-001;3.9325642090e+003;3.9074357910e+003;3.9134614258e+003;3.9087180176e+003;3.9373076172e+003;3.9017949219e+003;3.9032050781e+003;3.8956411133e+003;3.9053845215e+003;3.9338461914e+003;3.9146154785e+003;3.9444870605e+003;3.9033332520e+003;3.9071794434e+003;
3.3593750000e-001;3.9610256348e+003;3.9371794434e+003;3.9417949219e+003;3.9373076172e+003;3.9620512695e+003;3.9301281738e+003;3.9403845215e+003;3.9369230957e+003;3.9448718262e+003;3.9710256348e+003;3.9489743652e+003;3.9794870605e+003;3.9402563477e+003;3.9438461914e+003;
3.4375000000e-001;3.9547436523e+003;3.9329487305e+003;3.9353845215e+003;3.9342307129e+003;3.9562819824e+003;3.9252563477e+003;3.9370512695e+003;3.9383332520e+003;3.9433332520e+003;3.9700000000e+003;3.9453845215e+003;3.9775642090e+003;3.9388461914e+003;3.9406411133e+003;
3.5156250000e-001;3.9370512695e+003;3.9192307129e+003;3.9215385742e+003;3.9248718262e+003;3.9448718262e+003;3.9057692871e+003;3.9211538086e+003;3.9275642090e+003;3.9276923828e+003;3.9497436523e+003;3.9307692871e+003;3.9551281738e+003;3.9215385742e+003;3.9173076172e+003;
3.5937500000e-001;3.9539743652e+003;3.9383332520e+003;3.9407692871e+003;3.9420512695e+003;3.9674357910e+003;3.9225642090e+003;3.9378205566e+003;3.9453845215e+003;3.9462819824e+003;3.9711538086e+003;3.9501281738e+003;3.9723076172e+003;3.9383332520e+003;3.9347436523e+003;
3.6718750000e-001;3.8880769043e+003;3.8791025391e+003;3.8764101563e+003;3.8850000000e+003;3.9112819824e+003;3.8715385742e+003;3.8750000000e+003;3.8725642090e+003;3.8783332520e+003;3.9065385742e+003;3.8810256348e+003;3.9105129395e+003;3.8725642090e+003;3.8674357910e+003;
3.7500000000e-001;3.9033332520e+003;3.8961538086e+003;3.8891025391e+003;3.9007692871e+003;3.9261538086e+003;3.8848718262e+003;3.8869230957e+003;3.8819230957e+003;3.8906411133e+003;3.9175642090e+003;3.8941025391e+003;3.9221794434e+003;3.8885898438e+003;3.8785898438e+003;
3.8281250000e-001;3.9448718262e+003;3.9389743652e+003;3.9267949219e+003;3.9396154785e+003;3.9656411133e+003;3.9216667480e+003;3.9239743652e+003;3.9211538086e+003;3.9315385742e+003;3.9621794434e+003;3.9388461914e+003;3.9594870605e+003;3.9325642090e+003;3.9200000000e+003;
3.9062500000e-001;3.9316667480e+003;3.9251281738e+003;3.9119230957e+003;3.9261538086e+003;3.9508974609e+003;3.9116667480e+003;3.9124357910e+003;3.9071794434e+003;3.9166667480e+003;3.9501281738e+003;3.9260256348e+003;3.9450000000e+003;3.9185898438e+003;3.9085898438e+003;
3.9843750000e-001;3.9219230957e+003;3.9156411133e+003;3.9000000000e+003;3.9161538086e+003;3.9406411133e+003;3.9057692871e+003;3.9037180176e+003;3.8933332520e+003;3.9035898438e+003;3.9388461914e+003;3.9141025391e+003;3.9326923828e+003;3.9069230957e+003;3.8987180176e+003;
4.0625000000e-001;3.9356411133e+003;3.9307692871e+003;3.9120512695e+003;3.9284614258e+003;3.9556411133e+003;3.9206411133e+003;3.9151281738e+003;3.9014101563e+003;3.9148718262e+003;3.9505129395e+003;3.9250000000e+003;3.9435898438e+003;3.9191025391e+003;3.9106411133e+003;
4.1406250000e-001;3.9193588867e+003;3.9135898438e+003;3.8998718262e+003;3.9156411133e+003;3.9323076172e+003;3.9092307129e+003;3.9025642090e+003;3.8811538086e+003;3.9008974609e+003;3.9264101563e+003;3.9008974609e+003;3.9247436523e+003;3.8979487305e+003;3.8912819824e+003;
4.2187500000e-001;3.9279487305e+003;3.9200000000e+003;3.9158974609e+003;3.9228205566e+003;3.9379487305e+003;3.9037180176e+003;3.9076923828e+003;3.9014101563e+003;3.9070512695e+003;3.9373076172e+003;3.9102563477e+003;3.9378205566e+003;3.9098718262e+003;3.9024357910e+003;
4.2968750000e-001;3.9094870605e+003;3.8971794434e+003;3.8974357910e+003;3.9023076172e+003;3.9220512695e+003;3.8805129395e+003;3.8894870605e+003;3.8794870605e+003;3.8878205566e+003;3.9125642090e+003;3.8879487305e+003;3.9182050781e+003;3.8887180176e+003;3.8824357910e+003;
4.3750000000e-001;3.9482050781e+003;3.9371794434e+003;3.9341025391e+003;3.9397436523e+003;3.9638461914e+003;3.9187180176e+003;3.9339743652e+003;3.9201281738e+003;3.9334614258e+003;3.9543588867e+003;3.9319230957e+003;3.9583332520e+003;3.9323076172e+003;3.9230769043e+003;
4.4531250000e-001;3.9552563477e+003;3.9475642090e+003;3.9433332520e+003;3.9502563477e+003;3.9705129395e+003;3.9319230957e+003;3.9460256348e+003;3.9382050781e+003;3.9487180176e+003;3.9728205566e+003;3.9488461914e+003;3.9721794434e+003;3.9455129395e+003;3.9358974609e+003;
4.5312500000e-001;3.8952563477e+003;3.8866667480e+003;3.8842307129e+003;3.8923076172e+003;3.9097436523e+003;3.8798718262e+003;3.8929487305e+003;3.8987180176e+003;3.8979487305e+003;3.9233332520e+003;3.8969230957e+003;3.9188461914e+003;3.8880769043e+003;3.8844870605e+003;
4.6093750000e-001;3.8887180176e+003;3.8796154785e+003;3.8734614258e+003;3.8865385742e+003;3.8994870605e+003;3.8678205566e+003;3.8750000000e+003;3.8870512695e+003;3.8908974609e+003;3.9102563477e+003;3.8814101563e+003;3.9034614258e+003;3.8816667480e+003;3.8701281738e+003;
4.6875000000e-001;3.8765385742e+003;3.8685898438e+003;3.8600000000e+003;3.8758974609e+003;3.8861538086e+003;3.8561538086e+003;3.8596154785e+003;3.8687180176e+003;3.8751281738e+003;3.8948718262e+003;3.8664101563e+003;3.8866667480e+003;3.8689743652e+003;3.8537180176e+003;
4.7656250000e-001;3.9485898438e+003;3.9573076172e+003;3.9238461914e+003;3.9456411133e+003;3.9662819824e+003;3.9261538086e+003;3.9203845215e+003;3.9307692871e+003;3.9464101563e+003;3.9715385742e+003;3.9347436523e+003;3.9506411133e+003;3.9403845215e+003;3.9274357910e+003;
4.8437500000e-001;3.9328205566e+003;3.9458974609e+003;3.9097436523e+003;3.9342307129e+003;3.9523076172e+003;3.9153845215e+003;3.9053845215e+003;3.9150000000e+003;3.9306411133e+003;3.9561538086e+003;3.9197436523e+003;3.9387180176e+003;3.9257692871e+003;3.9153845215e+003;
4.9218750000e-001;3.9097436523e+003;3.9237180176e+003;3.8883332520e+003;3.9147436523e+003;3.9291025391e+003;3.8969230957e+003;3.8842307129e+003;3.8878205566e+003;3.9030769043e+003;3.9289743652e+003;3.8967949219e+003;3.9180769043e+003;3.9039743652e+003;3.8930769043e+003;
5.0000000000e-001;3.9425642090e+003;3.9526923828e+003;3.9183332520e+003;3.9421794434e+003;3.9601281738e+003;3.9288461914e+003;3.9162819824e+003;3.9075642090e+003;3.9260256348e+003;3.9573076172e+003;3.9300000000e+003;3.9498718262e+003;3.9389743652e+003;3.9211538086e+003;
5.0781250000e-001;3.9476923828e+003;3.9547436523e+003;3.9257692871e+003;3.9432050781e+003;3.9621794434e+003;3.9384614258e+003;3.9280769043e+003;3.9144870605e+003;3.9350000000e+003;3.9651281738e+003;3.9330769043e+003;3.9516667480e+003;3.9360256348e+003;3.9247436523e+003;
5.1562500000e-001;3.9562819824e+003;3.9630769043e+003;3.9365385742e+003;3.9521794434e+003;3.9678205566e+003;3.9474357910e+003;3.9397436523e+003;3.9233332520e+003;3.9414101563e+003;3.9689743652e+003;3.9393588867e+003;3.9566667480e+003;3.9429487305e+003;3.9333332520e+003;
5.2343750000e-001;3.9856411133e+003;3.9921794434e+003;3.9675642090e+003;3.9803845215e+003;3.9951281738e+003;3.9750000000e+003;3.9697436523e+003;3.9542307129e+003;3.9696154785e+003;3.9973076172e+003;3.9688461914e+003;3.9856411133e+003;3.9743588867e+003;3.9642307129e+003;
5.3125000000e-001;4.0037180176e+003;4.0089743652e+003;3.9871794434e+003;3.9965385742e+003;4.0130769043e+003;3.9916667480e+003;3.9876923828e+003;3.9757692871e+003;3.9897436523e+003;4.0188461914e+003;3.9888461914e+003;4.0080769043e+003;3.9956411133e+003;3.9848718262e+003;
5.3906250000e-001;3.9450000000e+003;3.9535898438e+003;3.9279487305e+003;3.9420512695e+003;3.9534614258e+003;3.9421794434e+003;3.9435898438e+003;3.9311538086e+003;3.9452563477e+003;3.9708974609e+003;3.9419230957e+003;3.9607692871e+003;3.9438461914e+003;3.9288461914e+003;
5.4687500000e-001;3.9612819824e+003;3.9720512695e+003;3.9425642090e+003;3.9600000000e+003;3.9658974609e+003;3.9579487305e+003;3.9616667480e+003;3.9539743652e+003;3.9648718262e+003;3.9914101563e+003;3.9629487305e+003;3.9765385742e+003;3.9658974609e+003;3.9483332520e+003;
5.5468750000e-001;3.9944870605e+003;4.0084614258e+003;3.9752563477e+003;3.9917949219e+003;4.0153845215e+003;3.9850000000e+003;3.9948718262e+003;3.9966667480e+003;4.0052563477e+003;4.0266667480e+003;3.9982050781e+003;4.0133332520e+003;4.0089743652e+003;3.9866667480e+003;
5.6250000000e-001;4.0601281738e+003;4.0838461914e+003;4.0493588867e+003;4.0588461914e+003;4.0937180176e+003;4.0478205566e+003;4.0603845215e+003;4.0719230957e+003;4.0779487305e+003;4.1042309570e+003;4.0761538086e+003;4.0876923828e+003;4.0812819824e+003;4.0573076172e+003;
5.7031250000e-001;4.0520512695e+003;4.0764101563e+003;4.0438461914e+003;4.0528205566e+003;4.0793588867e+003;4.0400000000e+003;4.0532050781e+003;4.0625642090e+003;4.0653845215e+003;4.0933332520e+003;4.0679487305e+003;4.0776923828e+003;4.0733332520e+003;4.0493588867e+003;
5.7812500000e-001;4.1526923828e+003;4.1902563477e+003;4.1488461914e+003;4.1508974609e+003;4.1857690430e+003;4.1361538086e+003;4.1426923828e+003;4.1516665039e+003;4.1526923828e+003;4.1884614258e+003;4.1626923828e+003;4.1728203125e+003;4.1774360352e+003;4.1508974609e+003;
5.8593750000e-001;4.0671794434e+003;4.1029487305e+003;4.0670512695e+003;4.0723076172e+003;4.0985898438e+003;4.0765385742e+003;4.0698718262e+003;4.0678205566e+003;4.0737180176e+003;4.1133334961e+003;4.0807692871e+003;4.0933332520e+003;4.0944870605e+003;4.0676923828e+003;
5.9375000000e-001;4.0653845215e+003;4.0989741211e+003;4.0632050781e+003;4.0717949219e+003;4.0983334961e+003;4.0784614258e+003;4.0728205566e+003;4.0657692871e+003;4.0741025391e+003;4.1130771484e+003;4.0802563477e+003;4.0894870605e+003;4.0939743652e+003;4.0637180176e+003;
6.0156250000e-001;4.0444870605e+003;4.0820512695e+003;4.0430769043e+003;4.0474357910e+003;4.0938461914e+003;4.0617949219e+003;4.0514101563e+003;4.0434614258e+003;4.0569230957e+003;4.0892307129e+003;4.0555129395e+003;4.0647436523e+003;4.0703845215e+003;4.0408974609e+003;
6.0937500000e-001;4.0373076172e+003;4.0757692871e+003;4.0350000000e+003;4.0371794434e+003;4.0880769043e+003;4.0544870605e+003;4.0423076172e+003;4.0312819824e+003;4.0452563477e+003;4.0764101563e+003;4.0446154785e+003;4.0542307129e+003;4.0575642090e+003;4.0321794434e+003;
6.1718750000e-001;4.0579487305e+003;4.0969228516e+003;4.0534614258e+003;4.0557692871e+003;4.1074360352e+003;4.0726923828e+003;4.0603845215e+003;4.0484614258e+003;4.0633332520e+003;4.0955129395e+003;4.0650000000e+003;4.0732050781e+003;4.0755129395e+003;4.0524357910e+003;
6.2500000000e-001;4.0816667480e+003;4.1192309570e+003;4.0753845215e+003;4.0848718262e+003;4.1246152344e+003;4.0934614258e+003;4.0830769043e+003;4.0764101563e+003;4.0929487305e+003;4.1271796875e+003;4.0955129395e+003;4.1058974609e+003;4.1052563477e+003;4.0810256348e+003;
6.3281250000e-001;4.0673076172e+003;4.1034614258e+003;4.0601281738e+003;4.0756411133e+003;4.1110258789e+003;4.0778205566e+003;4.0721794434e+003;4.0657692871e+003;4.0802563477e+003;4.1111538086e+003;4.0817949219e+003;4.0984614258e+003;4.0964101563e+003;4.0716667480e+003;
6.4062500000e-001;4.0965385742e+003;4.1358974609e+003;4.0910256348e+003;4.1024360352e+003;4.1428203125e+003;4.1051284180e+003;4.1003847656e+003;4.0982050781e+003;4.1130771484e+003;4.1450000000e+003;4.1146152344e+003;4.1274360352e+003;4.1270512695e+003;4.1032050781e+003;
6.4843750000e-001;4.1061538086e+003;4.1474360352e+003;4.1037177734e+003;4.1114101563e+003;4.1500000000e+003;4.1139741211e+003;4.1100000000e+003;4.1120512695e+003;4.1265385742e+003;4.1588461914e+003;4.1271796875e+003;4.1371796875e+003;4.1366665039e+003;4.1135898438e+003;
6.5625000000e-001;4.0966665039e+003;4.1371796875e+003;4.0969228516e+003;4.1028203125e+003;4.1316665039e+003;4.1025639648e+003;4.1010258789e+003;4.1041025391e+003;4.1165385742e+003;4.1479487305e+003;4.1173076172e+003;4.1262822266e+003;4.1242309570e+003;4.1015385742e+003;
6.6406250000e-001;4.1657690430e+003;4.2048715820e+003;4.1726923828e+003;4.1655126953e+003;4.1826923828e+003;4.1476923828e+003;4.1603847656e+003;4.1743588867e+003;4.1792309570e+003;4.2128203125e+003;4.1891025391e+003;4.2032050781e+003;4.1887177734e+003;4.1753847656e+003;
6.7187500000e-001;4.1376923828e+003;4.1778203125e+003;4.1488461914e+003;4.1403847656e+003;4.1632050781e+003;4.1221796875e+003;4.1366665039e+003;4.1535898438e+003;4.1574360352e+003;4.1921796875e+003;4.1657690430e+003;4.1814101563e+003;4.1658974609e+003;4.1529487305e+003;
6.7968750000e-001;4.1176923828e+003;4.1575639648e+003;4.1300000000e+003;4.1273076172e+003;4.1525639648e+003;4.1056411133e+003;4.1251284180e+003;4.1433334961e+003;4.1419228516e+003;4.1791025391e+003;4.1497436523e+003;4.1571796875e+003;4.1512822266e+003;4.1330771484e+003;
6.8750000000e-001;4.0656411133e+003;4.1039741211e+003;4.0866667480e+003;4.0821794434e+003;4.1024360352e+003;4.0792307129e+003;4.0838461914e+003;4.0944870605e+003;4.0971796875e+003;4.1255126953e+003;4.1039741211e+003;4.1148715820e+003;4.1015385742e+003;4.0824357910e+003;
6.9531250000e-001;4.0692307129e+003;4.1091025391e+003;4.0883332520e+003;4.0853845215e+003;4.1110258789e+003;4.0892307129e+003;4.0908974609e+003;4.0956411133e+003;4.1011538086e+003;4.1292309570e+003;4.1070512695e+003;4.1188461914e+003;4.1066665039e+003;4.0846154785e+003;
7.0312500000e-001;4.0393588867e+003;4.0797436523e+003;4.0488461914e+003;4.0546154785e+003;4.0857692871e+003;4.0707692871e+003;4.0620512695e+003;4.0603845215e+003;4.0651281738e+003;4.1003847656e+003;4.0714101563e+003;4.0826923828e+003;4.0733332520e+003;4.0558974609e+003;
7.1093750000e-001;4.0916667480e+003;4.1435898438e+003;4.1052563477e+003;4.1083334961e+003;4.1523076172e+003;4.1350000000e+003;4.1191025391e+003;4.1025639648e+003;4.1170512695e+003;4.1506411133e+003;4.1242309570e+003;4.1300000000e+003;4.1347436523e+003;4.1070512695e+003;
7.1875000000e-001;4.1238461914e+003;4.1808974609e+003;4.1426923828e+003;4.1443588867e+003;4.1893588867e+003;4.1702563477e+003;4.1538461914e+003;4.1402563477e+003;4.1565385742e+003;4.1929487305e+003;4.1623076172e+003;4.1683334961e+003;4.1719228516e+003;4.1417949219e+003;
7.2656250000e-001;4.1164101563e+003;4.1744873047e+003;4.1392309570e+003;4.1419228516e+003;4.1830771484e+003;4.1650000000e+003;4.1489741211e+003;4.1376923828e+003;4.1538461914e+003;4.1916665039e+003;4.1582050781e+003;4.1660258789e+003;4.1652563477e+003;4.1365385742e+003;
7.3437500000e-001;4.0847436523e+003;4.1392309570e+003;4.1062822266e+003;4.1108974609e+003;4.1461538086e+003;4.1285898438e+003;4.1175639648e+003;4.1025639648e+003;4.1197436523e+003;4.1541025391e+003;4.1238461914e+003;4.1320512695e+003;4.1273076172e+003;4.1043588867e+003;
7.4218750000e-001;4.0996152344e+003;4.1533334961e+003;4.1201284180e+003;4.1210258789e+003;4.1562822266e+003;4.1384614258e+003;4.1297436523e+003;4.1152563477e+003;4.1347436523e+003;4.1670512695e+003;4.1376923828e+003;4.1450000000e+003;4.1397436523e+003;4.1198715820e+003;
7.5000000000e-001;4.0951281738e+003;4.1421796875e+003;4.1224360352e+003;4.1108974609e+003;4.1396152344e+003;4.1276923828e+003;4.1232050781e+003;4.1183334961e+003;4.1315385742e+003;4.1615385742e+003;4.1315385742e+003;4.1417949219e+003;4.1241025391e+003;4.1167949219e+003;
7.5781250000e-001;4.1466665039e+003;4.1964101563e+003;4.1726923828e+003;4.1596152344e+003;4.1792309570e+003;4.1598715820e+003;4.1703847656e+003;4.1773076172e+003;4.1801284180e+003;4.2138461914e+003;4.1907690430e+003;4.1965385742e+003;4.1807690430e+003;4.1694873047e+003;
7.6562500000e-001;4.1325639648e+003;4.1838461914e+003;4.1606411133e+003;4.1455126953e+003;4.1562822266e+003;4.1401284180e+003;4.1551284180e+003;4.1665385742e+003;4.1691025391e+003;4.2021796875e+003;4.1796152344e+003;4.1862822266e+003;4.1692309570e+003;4.1576923828e+003;
7.7343750000e-001;4.1102563477e+003;4.1608974609e+003;4.1401284180e+003;4.1225639648e+003;4.1280771484e+003;4.1125639648e+003;4.1312822266e+003;4.1443588867e+003;4.1470512695e+003;4.1785898438e+003;4.1558974609e+003;4.1647436523e+003;4.1458974609e+003;4.1353847656e+003;
7.8125000000e-001;4.1073076172e+003;4.1564101563e+003;4.1371796875e+003;4.1178203125e+003;4.1260258789e+003;4.1042309570e+003;4.1250000000e+003;4.1393588867e+003;4.1421796875e+003;4.1726923828e+003;4.1487177734e+003;4.1596152344e+003;4.1398715820e+003;4.1305126953e+003;
7.8906250000e-001;4.1185898438e+003;4.1682050781e+003;4.1478203125e+003;4.1307690430e+003;4.1584614258e+003;4.1210258789e+003;4.1326923828e+003;4.1450000000e+003;4.1458974609e+003;4.1787177734e+003;4.1546152344e+003;4.1692309570e+003;4.1473076172e+003;4.1406411133e+003;
7.9687500000e-001;4.1530771484e+003;4.2038461914e+003;4.1808974609e+003;4.1632050781e+003;4.1912822266e+003;4.1553847656e+003;4.1694873047e+003;4.1737177734e+003;4.1753847656e+003;4.2089741211e+003;4.1885898438e+003;4.1984614258e+003;4.1814101563e+003;4.1715385742e+003;
8.0468750000e-001;4.2778203125e+003;4.3394873047e+003;4.3107690430e+003;4.2900000000e+003;4.3279487305e+003;4.2870512695e+003;4.2951284180e+003;4.2958974609e+003;4.3048715820e+003;4.3451284180e+003;4.3153847656e+003;4.3198715820e+003;4.3091025391e+003;4.2937177734e+003;
8.1250000000e-001;4.2746152344e+003;4.3503847656e+003;4.3161538086e+003;4.2930771484e+003;4.3400000000e+003;4.3065385742e+003;4.2996152344e+003;4.2875639648e+003;4.3076923828e+003;4.3424360352e+003;4.3157690430e+003;4.3306411133e+003;4.3106411133e+003;4.3042309570e+003;
8.2031250000e-001;4.2929487305e+003;4.3714101563e+003;4.3356411133e+003;4.3105126953e+003;4.3592309570e+003;4.3262822266e+003;4.3189741211e+003;4.3083334961e+003;4.3300000000e+003;4.3643588867e+003;4.3375639648e+003;4.3498715820e+003;4.3333334961e+003;4.3257690430e+003;
8.2812500000e-001;4.2421796875e+003;4.3246152344e+003;4.2944873047e+003;4.2701284180e+003;4.3151284180e+003;4.2853847656e+003;4.2825639648e+003;4.2696152344e+003;4.2882050781e+003;4.3211538086e+003;4.2891025391e+003;4.2965385742e+003;4.2851284180e+003;4.2743588867e+003;
8.3593750000e-001;4.2519228516e+003;4.3379487305e+003;4.3078203125e+003;4.2825639648e+003;4.3293588867e+003;4.2982050781e+003;4.2964101563e+003;4.2823076172e+003;4.3021796875e+003;4.3341025391e+003;4.3003847656e+003;4.3080771484e+003;4.2976923828e+003;4.2858974609e+003;
8.4375000000e-001;4.2541025391e+003;4.3448715820e+003;4.3162822266e+003;4.2882050781e+003;4.3355126953e+003;4.3082050781e+003;4.3041025391e+003;4.2948715820e+003;4.3132050781e+003;4.3430771484e+003;4.3110258789e+003;4.3187177734e+003;4.3105126953e+003;4.2956411133e+003;
8.5156250000e-001;4.2341025391e+003;4.3247436523e+003;4.2973076172e+003;4.2707690430e+003;4.3144873047e+003;4.2912822266e+003;4.2874360352e+003;4.2798715820e+003;4.2930771484e+003;4.3216665039e+003;4.2934614258e+003;4.3003847656e+003;4.2925639648e+003;4.2773076172e+003;
8.5937500000e-001;4.2705126953e+003;4.3644873047e+003;4.3314101563e+003;4.3137177734e+003;4.3552563477e+003;4.3239741211e+003;4.3317949219e+003;4.3351284180e+003;4.3346152344e+003;4.3648715820e+003;4.3333334961e+003;4.3403847656e+003;4.3302563477e+003;4.3205126953e+003;
8.6718750000e-001;4.2610258789e+003;4.3552563477e+003;4.3229487305e+003;4.3043588867e+003;4.3453847656e+003;4.3158974609e+003;4.3266665039e+003;4.3328203125e+003;4.3315385742e+003;4.3614101563e+003;4.3267949219e+003;4.3365385742e+003;4.3228203125e+003;4.3162822266e+003;
8.7500000000e-001;4.2851284180e+003;4.3730771484e+003;4.3433334961e+003;4.3187177734e+003;4.3587177734e+003;4.3297436523e+003;4.3464101563e+003;4.3532050781e+003;4.3502563477e+003;4.3797436523e+003;4.3547436523e+003;4.3565385742e+003;4.3451284180e+003;4.3402563477e+003;
8.8281250000e-001;4.3302563477e+003;4.4171796875e+003;4.3885898438e+003;4.3624360352e+003;4.4047436523e+003;4.3679487305e+003;4.3837177734e+003;4.3961538086e+003;4.3935898438e+003;4.4270512695e+003;4.4000000000e+003;4.4000000000e+003;4.3911538086e+003;4.3842309570e+003;
8.9062500000e-001;4.3171796875e+003;4.4043588867e+003;4.3805126953e+003;4.3546152344e+003;4.3912822266e+003;4.3532050781e+003;4.3656411133e+003;4.3816665039e+003;4.3829487305e+003;4.4200000000e+003;4.3843588867e+003;4.3916665039e+003;4.3829487305e+003;4.3734614258e+003;
8.9843750000e-001;4.2980771484e+003;4.3873076172e+003;4.3620512695e+003;4.3380771484e+003;4.3676923828e+003;4.3350000000e+003;4.3483334961e+003;4.3598715820e+003;4.3628203125e+003;4.4002563477e+003;4.3648715820e+003;4.3733334961e+003;4.3664101563e+003;4.3552563477e+003;
9.0625000000e-001;4.3083334961e+003;4.4023076172e+003;4.3724360352e+003;4.3503847656e+003;4.3744873047e+003;4.3446152344e+003;4.3602563477e+003;4.3683334961e+003;4.3719228516e+003;4.4119228516e+003;4.3789741211e+003;4.3837177734e+003;4.3801284180e+003;4.3669228516e+003;
9.1406250000e-001;4.3305126953e+003;4.4315385742e+003;4.3966665039e+003;4.3761538086e+003;4.3987177734e+003;4.3678203125e+003;4.3841025391e+003;4.3923076172e+003;4.3960258789e+003;4.4402563477e+003;4.4092309570e+003;4.4080771484e+003;4.4066665039e+003;4.3923076172e+003;
9.2187500000e-001;4.2597436523e+003;4.3732050781e+003;4.3342309570e+003;4.3196152344e+003;4.3653847656e+003;4.3260258789e+003;4.3233334961e+003;4.3217949219e+003;4.3373076172e+003;4.3737177734e+003;4.3415385742e+003;4.3419228516e+003;4.3439741211e+003;4.3297436523e+003;
9.2968750000e-001;4.1796152344e+003;4.2846152344e+003;4.2552563477e+003;4.2437177734e+003;4.2793588867e+003;4.2660258789e+003;4.2587177734e+003;4.2498715820e+003;4.2639741211e+003;4.2920512695e+003;4.2619228516e+003;4.2652563477e+003;4.2625639648e+003;4.2510258789e+003;
9.3750000000e-001;4.1714101563e+003;4.2775639648e+003;4.2465385742e+003;4.2402563477e+003;4.2739741211e+003;4.2600000000e+003;4.2534614258e+003;4.2408974609e+003;4.2574360352e+003;4.2803847656e+003;4.2503847656e+003;4.2542309570e+003;4.2538461914e+003;4.2410258789e+003;
9.4531250000e-001;4.1741025391e+003;4.2806411133e+003;4.2502563477e+003;4.2450000000e+003;4.2734614258e+003;4.2642309570e+003;4.2564101563e+003;4.2455126953e+003;4.2648715820e+003;4.2805126953e+003;4.2480771484e+003;4.2557690430e+003;4.2514101563e+003;4.2425639648e+003;
9.5312500000e-001;4.2005126953e+003;4.2974360352e+003;4.2664101563e+003;4.2675639648e+003;4.2980771484e+003;4.2770512695e+003;4.2773076172e+003;4.2710258789e+003;4.2766665039e+003;4.3023076172e+003;4.2746152344e+003;4.2774360352e+003;4.2780771484e+003;4.2582050781e+003;
9.6093750000e-001;4.2064101563e+003;4.3023076172e+003;4.2688461914e+003;4.2744873047e+003;4.3025639648e+003;4.2800000000e+003;4.2801284180e+003;4.2788461914e+003;4.2830771484e+003;4.3094873047e+003;4.2823076172e+003;4.2882050781e+003;4.2888461914e+003;4.2656411133e+003;
9.6875000000e-001;4.1676923828e+003;4.2593588867e+003;4.2328203125e+003;4.2330771484e+003;4.2541025391e+003;4.2419228516e+003;4.2434614258e+003;4.2428203125e+003;4.2402563477e+003;4.2658974609e+003;4.2410258789e+003;4.2587177734e+003;4.2464101563e+003;4.2314101563e+003;
9.7656250000e-001;4.1820512695e+003;4.2733334961e+003;4.2510258789e+003;4.2420512695e+003;4.2662822266e+003;4.2533334961e+003;4.2584614258e+003;4.2571796875e+003;4.2505126953e+003;4.2782050781e+003;4.2541025391e+003;4.2739741211e+003;4.2571796875e+003;4.2474360352e+003;
9.8437500000e-001;4.2162822266e+003;4.3079487305e+003;4.2923076172e+003;4.2720512695e+003;4.2951284180e+003;4.2725639648e+003;4.2819228516e+003;4.2869228516e+003;4.2769228516e+003;4.3156411133e+003;4.2896152344e+003;4.3073076172e+003;4.2928203125e+003;4.2866665039e+003;
9.9218750000e-001;4.1943588867e+003;4.2837177734e+003;4.2680771484e+003;4.2505126953e+003;4.2673076172e+003;4.2458974609e+003;4.2547436523e+003;4.2548715820e+003;4.2471796875e+003;4.2869228516e+003;4.2637177734e+003;4.2812822266e+003;4.2664101563e+003;4.2619228516e+003;
1.0000000000e+000;4.2256411133e+003;4.3164101563e+003;4.2956411133e+003;4.2735898438e+003;4.2910258789e+003;4.2584614258e+003;4.2679487305e+003;4.2678203125e+003;4.2706411133e+003;4.3098715820e+003;4.2915385742e+003;4.3078203125e+003;4.2875639648e+003;4.2915385742e+003;
1.0078125000e+000;4.2110258789e+003;4.3010258789e+003;4.2826923828e+003;4.2602563477e+003;4.2758974609e+003;4.2415385742e+003;4.2508974609e+003;4.2534614258e+003;4.2588461914e+003;4.2951284180e+003;4.2767949219e+003;4.2937177734e+003;4.2743588867e+003;4.2794873047e+003;
1.0156250000e+000;4.2056411133e+003;4.2920512695e+003;4.2767949219e+003;4.2566665039e+003;4.2723076172e+003;4.2376923828e+003;4.2484614258e+003;4.2475639648e+003;4.2562822266e+003;4.2860258789e+003;4.2652563477e+003;4.2814101563e+003;4.2692309570e+003;4.2721796875e+003;
1.0234375000e+000;4.2351284180e+003;4.3226923828e+003;4.3053847656e+003;4.2853847656e+003;4.3053847656e+003;4.2715385742e+003;4.2819228516e+003;4.2815385742e+003;4.2917949219e+003;4.3196152344e+003;4.2943588867e+003;4.3088461914e+003;4.2984614258e+003;4.2992309570e+003;
1.0312500000e+000;4.2492309570e+003;4.3393588867e+003;4.3203847656e+003;4.3001284180e+003;4.3237177734e+003;4.2947436523e+003;4.3021796875e+003;4.3043588867e+003;4.3156411133e+003;4.3414101563e+003;4.3112822266e+003;4.3247436523e+003;4.3135898438e+003;4.3123076172e+003;
1.0390625000e+000;4.2767949219e+003;4.3612822266e+003;4.3497436523e+003;4.3223076172e+003;4.3539741211e+003;4.3426923828e+003;4.3464101563e+003;4.3393588867e+003;4.3478203125e+003;4.3757690430e+003;4.3446152344e+003;4.3541025391e+003;4.3467949219e+003;4.3446152344e+003;
1.0468750000e+000;4.2957690430e+003;4.3801284180e+003;4.3706411133e+003;4.3407690430e+003;4.3758974609e+003;4.3616665039e+003;4.3680771484e+003;4.3602563477e+003;4.3665385742e+003;4.3973076172e+003;4.3637177734e+003;4.3728203125e+003;4.3638461914e+003;4.3637177734e+003;
1.0546875000e+000;4.5330771484e+003;4.6376923828e+003;4.6053847656e+003;4.5810258789e+003;4.6248715820e+003;4.5934614258e+003;4.6075639648e+003;4.5973076172e+003;4.6020512695e+003;4.6357690430e+003;4.6047436523e+003;4.6055126953e+003;4.6128203125e+003;4.6003847656e+003;
1.0625000000e+000;4.6810258789e+003;4.8097436523e+003;4.7714101563e+003;4.7308974609e+003;4.7787177734e+003;4.7523076172e+003;4.7664101563e+003;4.7682050781e+003;4.7697436523e+003;4.8189741211e+003;4.7847436523e+003;4.7812822266e+003;4.7810258789e+003;4.7769228516e+003;
1.0703125000e+000;4.6741025391e+003;4.8070512695e+003;4.7698715820e+003;4.7255126953e+003;4.7824360352e+003;4.7515385742e+003;4.7656411133e+003;4.7652563477e+003;4.7646152344e+003;4.8162822266e+003;4.7823076172e+003;4.7797436523e+003;4.7758974609e+003;4.7739741211e+003;
1.0781250000e+000;4.7633334961e+003;4.9134614258e+003;4.8697436523e+003;4.8273076172e+003;4.9088461914e+003;4.8403847656e+003;4.8532050781e+003;4.8601284180e+003;4.8569228516e+003;4.9161538086e+003;4.8810258789e+003;4.8770512695e+003;4.8832050781e+003;4.8706411133e+003;
1.0859375000e+000;4.8003847656e+003;4.9567949219e+003;4.9128203125e+003;4.8685898438e+003;4.9480771484e+003;4.8734614258e+003;4.8893588867e+003;4.8979487305e+003;4.8946152344e+003;4.9557690430e+003;4.9221796875e+003;4.9175639648e+003;4.9264101563e+003;4.9126923828e+003;
1.0937500000e+000;4.8851284180e+003;5.0571796875e+003;5.0116665039e+003;4.9552563477e+003;5.0315385742e+003;4.9497436523e+003;4.9758974609e+003;4.9892309570e+003;4.9864101563e+003;5.0548715820e+003;5.0187177734e+003;5.0155126953e+003;5.0219228516e+003;5.0108974609e+003;
1.1015625000e+000;4.8835898438e+003;5.0620512695e+003;5.0183334961e+003;4.9553847656e+003;5.0316665039e+003;4.9501284180e+003;4.9774360352e+003;4.9962822266e+003;4.9937177734e+003;5.0662822266e+003;5.0258974609e+003;5.0253847656e+003;5.0269228516e+003;5.0167949219e+003;
1.1093750000e+000;4.7664101563e+003;4.9450000000e+003;4.9129487305e+003;4.8489741211e+003;4.9182050781e+003;4.8506411133e+003;4.8707690430e+003;4.8839741211e+003;4.8860258789e+003;4.9555126953e+003;4.9215385742e+003;4.9202563477e+003;4.9215385742e+003;4.9088461914e+003;
1.1171875000e+000;4.8125639648e+003;4.9933334961e+003;4.9591025391e+003;4.8967949219e+003;4.9657690430e+003;4.8956411133e+003;4.9162822266e+003;4.9266665039e+003;4.9329487305e+003;5.0011538086e+003;4.9685898438e+003;4.9642309570e+003;4.9698715820e+003;4.9575639648e+003;
1.1250000000e+000;4.8330771484e+003;5.0350000000e+003;4.9953847656e+003;4.9355126953e+003;5.0056411133e+003;4.9350000000e+003;4.9560258789e+003;4.9753847656e+003;4.9848715820e+003;5.0475639648e+003;5.0041025391e+003;5.0029487305e+003;5.0007690430e+003;4.9950000000e+003;
1.1328125000e+000;4.7800000000e+003;4.9880771484e+003;4.9461538086e+003;4.8878203125e+003;4.9607690430e+003;4.8941025391e+003;4.9147436523e+003;4.9333334961e+003;4.9396152344e+003;4.9996152344e+003;4.9564101563e+003;4.9538461914e+003;4.9521796875e+003;4.9432050781e+003;
1.1406250000e+000;4.7279487305e+003;4.9394873047e+003;4.8938461914e+003;4.8384614258e+003;4.9170512695e+003;4.8592309570e+003;4.8750000000e+003;4.8926923828e+003;4.8943588867e+003;4.9538461914e+003;4.9112822266e+003;4.9028203125e+003;4.9069228516e+003;4.8915385742e+003;
1.1484375000e+000;4.6988461914e+003;4.9074360352e+003;4.8657690430e+003;4.8114101563e+003;4.8871796875e+003;4.8382050781e+003;4.8500000000e+003;4.8660258789e+003;4.8674360352e+003;4.9248715820e+003;4.8812822266e+003;4.8744873047e+003;4.8771796875e+003;4.8632050781e+003;
1.1562500000e+000;4.6638461914e+003;4.8682050781e+003;4.8334614258e+003;4.7787177734e+003;4.8506411133e+003;4.8106411133e+003;4.8203847656e+003;4.8305126953e+003;4.8330771484e+003;4.8852563477e+003;4.8419228516e+003;4.8394873047e+003;4.8391025391e+003;4.8274360352e+003;
1.1640625000e+000;4.6514101563e+003;4.8534614258e+003;4.8247436523e+003;4.7669228516e+003;4.8394873047e+003;4.8024360352e+003;4.8135898438e+003;4.8155126953e+003;4.8200000000e+003;4.8660258789e+003;4.8246152344e+003;4.8256411133e+003;4.8243588867e+003;4.8129487305e+003;
1.1718750000e+000;4.6942309570e+003;4.9032050781e+003;4.8753847656e+003;4.8066665039e+003;4.8916665039e+003;4.8473076172e+003;4.8596152344e+003;4.8630771484e+003;4.8666665039e+003;4.9105126953e+003;4.8730771484e+003;4.8726923828e+003;4.8678203125e+003;4.8633334961e+003;
1.1796875000e+000;4.6375639648e+003;4.8502563477e+003;4.8267949219e+003;4.7561538086e+003;4.8353847656e+003;4.7992309570e+003;4.8029487305e+003;4.7983334961e+003;4.8029487305e+003;4.8457690430e+003;4.8129487305e+003;4.8144873047e+003;4.8082050781e+003;4.8011538086e+003;
1.1875000000e+000;4.6288461914e+003;4.8421796875e+003;4.8203847656e+003;4.7507690430e+003;4.8305126953e+003;4.7864101563e+003;4.7916665039e+003;4.7847436523e+003;4.7861538086e+003;4.8324360352e+003;4.7996152344e+003;4.8044873047e+003;4.7982050781e+003;4.7903847656e+003;
1.1953125000e+000;4.6293588867e+003;4.8430771484e+003;4.8184614258e+003;4.7532050781e+003;4.8250000000e+003;4.7752563477e+003;4.7843588867e+003;4.7769228516e+003;4.7757690430e+003;4.8232050781e+003;4.7952563477e+003;4.8028203125e+003;4.7971796875e+003;4.7914101563e+003;
1.2031250000e+000;4.6369228516e+003;4.8494873047e+003;4.8260258789e+003;4.7588461914e+003;4.8234614258e+003;4.7792309570e+003;4.7884614258e+003;4.7860258789e+003;4.7851284180e+003;4.8307690430e+003;4.8062822266e+003;4.8123076172e+003;4.8085898438e+003;4.8020512695e+003;
1.2109375000e+000;4.5769228516e+003;4.7803847656e+003;4.7712822266e+003;4.6994873047e+003;4.7600000000e+003;4.7197436523e+003;4.7288461914e+003;4.7310258789e+003;4.7224360352e+003;4.7682050781e+003;4.7480771484e+003;4.7628203125e+003;4.7487177734e+003;4.7415385742e+003;
1.2187500000e+000;4.6100000000e+003;4.8196152344e+003;4.7935898438e+003;4.7350000000e+003;4.8083334961e+003;4.7524360352e+003;4.7620512695e+003;4.7664101563e+003;4.7600000000e+003;4.8002563477e+003;4.7839741211e+003;4.7910258789e+003;4.7806411133e+003;4.7703847656e+003;
1.2265625000e+000;4.6057690430e+003;4.8155126953e+003;4.7902563477e+003;4.7306411133e+003;4.8008974609e+003;4.7541025391e+003;4.7612822266e+003;4.7660258789e+003;4.7630771484e+003;4.7964101563e+003;4.7834614258e+003;4.7865385742e+003;4.7812822266e+003;4.7688461914e+003;
1.2343750000e+000;4.6139741211e+003;4.8229487305e+003;4.7998715820e+003;4.7376923828e+003;4.8065385742e+003;4.7674360352e+003;4.7738461914e+003;4.7767949219e+003;4.7760258789e+003;4.8042309570e+003;4.7935898438e+003;4.7951284180e+003;4.7935898438e+003;4.7788461914e+003;
1.2421875000e+000;4.6803847656e+003;4.8919228516e+003;4.8656411133e+003;4.8041025391e+003;4.8787177734e+003;4.8361538086e+003;4.8457690430e+003;4.8511538086e+003;4.8494873047e+003;4.8808974609e+003;4.8615385742e+003;4.8647436523e+003;4.8642309570e+003;4.8470512695e+003;
1.2500000000e+000;4.6802563477e+003;4.8935898438e+003;4.8657690430e+003;4.8083334961e+003;4.8825639648e+003;4.8385898438e+003;4.8480771484e+003;4.8564101563e+003;4.8539741211e+003;4.8884614258e+003;4.8620512695e+003;4.8665385742e+003;4.8644873047e+003;4.8484614258e+003;
1.2578125000e+000;4.6496152344e+003;4.8620512695e+003;4.8355126953e+003;4.7825639648e+003;4.8529487305e+003;4.8119228516e+003;4.8196152344e+003;4.8260258789e+003;4.8251284180e+003;4.8585898438e+003;4.8301284180e+003;4.8343588867e+003;4.8319228516e+003;4.8182050781e+003;
1.2656250000e+000;4.7451284180e+003;4.9652563477e+003;4.9361538086e+003;4.8697436523e+003;4.9500000000e+003;4.8987177734e+003;4.9035898438e+003;4.9114101563e+003;4.9225639648e+003;4.9476923828e+003;4.9271796875e+003;4.9234614258e+003;4.9288461914e+003;4.9166665039e+003;
1.2734375000e+000;4.6980771484e+003;4.9200000000e+003;4.8929487305e+003;4.8253847656e+003;4.9010258789e+003;4.8564101563e+003;4.8615385742e+003;4.8669228516e+003;4.8770512695e+003;4.8997436523e+003;4.8810258789e+003;4.8779487305e+003;4.8812822266e+003;4.8710258789e+003;
1.2812500000e+000;4.7035898438e+003;4.9228203125e+003;4.8980771484e+003;4.8255126953e+003;4.9017949219e+003;4.8606411133e+003;4.8682050781e+003;4.8611538086e+003;4.8691025391e+003;4.8970512695e+003;4.8867949219e+003;4.8842309570e+003;4.8842309570e+003;4.8802563477e+003;
1.2890625000e+000;4.6885898438e+003;4.8932050781e+003;4.8769228516e+003;4.8014101563e+003;4.8734614258e+003;4.8305126953e+003;4.8396152344e+003;4.8412822266e+003;4.8361538086e+003;4.8751284180e+003;4.8732050781e+003;4.8702563477e+003;4.8752563477e+003;4.8706411133e+003;
1.2968750000e+000;4.6935898438e+003;4.8973076172e+003;4.8782050781e+003;4.8057690430e+003;4.8728203125e+003;4.8279487305e+003;4.8394873047e+003;4.8441025391e+003;4.8374360352e+003;4.8782050781e+003;4.8800000000e+003;4.8723076172e+003;4.8811538086e+003;4.8758974609e+003;
1.3046875000e+000;4.6934614258e+003;4.9067949219e+003;4.8796152344e+003;4.8062822266e+003;4.8638461914e+003;4.8226923828e+003;4.8406411133e+003;4.8466665039e+003;4.8439741211e+003;4.8812822266e+003;4.8857690430e+003;4.8780771484e+003;4.8819228516e+003;4.8760258789e+003;
1.3125000000e+000;4.7450000000e+003;4.9511538086e+003;4.9323076172e+003;4.8516665039e+003;4.9216665039e+003;4.8675639648e+003;4.8870512695e+003;4.9056411133e+003;4.9025639648e+003;4.9357690430e+003;4.9378203125e+003;4.9250000000e+003;4.9435898438e+003;4.9291025391e+003;
1.3203125000e+000;4.7012822266e+003;4.9051284180e+003;4.8880771484e+003;4.8105126953e+003;4.8769228516e+003;4.8287177734e+003;4.8447436523e+003;4.8651284180e+003;4.8630771484e+003;4.8926923828e+003;4.8939741211e+003;4.8815385742e+003;4.8988461914e+003;4.8869228516e+003;
1.3281250000e+000;4.6492309570e+003;4.8534614258e+003;4.8338461914e+003;4.7605126953e+003;4.8197436523e+003;4.7830771484e+003;4.7958974609e+003;4.8116665039e+003;4.8112822266e+003;4.8367949219e+003;4.8382050781e+003;4.8276923828e+003;4.8408974609e+003;4.8332050781e+003;
1.3359375000e+000;4.6589741211e+003;4.8671796875e+003;4.8365385742e+003;4.7667949219e+003;4.8189741211e+003;4.7955126953e+003;4.8038461914e+003;4.8103847656e+003;4.8133334961e+003;4.8369228516e+003;4.8389741211e+003;4.8276923828e+003;4.8389741211e+003;4.8366665039e+003;
1.3437500000e+000;4.6866665039e+003;4.8930771484e+003;4.8616665039e+003;4.7925639648e+003;4.8483334961e+003;4.8224360352e+003;4.8264101563e+003;4.8353847656e+003;4.8385898438e+003;4.8638461914e+003;4.8658974609e+003;4.8529487305e+003;4.8665385742e+003;4.8647436523e+003;
1.3515625000e+000;4.6823076172e+003;4.8838461914e+003;4.8560258789e+003;4.7889741211e+003;4.8517949219e+003;4.8197436523e+003;4.8184614258e+003;4.8302563477e+003;4.8326923828e+003;4.8584614258e+003;4.8612822266e+003;4.8480771484e+003;4.8643588867e+003;4.8616665039e+003;
1.3593750000e+000;4.6550000000e+003;4.8519228516e+003;4.8284614258e+003;4.7643588867e+003;4.8364101563e+003;4.7966665039e+003;4.7920512695e+003;4.8020512695e+003;4.8041025391e+003;4.8288461914e+003;4.8326923828e+003;4.8201284180e+003;4.8394873047e+003;4.8346152344e+003;
1.3671875000e+000;4.6207690430e+003;4.8248715820e+003;4.7989741211e+003;4.7353847656e+003;4.8052563477e+003;4.7747436523e+003;4.7733334961e+003;4.7739741211e+003;4.7873076172e+003;4.8016665039e+003;4.7974360352e+003;4.7830771484e+003;4.8026923828e+003;4.8008974609e+003;
1.3750000000e+000;4.6832050781e+003;4.8806411133e+003;4.8497436523e+003;4.7948715820e+003;4.8662822266e+003;4.8301284180e+003;4.8315385742e+003;4.8297436523e+003;4.8408974609e+003;4.8517949219e+003;4.8552563477e+003;4.8355126953e+003;4.8628203125e+003;4.8580771484e+003;
1.3828125000e+000;4.7074360352e+003;4.9062822266e+003;4.8774360352e+003;4.8169228516e+003;4.8898715820e+003;4.8537177734e+003;4.8579487305e+003;4.8587177734e+003;4.8665385742e+003;4.8796152344e+003;4.8820512695e+003;4.8643588867e+003;4.8901284180e+003;4.8882050781e+003;
1.3906250000e+000;4.7370512695e+003;4.9355126953e+003;4.9141025391e+003;4.8437177734e+003;4.9085898438e+003;4.8808974609e+003;4.8924360352e+003;4.8874360352e+003;4.8847436523e+003;4.9029487305e+003;4.9106411133e+003;4.8992309570e+003;4.9214101563e+003;4.9230771484e+003;
1.3984375000e+000;4.8715385742e+003;5.0796152344e+003;5.0566665039e+003;4.9870512695e+003;5.0412822266e+003;4.9993588867e+003;5.0160258789e+003;5.0239741211e+003;5.0134614258e+003;5.0520512695e+003;5.0576923828e+003;5.0514101563e+003;5.0608974609e+003;5.0656411133e+003;
1.4062500000e+000;4.8353847656e+003;5.0426923828e+003;5.0229487305e+003;4.9521796875e+003;5.0026923828e+003;4.9612822266e+003;4.9808974609e+003;4.9898715820e+003;4.9787177734e+003;5.0153847656e+003;5.0237177734e+003;5.0162822266e+003;5.0223076172e+003;5.0312822266e+003;
1.4140625000e+000;4.7998715820e+003;4.9997436523e+003;4.9893588867e+003;4.9119228516e+003;4.9596152344e+003;4.9189741211e+003;4.9443588867e+003;4.9603847656e+003;4.9515385742e+003;4.9812822266e+003;4.9926923828e+003;4.9803847656e+003;4.9883334961e+003;4.9967949219e+003;
1.4218750000e+000;4.7785898438e+003;4.9733334961e+003;4.9701284180e+003;4.8910258789e+003;4.9351284180e+003;4.8980771484e+003;4.9235898438e+003;4.9439741211e+003;4.9376923828e+003;4.9642309570e+003;4.9742309570e+003;4.9624360352e+003;4.9705126953e+003;4.9767949219e+003;
1.4296875000e+000;4.7674360352e+003;4.9624360352e+003;4.9630771484e+003;4.8832050781e+003;4.9230771484e+003;4.8948715820e+003;4.9138461914e+003;4.9311538086e+003;4.9364101563e+003;4.9533334961e+003;4.9638461914e+003;4.9547436523e+003;4.9619228516e+003;4.9676923828e+003;
1.4375000000e+000;4.7960258789e+003;4.9955126953e+003;4.9917949219e+003;4.9096152344e+003;4.9544873047e+003;4.9239741211e+003;4.9397436523e+003;4.9580771484e+003;4.9656411133e+003;4.9814101563e+003;4.9923076172e+003;4.9814101563e+003;4.9905126953e+003;4.9961538086e+003;
1.4453125000e+000;4.7996152344e+003;5.0014101563e+003;4.9957690430e+003;4.9129487305e+003;4.9623076172e+003;4.9301284180e+003;4.9426923828e+003;4.9617949219e+003;4.9693588867e+003;4.9842309570e+003;4.9952563477e+003;4.9832050781e+003;4.9941025391e+003;4.9994873047e+003;
1.4531250000e+000;4.7773076172e+003;4.9785898438e+003;4.9735898438e+003;4.8934614258e+003;4.9447436523e+003;4.9137177734e+003;4.9237177734e+003;4.9406411133e+003;4.9460258789e+003;4.9601284180e+003;4.9711538086e+003;4.9592309570e+003;4.9716665039e+003;4.9767949219e+003;
1.4609375000e+000;4.8026923828e+003;5.0142309570e+003;4.9988461914e+003;4.9353847656e+003;4.9812822266e+003;4.9683334961e+003;4.9715385742e+003;4.9802563477e+003;4.9750000000e+003;4.9947436523e+003;4.9997436523e+003;4.9856411133e+003;5.0007690430e+003;5.0066665039e+003;
1.4687500000e+000;4.7578203125e+003;4.9743588867e+003;4.9562822266e+003;4.8966665039e+003;4.9610258789e+003;4.9375639648e+003;4.9339741211e+003;4.9330771484e+003;4.9301284180e+003;4.9456411133e+003;4.9460258789e+003;4.9314101563e+003;4.9516665039e+003;4.9571796875e+003;
1.4765625000e+000;4.7439741211e+003;4.9588461914e+003;4.9414101563e+003;4.8842309570e+003;4.9530771484e+003;4.9256411133e+003;4.9212822266e+003;4.9217949219e+003;4.9205126953e+003;4.9335898438e+003;4.9352563477e+003;4.9192309570e+003;4.9403847656e+003;4.9438461914e+003;
1.4843750000e+000;4.6624360352e+003;4.8729487305e+003;4.8578203125e+003;4.8053847656e+003;4.8611538086e+003;4.8514101563e+003;4.8485898438e+003;4.8453847656e+003;4.8387177734e+003;4.8462822266e+003;4.8588461914e+003;4.8435898438e+003;4.8637177734e+003;4.8647436523e+003;
1.4921875000e+000;4.7038461914e+003;4.9142309570e+003;4.8952563477e+003;4.8407690430e+003;4.8980771484e+003;4.8844873047e+003;4.8858974609e+003;4.8792309570e+003;4.8700000000e+003;4.8805126953e+003;4.8953847656e+003;4.8789741211e+003;4.9023076172e+003;4.9014101563e+003;
1.5000000000e+000;4.8273076172e+003;5.0316665039e+003;5.0188461914e+003;4.9525639648e+003;5.0039741211e+003;4.9774360352e+003;4.9857690430e+003;4.9870512695e+003;4.9735898438e+003;4.9992309570e+003;5.0165385742e+003;5.0012822266e+003;5.0158974609e+003;5.0191025391e+003;
1.5078125000e+000;4.8039741211e+003;5.0053847656e+003;4.9975639648e+003;4.9308974609e+003;4.9732050781e+003;4.9484614258e+003;4.9582050781e+003;4.9596152344e+003;4.9456411133e+003;4.9723076172e+003;4.9950000000e+003;4.9805126953e+003;4.9917949219e+003;4.9976923828e+003;
1.5156250000e+000;4.7635898438e+003;4.9629487305e+003;4.9557690430e+003;4.8915385742e+003;4.9273076172e+003;4.8938461914e+003;4.9102563477e+003;4.9161538086e+003;4.9006411133e+003;4.9279487305e+003;4.9587177734e+003;4.9443588867e+003;4.9561538086e+003;4.9628203125e+003;
1.5234375000e+000;4.7261538086e+003;4.9234614258e+003;4.9193588867e+003;4.8552563477e+003;4.8897436523e+003;4.8514101563e+003;4.8711538086e+003;4.8828203125e+003;4.8655126953e+003;4.8923076172e+003;4.9230771484e+003;4.9120512695e+003;4.9201284180e+003;4.9285898438e+003;
1.5312500000e+000;4.5855126953e+003;4.7669228516e+003;4.7825639648e+003;4.7151284180e+003;4.7362822266e+003;4.7107690430e+003;4.7308974609e+003;4.7478203125e+003;4.7320512695e+003;4.7448715820e+003;4.7750000000e+003;4.7717949219e+003;4.7721796875e+003;4.7835898438e+003;
1.5390625000e+000;4.5925639648e+003;4.7716665039e+003;4.7862822266e+003;4.7188461914e+003;4.7410258789e+003;4.7180771484e+003;4.7346152344e+003;4.7564101563e+003;4.7450000000e+003;4.7525639648e+003;4.7796152344e+003;4.7737177734e+003;4.7785898438e+003;4.7875639648e+003;
1.5468750000e+000;4.5724360352e+003;4.7528203125e+003;4.7583334961e+003;4.6985898438e+003;4.7252563477e+003;4.7044873047e+003;4.7138461914e+003;4.7450000000e+003;4.7396152344e+003;4.7388461914e+003;4.7566665039e+003;4.7506411133e+003;4.7524360352e+003;4.7632050781e+003;
1.5546875000e+000;4.5403847656e+003;4.7220512695e+003;4.7225639648e+003;4.6697436523e+003;4.6965385742e+003;4.6780771484e+003;4.6857690430e+003;4.7134614258e+003;4.7092309570e+003;4.7046152344e+003;4.7210258789e+003;4.7158974609e+003;4.7134614258e+003;4.7267949219e+003;
1.5625000000e+000;4.5267949219e+003;4.7096152344e+003;4.7055126953e+003;4.6580771484e+003;4.6853847656e+003;4.6693588867e+003;4.6755126953e+003;4.6969228516e+003;4.6937177734e+003;4.6865385742e+003;4.7028203125e+003;4.6961538086e+003;4.6946152344e+003;4.7079487305e+003;
1.5703125000e+000;4.5323076172e+003;4.7155126953e+003;4.7088461914e+003;4.6635898438e+003;4.6923076172e+003;4.6798715820e+003;4.6830771484e+003;4.6998715820e+003;4.6980771484e+003;4.6897436523e+003;4.7048715820e+003;4.6942309570e+003;4.6993588867e+003;4.7100000000e+003;
1.5781250000e+000;4.4911538086e+003;4.6641025391e+003;4.6635898438e+003;4.6256411133e+003;4.6510258789e+003;4.6579487305e+003;4.6546152344e+003;4.6533334961e+003;4.6493588867e+003;4.6385898438e+003;4.6526923828e+003;4.6365385742e+003;4.6467949219e+003;4.6598715820e+003;
1.5859375000e+000;4.4211538086e+003;4.5692309570e+003;4.5884614258e+003;4.5428203125e+003;4.5635898438e+003;4.5837177734e+003;4.5775639648e+003;4.5685898438e+003;4.5705126953e+003;4.5576923828e+003;4.5724360352e+003;4.5625639648e+003;4.5696152344e+003;4.5823076172e+003;
1.5937500000e+000;4.3910258789e+003;4.5392309570e+003;4.5560258789e+003;4.5120512695e+003;4.5305126953e+003;4.5534614258e+003;4.5493588867e+003;4.5332050781e+003;4.5348715820e+003;4.5211538086e+003;4.5410258789e+003;4.5303847656e+003;4.5405126953e+003;4.5516665039e+003;
1.6015625000e+000;4.4517949219e+003;4.6039741211e+003;4.6097436523e+003;4.5726923828e+003;4.5862822266e+003;4.6010258789e+003;4.6015385742e+003;4.5826923828e+003;4.5774360352e+003;4.5719228516e+003;4.6001284180e+003;4.5855126953e+003;4.5966665039e+003;4.6093588867e+003;
1.6093750000e+000;4.4311538086e+003;4.5602563477e+003;4.5773076172e+003;4.5391025391e+003;4.5432050781e+003;4.5501284180e+003;4.5560258789e+003;4.5479487305e+003;4.5293588867e+003;4.5312822266e+003;4.5670512695e+003;4.5560258789e+003;4.5644873047e+003;4.5784614258e+003;
1.6171875000e+000;4.4167949219e+003;4.5435898438e+003;4.5642309570e+003;4.5234614258e+003;4.5206411133e+003;4.5320512695e+003;4.5411538086e+003;4.5356411133e+003;4.5161538086e+003;4.5173076172e+003;4.5534614258e+003;4.5439741211e+003;4.5501284180e+003;4.5652563477e+003;
1.6250000000e+000;4.3364101563e+003;4.4498715820e+003;4.4820512695e+003;4.4392309570e+003;4.4187177734e+003;4.4375639648e+003;4.4503847656e+003;4.4519228516e+003;4.4251284180e+003;4.4158974609e+003;4.4603847656e+003;4.4548715820e+003;4.4532050781e+003;4.4735898438e+003;
1.6328125000e+000;4.3596152344e+003;4.4697436523e+003;4.4994873047e+003;4.4579487305e+003;4.4455126953e+003;4.4502563477e+003;4.4665385742e+003;4.4725639648e+003;4.4469228516e+003;4.4335898438e+003;4.4782050781e+003;4.4724360352e+003;4.4717949219e+003;4.4925639648e+003;
1.6406250000e+000;4.4047436523e+003;4.5142309570e+003;4.5369228516e+003;4.5014101563e+003;4.5016665039e+003;4.4883334961e+003;4.5050000000e+003;4.5214101563e+003;4.5021796875e+003;4.4861538086e+003;4.5225639648e+003;4.5169228516e+003;4.5157690430e+003;4.5380771484e+003;
1.6484375000e+000;4.3978203125e+003;4.5074360352e+003;4.5283334961e+003;4.4965385742e+003;4.4961538086e+003;4.4870512695e+003;4.4994873047e+003;4.5151284180e+003;4.4988461914e+003;4.4817949219e+003;4.5165385742e+003;4.5096152344e+003;4.5080771484e+003;4.5303847656e+003;
1.6562500000e+000;4.4033334961e+003;4.5170512695e+003;4.5283334961e+003;4.5000000000e+003;4.5051284180e+003;4.5103847656e+003;4.5064101563e+003;4.5164101563e+003;4.5116665039e+003;4.4891025391e+003;4.5229487305e+003;4.5039741211e+003;4.5126923828e+003;4.5262822266e+003;
1.6640625000e+000;4.3701284180e+003;4.4834614258e+003;4.4942309570e+003;4.4671796875e+003;4.4734614258e+003;4.4821796875e+003;4.4728203125e+003;4.4833334961e+003;4.4820512695e+003;4.4567949219e+003;4.4871796875e+003;4.4692309570e+003;4.4778203125e+003;4.4910258789e+003;
1.6718750000e+000;4.2953847656e+003;4.3997436523e+003;4.4123076172e+003;4.3920512695e+003;4.3956411133e+003;4.4125639648e+003;4.3984614258e+003;4.3982050781e+003;4.4011538086e+003;4.3710258789e+003;4.3983334961e+003;4.3842309570e+003;4.3944873047e+003;4.4071796875e+003;
1.6796875000e+000;4.3094873047e+003;4.4092309570e+003;4.4207690430e+003;4.4034614258e+003;4.4074360352e+003;4.4258974609e+003;4.4112822266e+003;4.4057690430e+003;4.4107690430e+003;4.3808974609e+003;4.4075639648e+003;4.3907690430e+003;4.4066665039e+003;4.4167949219e+003;
1.6875000000e+000;4.3332050781e+003;4.4311538086e+003;4.4415385742e+003;4.4258974609e+003;4.4303847656e+003;4.4502563477e+003;4.4339741211e+003;4.4279487305e+003;4.4353847656e+003;4.4061538086e+003;4.4317949219e+003;4.4107690430e+003;4.4312822266e+003;4.4389741211e+003;
1.6953125000e+000;4.2523076172e+003;4.3389741211e+003;4.3575639648e+003;4.3378203125e+003;4.3329487305e+003;4.3628203125e+003;4.3494873047e+003;4.3446152344e+003;4.3461538086e+003;4.3124360352e+003;4.3424360352e+003;4.3243588867e+003;4.3350000000e+003;4.3517949219e+003;
1.7031250000e+000;4.2520512695e+003;4.3332050781e+003;4.3537177734e+003;4.3352563477e+003;4.3267949219e+003;4.3567949219e+003;4.3446152344e+003;4.3411538086e+003;4.3385898438e+003;4.3091025391e+003;4.3396152344e+003;4.3233334961e+003;4.3364101563e+003;4.3519228516e+003;
1.7109375000e+000;4.2187177734e+003;4.2897436523e+003;4.3132050781e+003;4.3051284180e+003;4.2806411133e+003;4.3089741211e+003;4.3024360352e+003;4.2919228516e+003;4.2817949219e+003;4.2597436523e+003;4.2994873047e+003;4.2883334961e+003;4.2970512695e+003;4.3158974609e+003;
1.7187500000e+000;4.2275639648e+003;4.2953847656e+003;4.3185898438e+003;4.3102563477e+003;4.2847436523e+003;4.3091025391e+003;4.3062822266e+003;4.2978203125e+003;4.2866665039e+003;4.2658974609e+003;4.3076923828e+003;4.2969228516e+003;4.3011538086e+003;4.3219228516e+003;
1.7265625000e+000;4.2017949219e+003;4.2561538086e+003;4.2860258789e+003;4.2760258789e+003;4.2488461914e+003;4.2717949219e+003;4.2747436523e+003;4.2711538086e+003;4.2578203125e+003;4.2337177734e+003;4.2783334961e+003;4.2698715820e+003;4.2676923828e+003;4.2900000000e+003;
1.7343750000e+000;4.2875639648e+003;4.3380771484e+003;4.3637177734e+003;4.3566665039e+003;4.3238461914e+003;4.3383334961e+003;4.3455126953e+003;4.3578203125e+003;4.3475639648e+003;4.3234614258e+003;4.3630771484e+003;4.3532050781e+003;4.3543588867e+003;4.3730771484e+003;
1.7421875000e+000;4.2508974609e+003;4.3007690430e+003;4.3279487305e+003;4.3200000000e+003;4.2855126953e+003;4.3020512695e+003;4.3070512695e+003;4.3226923828e+003;4.3157690430e+003;4.2883334961e+003;4.3284614258e+003;4.3189741211e+003;4.3157690430e+003;4.3367949219e+003;
1.7500000000e+000;4.2439741211e+003;4.2902563477e+003;4.3133334961e+003;4.3101284180e+003;4.2708974609e+003;4.2917949219e+003;4.2910258789e+003;4.3058974609e+003;4.3117949219e+003;4.2708974609e+003;4.3102563477e+003;4.2961538086e+003;4.2998715820e+003;4.3197436523e+003;
1.7578125000e+000;4.2683334961e+003;4.3162822266e+003;4.3364101563e+003;4.3350000000e+003;4.2941025391e+003;4.3180771484e+003;4.3137177734e+003;4.3315385742e+003;4.3387177734e+003;4.2979487305e+003;4.3311538086e+003;4.3183334961e+003;4.3244873047e+003;4.3423076172e+003;
1.7656250000e+000;4.2376923828e+003;4.2858974609e+003;4.3042309570e+003;4.3053847656e+003;4.2757690430e+003;4.3051284180e+003;4.2929487305e+003;4.3032050781e+003;4.3112822266e+003;4.2700000000e+003;4.2939741211e+003;4.2841025391e+003;4.2893588867e+003;4.3070512695e+003;
1.7734375000e+000;4.2247436523e+003;4.2729487305e+003;4.2889741211e+003;4.2914101563e+003;4.2750000000e+003;4.3014101563e+003;4.2874360352e+003;4.2897436523e+003;4.3000000000e+003;4.2578203125e+003;4.2798715820e+003;4.2671796875e+003;4.2735898438e+003;4.2914101563e+003;
1.7812500000e+000;4.1898715820e+003;4.2338461914e+003;4.2550000000e+003;4.2587177734e+003;4.2484614258e+003;4.2770512695e+003;4.2641025391e+003;4.2628203125e+003;4.2712822266e+003;4.2298715820e+003;4.2467949219e+003;4.2294873047e+003;4.2379487305e+003;4.2553847656e+003;
1.7890625000e+000;4.1746152344e+003;4.2133334961e+003;4.2401284180e+003;4.2417949219e+003;4.2258974609e+003;4.2589741211e+003;4.2485898438e+003;4.2450000000e+003;4.2516665039e+003;4.2083334961e+003;4.2274360352e+003;4.2126923828e+003;4.2194873047e+003;4.2367949219e+003;
1.7968750000e+000;4.2233334961e+003;4.2553847656e+003;4.2823076172e+003;4.2785898438e+003;4.2682050781e+003;4.2996152344e+003;4.2908974609e+003;4.2842309570e+003;4.2938461914e+003;4.2478203125e+003;4.2687177734e+003;4.2561538086e+003;4.2607690430e+003;4.2783334961e+003;
1.8046875000e+000;4.2358974609e+003;4.2678203125e+003;4.2920512695e+003;4.2874360352e+003;4.2806411133e+003;4.3119228516e+003;4.3015385742e+003;4.2965385742e+003;4.3062822266e+003;4.2617949219e+003;4.2808974609e+003;4.2693588867e+003;4.2716665039e+003;4.2917949219e+003;
1.8125000000e+000;4.2108974609e+003;4.2426923828e+003;4.2653847656e+003;4.2623076172e+003;4.2526923828e+003;4.2876923828e+003;4.2765385742e+003;4.2719228516e+003;4.2775639648e+003;4.2360258789e+003;4.2550000000e+003;4.2460258789e+003;4.2455126953e+003;4.2688461914e+003;
1.8203125000e+000;4.1735898438e+003;4.2042309570e+003;4.2255126953e+003;4.2256411133e+003;4.2087177734e+003;4.2476923828e+003;4.2382050781e+003;4.2314101563e+003;4.2298715820e+003;4.1915385742e+003;4.2142309570e+003;4.2085898438e+003;4.2061538086e+003;4.2317949219e+003;
1.8281250000e+000;4.1691025391e+003;4.1848715820e+003;4.2114101563e+003;4.2074360352e+003;4.1770512695e+003;4.2079487305e+003;4.2042309570e+003;4.1998715820e+003;4.1835898438e+003;4.1535898438e+003;4.1956411133e+003;4.2011538086e+003;4.1876923828e+003;4.2173076172e+003;
1.8359375000e+000;4.1470512695e+003;4.1576923828e+003;4.1884614258e+003;4.1833334961e+003;4.1489741211e+003;4.1800000000e+003;4.1788461914e+003;4.1721796875e+003;4.1525639648e+003;4.1238461914e+003;4.1679487305e+003;4.1764101563e+003;4.1611538086e+003;4.1916665039e+003;
1.8437500000e+000;4.1900000000e+003;4.1928203125e+003;4.2252563477e+003;4.2179487305e+003;4.1796152344e+003;4.1997436523e+003;4.2080771484e+003;4.2066665039e+003;4.1801284180e+003;4.1589741211e+003;4.2050000000e+003;4.2067949219e+003;4.2034614258e+003;4.2300000000e+003;
1.8515625000e+000;4.1424360352e+003;4.1437177734e+003;4.1761538086e+003;4.1665385742e+003;4.1328203125e+003;4.1515385742e+003;4.1517949219e+003;4.1534614258e+003;4.1423076172e+003;4.1132050781e+003;4.1570512695e+003;4.1576923828e+003;4.1491025391e+003;4.1802563477e+003;
1.8593750000e+000;4.1555126953e+003;4.1566665039e+003;4.1852563477e+003;4.1784614258e+003;4.1447436523e+003;4.1632050781e+003;4.1602563477e+003;4.1628203125e+003;4.1570512695e+003;4.1257690430e+003;4.1666665039e+003;4.1665385742e+003;4.1608974609e+003;4.1898715820e+003;
1.8671875000e+000;4.1185898438e+003;4.1170512695e+003;4.1425639648e+003;4.1512822266e+003;4.1087177734e+003;4.1380771484e+003;4.1250000000e+003;4.1297436523e+003;4.1306411133e+003;4.0944870605e+003;4.1251284180e+003;4.1193588867e+003;4.1243588867e+003;4.1441025391e+003;
1.8750000000e+000;4.1088461914e+003;4.1096152344e+003;4.1312822266e+003;4.1423076172e+003;4.1051284180e+003;4.1364101563e+003;4.1223076172e+003;4.1228203125e+003;4.1251284180e+003;4.0870512695e+003;4.1158974609e+003;4.1082050781e+003;4.1150000000e+003;4.1324360352e+003;
1.8828125000e+000;4.1364101563e+003;4.1437177734e+003;4.1528203125e+003;4.1634614258e+003;4.1469228516e+003;4.1796152344e+003;4.1650000000e+003;4.1625639648e+003;4.1676923828e+003;4.1324360352e+003;4.1494873047e+003;4.1446152344e+003;4.1465385742e+003;4.1669228516e+003;
1.8906250000e+000;4.0860256348e+003;4.0851281738e+003;4.0982050781e+003;4.1115385742e+003;4.0857692871e+003;4.1310258789e+003;4.1176923828e+003;4.1062822266e+003;4.1100000000e+003;4.0721794434e+003;4.0880769043e+003;4.0789743652e+003;4.0878205566e+003;4.1047436523e+003;
1.8984375000e+000;4.0969228516e+003;4.0951281738e+003;4.1094873047e+003;4.1185898438e+003;4.0942307129e+003;4.1400000000e+003;4.1266665039e+003;4.1178203125e+003;4.1215385742e+003;4.0828205566e+003;4.0992309570e+003;4.0883332520e+003;4.0987177734e+003;4.1139741211e+003;
1.9062500000e+000;4.0910256348e+003;4.0857692871e+003;4.1037177734e+003;4.1092309570e+003;4.0858974609e+003;4.1326923828e+003;4.1189741211e+003;4.1132050781e+003;4.1155126953e+003;4.0758974609e+003;4.0937180176e+003;4.0846154785e+003;4.0914101563e+003;4.1089741211e+003;
1.9140625000e+000;4.0717949219e+003;4.0541025391e+003;4.0797436523e+003;4.0866667480e+003;4.0623076172e+003;4.1070512695e+003;4.0957692871e+003;4.0885898438e+003;4.0841025391e+003;4.0460256348e+003;4.0689743652e+003;4.0678205566e+003;4.0633332520e+003;4.0902563477e+003;
1.9218750000e+000;4.1066665039e+003;4.0889743652e+003;4.1139741211e+003;4.1200000000e+003;4.0934614258e+003;4.1346152344e+003;4.1255126953e+003;4.1225639648e+003;4.1105126953e+003;4.0844870605e+003;4.1053847656e+003;4.1108974609e+003;4.1010258789e+003;4.1316665039e+003;
1.9296875000e+000;4.0812819824e+003;4.0637180176e+003;4.0903845215e+003;4.0935898438e+003;4.0635898438e+003;4.1093588867e+003;4.1002563477e+003;4.0947436523e+003;4.0814101563e+003;4.0555129395e+003;4.0808974609e+003;4.0864101563e+003;4.0762819824e+003;4.1070512695e+003;
1.9375000000e+000;4.0739743652e+003;4.0541025391e+003;4.0823076172e+003;4.0832050781e+003;4.0521794434e+003;4.0970512695e+003;4.0901281738e+003;4.0792307129e+003;4.0647436523e+003;4.0393588867e+003;4.0724357910e+003;4.0746154785e+003;4.0673076172e+003;4.0967949219e+003;
1.9453125000e+000;4.1017949219e+003;4.0783332520e+003;4.1073076172e+003;4.1069228516e+003;4.0779487305e+003;4.1141025391e+003;4.1110258789e+003;4.0970512695e+003;4.0803845215e+003;4.0592307129e+003;4.0985898438e+003;4.0960258789e+003;4.0928205566e+003;4.1206411133e+003;
1.9531250000e+000;4.1074360352e+003;4.0771794434e+003;4.1066665039e+003;4.1053847656e+003;4.0551281738e+003;4.0908974609e+003;4.0867949219e+003;4.0784614258e+003;4.0614101563e+003;4.0561538086e+003;4.0908974609e+003;4.0998715820e+003;4.0934614258e+003;4.1202563477e+003;
1.9609375000e+000;4.1135898438e+003;4.0850000000e+003;4.1094873047e+003;4.1062822266e+003;4.0532050781e+003;4.0923076172e+003;4.0861538086e+003;4.0789743652e+003;4.0698718262e+003;4.0597436523e+003;4.0948718262e+003;4.1034614258e+003;4.1008974609e+003;4.1230771484e+003;
1.9687500000e+000;4.1032050781e+003;4.0729487305e+003;4.0953845215e+003;4.0934614258e+003;4.0600000000e+003;4.0815385742e+003;4.0671794434e+003;4.0746154785e+003;4.0833332520e+003;4.0611538086e+003;4.0891025391e+003;4.0926923828e+003;4.0884614258e+003;4.1120512695e+003;
1.9765625000e+000;4.0706411133e+003;4.0371794434e+003;4.0611538086e+003;4.0667949219e+003;4.0425642090e+003;4.0634614258e+003;4.0494870605e+003;4.0553845215e+003;4.0639743652e+003;4.0298718262e+003;4.0535898438e+003;4.0584614258e+003;4.0543588867e+003;4.0788461914e+003;
1.9843750000e+000;4.0687180176e+003;4.0364101563e+003;4.0596154785e+003;4.0641025391e+003;4.0378205566e+003;4.0653845215e+003;4.0539743652e+003;4.0605129395e+003;4.0669230957e+003;4.0303845215e+003;4.0537180176e+003;4.0548718262e+003;4.0551281738e+003;4.0741025391e+003;
1.9921875000e+000;4.0630769043e+003;4.0283332520e+003;4.0487180176e+003;4.0544870605e+003;4.0343588867e+003;4.0700000000e+003;4.0615385742e+003;4.0612819824e+003;4.0639743652e+003;4.0256411133e+003;4.0467949219e+003;4.0403845215e+003;4.0457692871e+003;4.0621794434e+003;
2.0000000000e+000;4.0842307129e+003;4.0476923828e+003;4.0657692871e+003;4.0756411133e+003;4.0582050781e+003;4.0938461914e+003;4.0843588867e+003;4.0861538086e+003;4.0897436523e+003;4.0511538086e+003;4.0680769043e+003;4.0651281738e+003;4.0648718262e+003;4.0846154785e+003;
2.0078125000e+000;3.9864101563e+003;3.9419230957e+003;3.9697436523e+003;3.9794870605e+003;3.9571794434e+003;4.0152563477e+003;4.0047436523e+003;4.0073076172e+003;4.0073076172e+003;3.9607692871e+003;3.9717949219e+003;3.9779487305e+003;3.9639743652e+003;3.9847436523e+003;
2.0156250000e+000;3.9705129395e+003;3.9210256348e+003;3.9537180176e+003;3.9583332520e+003;3.9385898438e+003;3.9982050781e+003;3.9898718262e+003;3.9878205566e+003;3.9860256348e+003;3.9403845215e+003;3.9511538086e+003;3.9558974609e+003;3.9447436523e+003;3.9650000000e+003;
2.0234375000e+000;3.9724357910e+003;3.9124357910e+003;3.9523076172e+003;3.9557692871e+003;3.9302563477e+003;3.9858974609e+003;3.9787180176e+003;3.9756411133e+003;3.9720512695e+003;3.9341025391e+003;3.9444870605e+003;3.9497436523e+003;3.9394870605e+003;3.9637180176e+003;
2.0312500000e+000;3.9430769043e+003;3.8788461914e+003;3.9206411133e+003;3.9293588867e+003;3.8925642090e+003;3.9484614258e+003;3.9411538086e+003;3.9375642090e+003;3.9333332520e+003;3.8974357910e+003;3.9117949219e+003;3.9205129395e+003;3.9073076172e+003;3.9328205566e+003;
2.0390625000e+000;3.9037180176e+003;3.8353845215e+003;3.8703845215e+003;3.8839743652e+003;3.8324357910e+003;3.8806411133e+003;3.8771794434e+003;3.8701281738e+003;3.8598718262e+003;3.8319230957e+003;3.8637180176e+003;3.8758974609e+003;3.8626923828e+003;3.8858974609e+003;
2.0468750000e+000;3.8983332520e+003;3.8288461914e+003;3.8643588867e+003;3.8741025391e+003;3.8229487305e+003;3.8691025391e+003;3.8639743652e+003;3.8594870605e+003;3.8442307129e+003;3.8217949219e+003;3.8548718262e+003;3.8676923828e+003;3.8537180176e+003;3.8796154785e+003;
2.0546875000e+000;3.8498718262e+003;3.7724357910e+003;3.8139743652e+003;3.8250000000e+003;3.7667949219e+003;3.8116667480e+003;3.8058974609e+003;3.7965385742e+003;3.7734614258e+003;3.7555129395e+003;3.7935898438e+003;3.8100000000e+003;3.7925642090e+003;3.8235898438e+003;
2.0625000000e+000;3.8553845215e+003;3.7739743652e+003;3.8144870605e+003;3.8301281738e+003;3.7683332520e+003;3.8085898438e+003;3.8070512695e+003;3.7933332520e+003;3.7711538086e+003;3.7528205566e+003;3.7935898438e+003;3.8094870605e+003;3.7930769043e+003;3.8233332520e+003;
2.0703125000e+000;3.8774357910e+003;3.7942307129e+003;3.8311538086e+003;3.8511538086e+003;3.7869230957e+003;3.8220512695e+003;3.8243588867e+003;3.8112819824e+003;3.7930769043e+003;3.7744870605e+003;3.8151281738e+003;3.8285898438e+003;3.8147436523e+003;3.8433332520e+003;
2.0781250000e+000;3.7994870605e+003;3.7123076172e+003;3.7417949219e+003;3.7679487305e+003;3.7084614258e+003;3.7505129395e+003;3.7416667480e+003;3.7387180176e+003;3.7398718262e+003;3.7061538086e+003;3.7394870605e+003;3.7383332520e+003;3.7442307129e+003;3.7583332520e+003;
2.0859375000e+000;3.8055129395e+003;3.7144870605e+003;3.7447436523e+003;3.7714101563e+003;3.7124357910e+003;3.7574357910e+003;3.7461538086e+003;3.7442307129e+003;3.7498718262e+003;3.7132050781e+003;3.7415385742e+003;3.7401281738e+003;3.7457692871e+003;3.7602563477e+003;
2.0937500000e+000;3.6687180176e+003;3.5619230957e+003;3.5966667480e+003;3.6389743652e+003;3.5639743652e+003;3.6383332520e+003;3.6208974609e+003;3.6105129395e+003;3.6225642090e+003;3.5708974609e+003;3.5893588867e+003;3.5925642090e+003;3.5921794434e+003;3.6147436523e+003;
2.1015625000e+000;3.6548718262e+003;3.5319230957e+003;3.5737180176e+003;3.6115385742e+003;3.5532050781e+003;3.6203845215e+003;3.6066667480e+003;3.5925642090e+003;3.6038461914e+003;3.5442307129e+003;3.5651281738e+003;3.5655129395e+003;3.5708974609e+003;3.5871794434e+003;
2.1093750000e+000;3.6420512695e+003;3.5134614258e+003;3.5588461914e+003;3.5947436523e+003;3.5387180176e+003;3.6066667480e+003;3.5943588867e+003;3.5752563477e+003;3.5841025391e+003;3.5252563477e+003;3.5471794434e+003;3.5492307129e+003;3.5515385742e+003;3.5710256348e+003;
2.1171875000e+000;3.6257692871e+003;3.5007692871e+003;3.5323076172e+003;3.5823076172e+003;3.4967949219e+003;3.5880769043e+003;3.5746154785e+003;3.5546154785e+003;3.5544870605e+003;3.5005129395e+003;3.5194870605e+003;3.5238461914e+003;3.5246154785e+003;3.5455129395e+003;
2.1250000000e+000;3.5911538086e+003;3.4639743652e+003;3.4960256348e+003;3.5480769043e+003;3.4539743652e+003;3.5517949219e+003;3.5365385742e+003;3.5167949219e+003;3.5165385742e+003;3.4605129395e+003;3.4802563477e+003;3.4875642090e+003;3.4883332520e+003;3.5062819824e+003;
2.1328125000e+000;3.7408974609e+003;3.5992307129e+003;3.6358974609e+003;3.6762819824e+003;3.6120512695e+003;3.6703845215e+003;3.6632050781e+003;3.6274357910e+003;3.6241025391e+003;3.5794870605e+003;3.6103845215e+003;3.6237180176e+003;3.6202563477e+003;3.6398718262e+003;
2.1406250000e+000;3.9248718262e+003;3.7983332520e+003;3.8235898438e+003;3.8592307129e+003;3.8014101563e+003;3.8358974609e+003;3.8302563477e+003;3.8105129395e+003;3.7951281738e+003;3.7788461914e+003;3.8026923828e+003;3.8203845215e+003;3.8087180176e+003;3.8311538086e+003;
2.1484375000e+000;3.9226923828e+003;3.7979487305e+003;3.8217949219e+003;3.8566667480e+003;3.7957692871e+003;3.8293588867e+003;3.8242307129e+003;3.8044870605e+003;3.7902563477e+003;3.7741025391e+003;3.8003845215e+003;3.8167949219e+003;3.8078205566e+003;3.8275642090e+003;
2.1562500000e+000;3.9515385742e+003;3.8269230957e+003;3.8503845215e+003;3.8830769043e+003;3.8230769043e+003;3.8502563477e+003;3.8476923828e+003;3.8280769043e+003;3.8170512695e+003;3.8003845215e+003;3.8291025391e+003;3.8419230957e+003;3.8378205566e+003;3.8548718262e+003;
2.1640625000e+000;4.0294870605e+003;3.9080769043e+003;3.9362819824e+003;3.9625642090e+003;3.9029487305e+003;3.9179487305e+003;3.9217949219e+003;3.9102563477e+003;3.9041025391e+003;3.8902563477e+003;3.9137180176e+003;3.9261538086e+003;3.9220512695e+003;3.9401281738e+003;
2.1718750000e+000;3.9579487305e+003;3.8523076172e+003;3.8733332520e+003;3.9011538086e+003;3.8433332520e+003;3.8650000000e+003;3.8658974609e+003;3.8603845215e+003;3.8588461914e+003;3.8421794434e+003;3.8552563477e+003;3.8751281738e+003;3.8629487305e+003;3.8783332520e+003;
2.1796875000e+000;3.9134614258e+003;3.8117949219e+003;3.8262819824e+003;3.8578205566e+003;3.8052563477e+003;3.8293588867e+003;3.8251281738e+003;3.8229487305e+003;3.8238461914e+003;3.8042307129e+003;3.8142307129e+003;3.8302563477e+003;3.8219230957e+003;3.8342307129e+003;
2.1875000000e+000;3.8569230957e+003;3.7558974609e+003;3.7673076172e+003;3.8032050781e+003;3.7517949219e+003;3.7823076172e+003;3.7729487305e+003;3.7728205566e+003;3.7758974609e+003;3.7515385742e+003;3.7585898438e+003;3.7696154785e+003;3.7670512695e+003;3.7773076172e+003;
2.1953125000e+000;3.8064101563e+003;3.7032050781e+003;3.7147436523e+003;3.7539743652e+003;3.6994870605e+003;3.7400000000e+003;3.7279487305e+003;3.7255129395e+003;3.7311538086e+003;3.7002563477e+003;3.7053845215e+003;3.7116667480e+003;3.7165385742e+003;3.7244870605e+003;
2.2031250000e+000;3.8416667480e+003;3.7355129395e+003;3.7403845215e+003;3.7848718262e+003;3.7430769043e+003;3.7900000000e+003;3.7755129395e+003;3.7687180176e+003;3.7860256348e+003;3.7391025391e+003;3.7350000000e+003;3.7311538086e+003;3.7503845215e+003;3.7433332520e+003;
2.2109375000e+000;3.8130769043e+003;3.7067949219e+003;3.7098718262e+003;3.7580769043e+003;3.7188461914e+003;3.7648718262e+003;3.7475642090e+003;3.7426923828e+003;3.7591025391e+003;3.7082050781e+003;3.7030769043e+003;3.7032050781e+003;3.7169230957e+003;3.7111538086e+003;
2.2187500000e+000;3.7765385742e+003;3.6655129395e+003;3.6689743652e+003;3.7193588867e+003;3.6751281738e+003;3.7264101563e+003;3.7065385742e+003;3.6960256348e+003;3.7152563477e+003;3.6546154785e+003;3.6517949219e+003;3.6608974609e+003;3.6669230957e+003;3.6660256348e+003;
2.2265625000e+000;3.7276923828e+003;3.6028205566e+003;3.6182050781e+003;3.6771794434e+003;3.6214101563e+003;3.6807692871e+003;3.6598718262e+003;3.6397436523e+003;3.6512819824e+003;3.5908974609e+003;3.5973076172e+003;3.6133332520e+003;3.6108974609e+003;3.6133332520e+003;
2.2343750000e+000;3.7516667480e+003;3.6251281738e+003;3.6398718262e+003;3.7003845215e+003;3.6446154785e+003;3.6980769043e+003;3.6784614258e+003;3.6579487305e+003;3.6673076172e+003;3.6089743652e+003;3.6169230957e+003;3.6351281738e+003;3.6321794434e+003;3.6334614258e+003;
2.2421875000e+000;3.7092307129e+003;3.5796154785e+003;3.5994870605e+003;3.6523076172e+003;3.5916667480e+003;3.6455129395e+003;3.6212819824e+003;3.6016667480e+003;3.6055129395e+003;3.5565385742e+003;3.5658974609e+003;3.5971794434e+003;3.5788461914e+003;3.5861538086e+003;
2.2500000000e+000;3.7132050781e+003;3.5808974609e+003;3.6010256348e+003;3.6539743652e+003;3.5932050781e+003;3.6461538086e+003;3.6238461914e+003;3.5950000000e+003;3.5965385742e+003;3.5512819824e+003;3.5664101563e+003;3.5978205566e+003;3.5802563477e+003;3.5869230957e+003;
2.2578125000e+000;4.0365385742e+003;3.9071794434e+003;3.9201281738e+003;3.9576923828e+003;3.9089743652e+003;3.9303845215e+003;3.9274357910e+003;3.9005129395e+003;3.9003845215e+003;3.8841025391e+003;3.8985898438e+003;3.9207692871e+003;3.9193588867e+003;3.9152563477e+003;
2.2656250000e+000;4.0652563477e+003;3.9378205566e+003;3.9526923828e+003;3.9832050781e+003;3.9323076172e+003;3.9506411133e+003;3.9515385742e+003;3.9329487305e+003;3.9335898438e+003;3.9235898438e+003;3.9333332520e+003;3.9575642090e+003;3.9510256348e+003;3.9497436523e+003;
2.2734375000e+000;4.0119230957e+003;3.8869230957e+003;3.9030769043e+003;3.9314101563e+003;3.8700000000e+003;3.8898718262e+003;3.8925642090e+003;3.8847436523e+003;3.8907692871e+003;3.8774357910e+003;3.8856411133e+003;3.9129487305e+003;3.8955129395e+003;3.9003845215e+003;
2.2812500000e+000;4.0094870605e+003;3.8862819824e+003;3.9010256348e+003;3.9310256348e+003;3.8673076172e+003;3.8851281738e+003;3.8870512695e+003;3.8841025391e+003;3.8947436523e+003;3.8761538086e+003;3.8857692871e+003;3.9107692871e+003;3.8950000000e+003;3.8978205566e+003;
2.2890625000e+000;4.0117949219e+003;3.8956411133e+003;3.9097436523e+003;3.9373076172e+003;3.8926923828e+003;3.9017949219e+003;3.9034614258e+003;3.8985898438e+003;3.9139743652e+003;3.8858974609e+003;3.8962819824e+003;3.9124357910e+003;3.9097436523e+003;3.9038461914e+003;
2.2968750000e+000;4.0029487305e+003;3.8906411133e+003;3.9015385742e+003;3.9276923828e+003;3.8956411133e+003;3.9037180176e+003;3.9044870605e+003;3.8969230957e+003;3.9108974609e+003;3.8830769043e+003;3.8914101563e+003;3.9052563477e+003;3.9028205566e+003;3.8987180176e+003;
2.3046875000e+000;3.9603845215e+003;3.8543588867e+003;3.8615385742e+003;3.8906411133e+003;3.8691025391e+003;3.8861538086e+003;3.8760256348e+003;3.8732050781e+003;3.8894870605e+003;3.8593588867e+003;3.8602563477e+003;3.8742307129e+003;3.8652563477e+003;3.8667949219e+003;
2.3125000000e+000;3.9247436523e+003;3.8203845215e+003;3.8284614258e+003;3.8621794434e+003;3.8373076172e+003;3.8629487305e+003;3.8461538086e+003;3.8441025391e+003;3.8633332520e+003;3.8283332520e+003;3.8269230957e+003;3.8419230957e+003;3.8305129395e+003;3.8328205566e+003;
2.3203125000e+000;3.9115385742e+003;3.8096154785e+003;3.8167949219e+003;3.8550000000e+003;3.8280769043e+003;3.8592307129e+003;3.8389743652e+003;3.8347436523e+003;3.8555129395e+003;3.8148718262e+003;3.8133332520e+003;3.8266667480e+003;3.8167949219e+003;3.8171794434e+003;
2.3281250000e+000;3.9373076172e+003;3.8398718262e+003;3.8424357910e+003;3.8828205566e+003;3.8597436523e+003;3.8910256348e+003;3.8707692871e+003;3.8650000000e+003;3.8852563477e+003;3.8411538086e+003;3.8393588867e+003;3.8480769043e+003;3.8434614258e+003;3.8394870605e+003;
2.3359375000e+000;3.9450000000e+003;3.8550000000e+003;3.8547436523e+003;3.8892307129e+003;3.8741025391e+003;3.9165385742e+003;3.8961538086e+003;3.8788461914e+003;3.9123076172e+003;3.8680769043e+003;3.8570512695e+003;3.8665385742e+003;3.8639743652e+003;3.8578205566e+003;
2.3437500000e+000;4.0210256348e+003;3.9205129395e+003;3.9241025391e+003;3.9571794434e+003;3.9385898438e+003;3.9669230957e+003;3.9510256348e+003;3.9229487305e+003;3.9580769043e+003;3.9219230957e+003;3.9229487305e+003;3.9342307129e+003;3.9221794434e+003;3.9232050781e+003;
2.3515625000e+000;4.0302563477e+003;3.9271794434e+003;3.9356411133e+003;3.9647436523e+003;3.9457692871e+003;3.9719230957e+003;3.9571794434e+003;3.9293588867e+003;3.9584614258e+003;3.9287180176e+003;3.9310256348e+003;3.9439743652e+003;3.9302563477e+003;3.9312819824e+003;
2.3593750000e+000;4.0878205566e+003;3.9838461914e+003;3.9975642090e+003;4.0191025391e+003;3.9964101563e+003;4.0191025391e+003;4.0080769043e+003;3.9770512695e+003;4.0032050781e+003;3.9858974609e+003;3.9911538086e+003;4.0042307129e+003;3.9910256348e+003;3.9934614258e+003;
2.3671875000e+000;4.0287180176e+003;3.9275642090e+003;3.9356411133e+003;3.9591025391e+003;3.9237180176e+003;3.9406411133e+003;3.9370512695e+003;3.9007692871e+003;3.9237180176e+003;3.9126923828e+003;3.9333332520e+003;3.9533332520e+003;3.9301281738e+003;3.9393588867e+003;
2.3750000000e+000;4.0571794434e+003;3.9596154785e+003;3.9667949219e+003;3.9867949219e+003;3.9571794434e+003;3.9615385742e+003;3.9611538086e+003;3.9275642090e+003;3.9503845215e+003;3.9415385742e+003;3.9610256348e+003;3.9821794434e+003;3.9620512695e+003;3.9692307129e+003;
2.3828125000e+000;4.0910256348e+003;3.9978205566e+003;4.0165385742e+003;4.0288461914e+003;3.9932050781e+003;3.9942307129e+003;3.9905129395e+003;3.9735898438e+003;4.0021794434e+003;3.9891025391e+003;4.0011538086e+003;4.0200000000e+003;4.0029487305e+003;4.0134614258e+003;
2.3906250000e+000;4.0901281738e+003;3.9976923828e+003;4.0151281738e+003;4.0296154785e+003;3.9923076172e+003;3.9965385742e+003;3.9915385742e+003;3.9758974609e+003;4.0058974609e+003;3.9893588867e+003;4.0015385742e+003;4.0179487305e+003;4.0011538086e+003;4.0108974609e+003;
2.3984375000e+000;4.1129487305e+003;4.0320512695e+003;4.0378205566e+003;4.0575642090e+003;4.0291025391e+003;4.0300000000e+003;4.0244870605e+003;4.0134614258e+003;4.0457692871e+003;4.0273076172e+003;4.0339743652e+003;4.0447436523e+003;4.0293588867e+003;4.0346154785e+003;
2.4062500000e+000;4.1007690430e+003;4.0257692871e+003;4.0291025391e+003;4.0516667480e+003;4.0248718262e+003;4.0278205566e+003;4.0215385742e+003;4.0106411133e+003;4.0441025391e+003;4.0233332520e+003;4.0266667480e+003;4.0358974609e+003;4.0208974609e+003;4.0252563477e+003;
2.4140625000e+000;4.1594873047e+003;4.0873076172e+003;4.0861538086e+003;4.1123076172e+003;4.0917949219e+003;4.1035898438e+003;4.0939743652e+003;4.0771794434e+003;4.1146152344e+003;4.0839743652e+003;4.0819230957e+003;4.0879487305e+003;4.0825642090e+003;4.0823076172e+003;
2.4218750000e+000;4.1944873047e+003;4.1253847656e+003;4.1207690430e+003;4.1437177734e+003;4.1316665039e+003;4.1416665039e+003;4.1298715820e+003;4.1187177734e+003;4.1564101563e+003;4.1285898438e+003;4.1200000000e+003;4.1269228516e+003;4.1228203125e+003;4.1206411133e+003;
2.4296875000e+000;4.1019228516e+003;4.0403845215e+003;4.0369230957e+003;4.0567949219e+003;4.0433332520e+003;4.0667949219e+003;4.0488461914e+003;4.0437180176e+003;4.0802563477e+003;4.0557692871e+003;4.0397436523e+003;4.0485898438e+003;4.0416667480e+003;4.0396154785e+003;
2.4375000000e+000;4.0332050781e+003;3.9732050781e+003;3.9719230957e+003;3.9946154785e+003;3.9701281738e+003;4.0062819824e+003;3.9865385742e+003;3.9767949219e+003;4.0137180176e+003;3.9870512695e+003;3.9741025391e+003;3.9802563477e+003;3.9751281738e+003;3.9734614258e+003;
2.4453125000e+000;4.0003845215e+003;3.9403845215e+003;3.9402563477e+003;3.9667949219e+003;3.9326923828e+003;3.9767949219e+003;3.9565385742e+003;3.9411538086e+003;3.9791025391e+003;3.9502563477e+003;3.9417949219e+003;3.9442307129e+003;3.9425642090e+003;3.9411538086e+003;
2.4531250000e+000;3.9917949219e+003;3.9305129395e+003;3.9311538086e+003;3.9610256348e+003;3.9234614258e+003;3.9676923828e+003;3.9467949219e+003;3.9284614258e+003;3.9662819824e+003;3.9374357910e+003;3.9321794434e+003;3.9329487305e+003;3.9328205566e+003;3.9321794434e+003;
2.4609375000e+000;3.9205129395e+003;3.8426923828e+003;3.8507692871e+003;3.8832050781e+003;3.8643588867e+003;3.8770512695e+003;3.8562819824e+003;3.8310256348e+003;3.8552563477e+003;3.8366667480e+003;3.8408974609e+003;3.8497436523e+003;3.8464101563e+003;3.8498718262e+003;
2.4687500000e+000;3.8842307129e+003;3.7891025391e+003;3.8037180176e+003;3.8382050781e+003;3.7928205566e+003;3.8237180176e+003;3.8053845215e+003;3.7760256348e+003;3.7935898438e+003;3.7829487305e+003;3.8058974609e+003;3.8182050781e+003;3.8046154785e+003;3.8128205566e+003;
2.4765625000e+000;3.8925642090e+003;3.7975642090e+003;3.8102563477e+003;3.8430769043e+003;3.8016667480e+003;3.8252563477e+003;3.8124357910e+003;3.7817949219e+003;3.7960256348e+003;3.7892307129e+003;3.8141025391e+003;3.8267949219e+003;3.8137180176e+003;3.8226923828e+003;
2.4843750000e+000;3.8892307129e+003;3.7989743652e+003;3.8132050781e+003;3.8416667480e+003;3.8012819824e+003;3.8171794434e+003;3.8083332520e+003;3.7880769043e+003;3.7978205566e+003;3.7930769043e+003;3.8139743652e+003;3.8276923828e+003;3.8128205566e+003;3.8251281738e+003;
2.4921875000e+000;3.8639743652e+003;3.7723076172e+003;3.7788461914e+003;3.8189743652e+003;3.7679487305e+003;3.7834614258e+003;3.7769230957e+003;3.7601281738e+003;3.7746154785e+003;3.7625642090e+003;3.7778205566e+003;3.7861538086e+003;3.7802563477e+003;3.7880769043e+003;
2.5000000000e+000;3.8728205566e+003;3.7834614258e+003;3.7878205566e+003;3.8271794434e+003;3.7778205566e+003;3.7930769043e+003;3.7887180176e+003;3.7734614258e+003;3.7905129395e+003;3.7792307129e+003;3.7880769043e+003;3.7942307129e+003;3.7924357910e+003;3.7975642090e+003;
2.5078125000e+000;3.8626923828e+003;3.7775642090e+003;3.7814101563e+003;3.8264101563e+003;3.7765385742e+003;3.8011538086e+003;3.7908974609e+003;3.7743588867e+003;3.7974357910e+003;3.7785898438e+003;3.7810256348e+003;3.7821794434e+003;3.7852563477e+003;3.7847436523e+003;
2.5156250000e+000;3.8951281738e+003;3.8100000000e+003;3.8094870605e+003;3.8564101563e+003;3.8112819824e+003;3.8337180176e+003;3.8207692871e+003;3.8062819824e+003;3.8310256348e+003;3.8120512695e+003;3.8134614258e+003;3.8123076172e+003;3.8158974609e+003;3.8153845215e+003;
2.5234375000e+000;3.8925642090e+003;3.8073076172e+003;3.8028205566e+003;3.8473076172e+003;3.8096154785e+003;3.8362819824e+003;3.8211538086e+003;3.8073076172e+003;3.8333332520e+003;3.8142307129e+003;3.8117949219e+003;3.8108974609e+003;3.8139743652e+003;3.8160256348e+003;
2.5312500000e+000;3.8732050781e+003;3.7901281738e+003;3.7853845215e+003;3.8275642090e+003;3.7930769043e+003;3.8243588867e+003;3.8085898438e+003;3.7908974609e+003;3.8173076172e+003;3.7969230957e+003;3.7938461914e+003;3.7930769043e+003;3.7976923828e+003;3.7983332520e+003;
2.5390625000e+000;3.9046154785e+003;3.8265385742e+003;3.8184614258e+003;3.8652563477e+003;3.8405129395e+003;3.8666667480e+003;3.8414101563e+003;3.8306411133e+003;3.8538461914e+003;3.8382050781e+003;3.8310256348e+003;3.8274357910e+003;3.8333332520e+003;3.8256411133e+003;
2.5468750000e+000;3.8901281738e+003;3.8084614258e+003;3.8010256348e+003;3.8498718262e+003;3.8248718262e+003;3.8494870605e+003;3.8235898438e+003;3.8135898438e+003;3.8352563477e+003;3.8196154785e+003;3.8137180176e+003;3.8114101563e+003;3.8144870605e+003;3.8088461914e+003;
2.5546875000e+000;3.9061538086e+003;3.8180769043e+003;3.8105129395e+003;3.8555129395e+003;3.8333332520e+003;3.8535898438e+003;3.8382050781e+003;3.8191025391e+003;3.8373076172e+003;3.8201281738e+003;3.8224357910e+003;3.8206411133e+003;3.8253845215e+003;3.8225642090e+003;
2.5625000000e+000;3.9500000000e+003;3.8619230957e+003;3.8544870605e+003;3.8960256348e+003;3.8750000000e+003;3.8929487305e+003;3.8819230957e+003;3.8633332520e+003;3.8778205566e+003;3.8646154785e+003;3.8670512695e+003;3.8652563477e+003;3.8724357910e+003;3.8689743652e+003;
2.5703125000e+000;3.9758974609e+003;3.8882050781e+003;3.8837180176e+003;3.9228205566e+003;3.8985898438e+003;3.9182050781e+003;3.9076923828e+003;3.8932050781e+003;3.9024357910e+003;3.8957692871e+003;3.8952563477e+003;3.8953845215e+003;3.9016667480e+003;3.8992307129e+003;
2.5781250000e+000;3.9698718262e+003;3.8811538086e+003;3.8814101563e+003;3.9185898438e+003;3.8889743652e+003;3.9126923828e+003;3.9010256348e+003;3.8888461914e+003;3.8929487305e+003;3.8920512695e+003;3.8894870605e+003;3.8932050781e+003;3.8950000000e+003;3.8958974609e+003;
2.5859375000e+000;4.0533332520e+003;3.9617949219e+003;3.9574357910e+003;3.9893588867e+003;3.9603845215e+003;3.9701281738e+003;3.9689743652e+003;3.9529487305e+003;3.9552563477e+003;3.9664101563e+003;3.9678205566e+003;3.9751281738e+003;3.9721794434e+003;3.9720512695e+003;
2.5937500000e+000;4.0455129395e+003;3.9544870605e+003;3.9517949219e+003;3.9858974609e+003;3.9470512695e+003;3.9623076172e+003;3.9621794434e+003;3.9485898438e+003;3.9485898438e+003;3.9625642090e+003;3.9635898438e+003;3.9712819824e+003;3.9691025391e+003;3.9673076172e+003;
2.6015625000e+000;4.0375642090e+003;3.9510256348e+003;3.9473076172e+003;3.9821794434e+003;3.9301281738e+003;3.9498718262e+003;3.9520512695e+003;3.9353845215e+003;3.9407692871e+003;3.9506411133e+003;3.9573076172e+003;3.9625642090e+003;3.9575642090e+003;3.9639743652e+003;
2.6093750000e+000;4.0198718262e+003;3.9421794434e+003;3.9341025391e+003;3.9678205566e+003;3.9389743652e+003;3.9346154785e+003;3.9275642090e+003;3.9208974609e+003;3.9416667480e+003;3.9391025391e+003;3.9378205566e+003;3.9423076172e+003;3.9388461914e+003;3.9420512695e+003;
2.6171875000e+000;4.0065385742e+003;3.9324357910e+003;3.9210256348e+003;3.9591025391e+003;3.9301281738e+003;3.9269230957e+003;3.9193588867e+003;3.9116667480e+003;3.9334614258e+003;3.9317949219e+003;3.9256411133e+003;3.9279487305e+003;3.9305129395e+003;3.9278205566e+003;
2.6250000000e+000;3.9887180176e+003;3.9246154785e+003;3.9035898438e+003;3.9484614258e+003;3.9183332520e+003;3.9382050781e+003;3.9214101563e+003;3.9152563477e+003;3.9389743652e+003;3.9392307129e+003;3.9279487305e+003;3.9205129395e+003;3.9323076172e+003;3.9258974609e+003;
2.6328125000e+000;3.9575642090e+003;3.8946154785e+003;3.8735898438e+003;3.9203845215e+003;3.8952563477e+003;3.9176923828e+003;3.8975642090e+003;3.8883332520e+003;3.9132050781e+003;3.9092307129e+003;3.8992307129e+003;3.8920512695e+003;3.9017949219e+003;3.8984614258e+003;
2.6406250000e+000;3.9776923828e+003;3.9102563477e+003;3.8924357910e+003;3.9406411133e+003;3.9146154785e+003;3.9276923828e+003;3.9134614258e+003;3.9033332520e+003;3.9300000000e+003;3.9270512695e+003;3.9160256348e+003;3.9098718262e+003;3.9185898438e+003;3.9141025391e+003;
2.6484375000e+000;3.9697436523e+003;3.8955129395e+003;3.8850000000e+003;3.9289743652e+003;3.8950000000e+003;3.9123076172e+003;3.8993588867e+003;3.8924357910e+003;3.9169230957e+003;3.9160256348e+003;3.9069230957e+003;3.9024357910e+003;3.9089743652e+003;3.9038461914e+003;
2.6562500000e+000;3.9502563477e+003;3.8683332520e+003;3.8669230957e+003;3.9026923828e+003;3.8652563477e+003;3.8905129395e+003;3.8752563477e+003;3.8679487305e+003;3.8848718262e+003;3.8821794434e+003;3.8826923828e+003;3.8815385742e+003;3.8819230957e+003;3.8801281738e+003;
2.6640625000e+000;3.9700000000e+003;3.8920512695e+003;3.8884614258e+003;3.9221794434e+003;3.8885898438e+003;3.9125642090e+003;3.8962819824e+003;3.8897436523e+003;3.9034614258e+003;3.9012819824e+003;3.9029487305e+003;3.9025642090e+003;3.9014101563e+003;3.9014101563e+003;
2.6718750000e+000;3.9817949219e+003;3.9087180176e+003;3.9029487305e+003;3.9365385742e+003;3.9035898438e+003;3.9262819824e+003;3.9103845215e+003;3.9060256348e+003;3.9180769043e+003;3.9184614258e+003;3.9173076172e+003;3.9191025391e+003;3.9164101563e+003;3.9176923828e+003;
2.6796875000e+000;3.9685898438e+003;3.8896154785e+003;3.8943588867e+003;3.9208974609e+003;3.8873076172e+003;3.9043588867e+003;3.9053845215e+003;3.8841025391e+003;3.8847436523e+003;3.8991025391e+003;3.9029487305e+003;3.9129487305e+003;3.9069230957e+003;3.9105129395e+003;
2.6875000000e+000;3.9691025391e+003;3.8934614258e+003;3.8976923828e+003;3.9212819824e+003;3.8894870605e+003;3.9050000000e+003;3.9079487305e+003;3.8869230957e+003;3.8830769043e+003;3.9014101563e+003;3.9058974609e+003;3.9148718262e+003;3.9089743652e+003;3.9129487305e+003;
2.6953125000e+000;3.9411538086e+003;3.8625642090e+003;3.8691025391e+003;3.8956411133e+003;3.8553845215e+003;3.8719230957e+003;3.8669230957e+003;3.8452563477e+003;3.8458974609e+003;3.8639743652e+003;3.8711538086e+003;3.8814101563e+003;3.8816667480e+003;3.8794870605e+003;
2.7031250000e+000;3.9317949219e+003;3.8560256348e+003;3.8633332520e+003;3.8848718262e+003;3.8466667480e+003;3.8612819824e+003;3.8458974609e+003;3.8364101563e+003;3.8500000000e+003;3.8660256348e+003;3.8675642090e+003;3.8785898438e+003;3.8778205566e+003;3.8738461914e+003;
2.7109375000e+000;3.9237180176e+003;3.8487180176e+003;3.8532050781e+003;3.8751281738e+003;3.8370512695e+003;3.8501281738e+003;3.8373076172e+003;3.8289743652e+003;3.8442307129e+003;3.8582050781e+003;3.8598718262e+003;3.8682050781e+003;3.8678205566e+003;3.8651281738e+003;
2.7187500000e+000;3.9698718262e+003;3.8987180176e+003;3.8941025391e+003;3.9260256348e+003;3.8875642090e+003;3.8993588867e+003;3.8857692871e+003;3.8944870605e+003;3.9143588867e+003;3.9219230957e+003;3.9139743652e+003;3.9162819824e+003;3.9214101563e+003;3.9198718262e+003;
2.7265625000e+000;3.9482050781e+003;3.8811538086e+003;3.8748718262e+003;3.9114101563e+003;3.8766667480e+003;3.8916667480e+003;3.8733332520e+003;3.8816667480e+003;3.9029487305e+003;3.9073076172e+003;3.8973076172e+003;3.9003845215e+003;3.9065385742e+003;3.9039743652e+003;
2.7343750000e+000;3.9655129395e+003;3.9079487305e+003;3.8920512695e+003;3.9323076172e+003;3.9183332520e+003;3.9260256348e+003;3.9069230957e+003;3.9025642090e+003;3.9294870605e+003;3.9333332520e+003;3.9225642090e+003;3.9184614258e+003;3.9353845215e+003;3.9221794434e+003;
2.7421875000e+000;4.0053845215e+003;3.9510256348e+003;3.9310256348e+003;3.9692307129e+003;3.9644870605e+003;3.9660256348e+003;3.9494870605e+003;3.9426923828e+003;3.9720512695e+003;3.9785898438e+003;3.9660256348e+003;3.9571794434e+003;3.9762819824e+003;3.9588461914e+003;
2.7500000000e+000;4.0210256348e+003;3.9655129395e+003;3.9484614258e+003;3.9814101563e+003;3.9689743652e+003;3.9816667480e+003;3.9655129395e+003;3.9575642090e+003;3.9857692871e+003;3.9884614258e+003;3.9798718262e+003;3.9721794434e+003;3.9728205566e+003;3.9662819824e+003;
2.7578125000e+000;4.0457692871e+003;3.9907692871e+003;3.9742307129e+003;4.0051281738e+003;3.9908974609e+003;4.0053845215e+003;3.9903845215e+003;3.9812819824e+003;4.0080769043e+003;4.0103845215e+003;4.0024357910e+003;3.9961538086e+003;3.9978205566e+003;3.9924357910e+003;
2.7656250000e+000;4.0791025391e+003;4.0256411133e+003;4.0105129395e+003;4.0371794434e+003;4.0246154785e+003;4.0375642090e+003;4.0251281738e+003;4.0173076172e+003;4.0416667480e+003;4.0466667480e+003;4.0355129395e+003;4.0305129395e+003;4.0367949219e+003;4.0283332520e+003;
2.7734375000e+000;4.0892307129e+003;4.0371794434e+003;4.0255129395e+003;4.0465385742e+003;4.0360256348e+003;4.0484614258e+003;4.0392307129e+003;4.0325642090e+003;4.0528205566e+003;4.0612819824e+003;4.0458974609e+003;4.0433332520e+003;4.0521794434e+003;4.0396154785e+003;
2.7812500000e+000;4.0905129395e+003;4.0457692871e+003;4.0394870605e+003;4.0458974609e+003;4.0424357910e+003;4.0473076172e+003;4.0470512695e+003;4.0235898438e+003;4.0294870605e+003;4.0467949219e+003;4.0414101563e+003;4.0446154785e+003;4.0441025391e+003;4.0308974609e+003;
2.7890625000e+000;4.0984614258e+003;4.0537180176e+003;4.0488461914e+003;4.0553845215e+003;4.0485898438e+003;4.0502563477e+003;4.0497436523e+003;4.0266667480e+003;4.0310256348e+003;4.0496154785e+003;4.0480769043e+003;4.0514101563e+003;4.0515385742e+003;4.0398718262e+003;
2.7968750000e+000;4.0950000000e+003;4.0506411133e+003;4.0433332520e+003;4.0515385742e+003;4.0317949219e+003;4.0371794434e+003;4.0419230957e+003;4.0115385742e+003;4.0114101563e+003;4.0338461914e+003;4.0344870605e+003;4.0441025391e+003;4.0419230957e+003;4.0366667480e+003;
2.8046875000e+000;4.1105126953e+003;4.0775642090e+003;4.0651281738e+003;4.0710256348e+003;4.0687180176e+003;4.0594870605e+003;4.0582050781e+003;4.0476923828e+003;4.0535898438e+003;4.0701281738e+003;4.0691025391e+003;4.0803845215e+003;4.0716667480e+003;4.0734614258e+003;
2.8125000000e+000;4.0943588867e+003;4.0635898438e+003;4.0474357910e+003;4.0591025391e+003;4.0589743652e+003;4.0452563477e+003;4.0421794434e+003;4.0375642090e+003;4.0475642090e+003;4.0584614258e+003;4.0573076172e+003;4.0667949219e+003;4.0628205566e+003;4.0614101563e+003;
2.8203125000e+000;4.2052563477e+003;4.1805126953e+003;4.1524360352e+003;4.1684614258e+003;4.1706411133e+003;4.1512822266e+003;4.1502563477e+003;4.1665385742e+003;4.1900000000e+003;4.2046152344e+003;4.1850000000e+003;4.1892309570e+003;4.1910258789e+003;4.1811538086e+003;
2.8281250000e+000;4.1760258789e+003;4.1414101563e+003;4.1332050781e+003;4.1341025391e+003;4.1448715820e+003;4.1443588867e+003;4.1355126953e+003;4.1512822266e+003;4.1782050781e+003;4.1915385742e+003;4.1684614258e+003;4.1673076172e+003;4.1658974609e+003;4.1546152344e+003;
2.8359375000e+000;4.1926923828e+003;4.1602563477e+003;4.1512822266e+003;4.1505126953e+003;4.1611538086e+003;4.1643588867e+003;4.1546152344e+003;4.1697436523e+003;4.1965385742e+003;4.2088461914e+003;4.1847436523e+003;4.1801284180e+003;4.1837177734e+003;4.1676923828e+003;
2.8437500000e+000;4.2038461914e+003;4.1762822266e+003;4.1653847656e+003;4.1641025391e+003;4.1678203125e+003;4.1788461914e+003;4.1679487305e+003;4.1828203125e+003;4.2096152344e+003;4.2224360352e+003;4.1948715820e+003;4.1900000000e+003;4.1952563477e+003;4.1776923828e+003;
2.8515625000e+000;4.1676923828e+003;4.1452563477e+003;4.1371796875e+003;4.1356411133e+003;4.1256411133e+003;4.1526923828e+003;4.1398715820e+003;4.1420512695e+003;4.1679487305e+003;4.1829487305e+003;4.1528203125e+003;4.1529487305e+003;4.1526923828e+003;4.1423076172e+003;
2.8593750000e+000;4.1748715820e+003;4.1561538086e+003;4.1453847656e+003;4.1452563477e+003;4.1647436523e+003;4.1647436523e+003;4.1525639648e+003;4.1452563477e+003;4.1630771484e+003;4.1778203125e+003;4.1543588867e+003;4.1515385742e+003;4.1558974609e+003;4.1442309570e+003;
2.8671875000e+000;4.1561538086e+003;4.1415385742e+003;4.1310258789e+003;4.1305126953e+003;4.1515385742e+003;4.1508974609e+003;4.1391025391e+003;4.1300000000e+003;4.1441025391e+003;4.1576923828e+003;4.1346152344e+003;4.1337177734e+003;4.1375639648e+003;4.1257690430e+003;
2.8750000000e+000;4.1365385742e+003;4.1250000000e+003;4.1162822266e+003;4.1143588867e+003;4.1312822266e+003;4.1357690430e+003;4.1255126953e+003;4.1093588867e+003;4.1205126953e+003;4.1330771484e+003;4.1124360352e+003;4.1138461914e+003;4.1164101563e+003;4.1066665039e+003;
2.8828125000e+000;4.1735898438e+003;4.1646152344e+003;4.1537177734e+003;4.1520512695e+003;4.1653847656e+003;4.1719228516e+003;4.1646152344e+003;4.1351284180e+003;4.1421796875e+003;4.1591025391e+003;4.1478203125e+003;4.1465385742e+003;4.1497436523e+003;4.1451284180e+003;
2.8906250000e+000;4.1907690430e+003;4.1829487305e+003;4.1682050781e+003;4.1698715820e+003;4.1839741211e+003;4.1880771484e+003;4.1796152344e+003;4.1508974609e+003;4.1538461914e+003;4.1753847656e+003;4.1670512695e+003;4.1650000000e+003;4.1675639648e+003;4.1635898438e+003;
2.8984375000e+000;4.1728203125e+003;4.1673076172e+003;4.1493588867e+003;4.1551284180e+003;4.1675639648e+003;4.1719228516e+003;4.1621796875e+003;4.1356411133e+003;4.1328203125e+003;4.1570512695e+003;4.1501284180e+003;4.1512822266e+003;4.1511538086e+003;4.1462822266e+003;
2.9062500000e+000;4.1626923828e+003;4.1583334961e+003;4.1473076172e+003;4.1435898438e+003;4.1458974609e+003;4.1442309570e+003;4.1434614258e+003;4.1274360352e+003;4.1329487305e+003;4.1476923828e+003;4.1438461914e+003;4.1597436523e+003;4.1519228516e+003;4.1475639648e+003;
2.9140625000e+000;4.1485898438e+003;4.1385898438e+003;4.1312822266e+003;4.1270512695e+003;4.1284614258e+003;4.1211538086e+003;4.1223076172e+003;4.1119228516e+003;4.1228203125e+003;4.1352563477e+003;4.1329487305e+003;4.1466665039e+003;4.1405126953e+003;4.1364101563e+003;
2.9218750000e+000;4.2106411133e+003;4.2012822266e+003;4.1924360352e+003;4.1830771484e+003;4.1810258789e+003;4.1638461914e+003;4.1697436523e+003;4.1787177734e+003;4.1960258789e+003;4.2128203125e+003;4.2053847656e+003;4.2110258789e+003;4.2139741211e+003;4.2112822266e+003;
2.9296875000e+000;4.2046152344e+003;4.2017949219e+003;4.1905126953e+003;4.1805126953e+003;4.1875639648e+003;4.1752563477e+003;4.1720512695e+003;4.1814101563e+003;4.2067949219e+003;4.2183334961e+003;4.2083334961e+003;4.2102563477e+003;4.2133334961e+003;4.2117949219e+003;
2.9375000000e+000;4.2456411133e+003;4.2476923828e+003;4.2282050781e+003;4.2193588867e+003;4.2366665039e+003;4.2201284180e+003;4.2162822266e+003;4.2241025391e+003;4.2528203125e+003;4.2662822266e+003;4.2517949219e+003;4.2484614258e+003;4.2592309570e+003;4.2507690430e+003;
2.9453125000e+000;4.3056411133e+003;4.3264101563e+003;4.2870512695e+003;4.2846152344e+003;4.3211538086e+003;4.3087177734e+003;4.2958974609e+003;4.3010258789e+003;4.3296152344e+003;4.3519228516e+003;4.3216665039e+003;4.3035898438e+003;4.3306411133e+003;4.3111538086e+003;
2.9531250000e+000;4.3926923828e+003;4.4333334961e+003;4.3776923828e+003;4.3889741211e+003;4.4392309570e+003;4.4211538086e+003;4.4062822266e+003;4.4042309570e+003;4.4350000000e+003;4.4553847656e+003;4.4187177734e+003;4.3910258789e+003;4.4276923828e+003;4.4044873047e+003;
2.9609375000e+000;4.4020512695e+003;4.4424360352e+003;4.3920512695e+003;4.4007690430e+003;4.4480771484e+003;4.4347436523e+003;4.4206411133e+003;4.4200000000e+003;4.4502563477e+003;4.4711538086e+003;4.4303847656e+003;4.4067949219e+003;4.4380771484e+003;4.4156411133e+003;
2.9687500000e+000;4.3885898438e+003;4.4265385742e+003;4.3902563477e+003;4.3848715820e+003;4.4182050781e+003;4.4234614258e+003;4.4160258789e+003;4.4061538086e+003;4.4219228516e+003;4.4443588867e+003;4.4111538086e+003;4.4005126953e+003;4.4161538086e+003;4.4012822266e+003;
2.9765625000e+000;4.4060258789e+003;4.4498715820e+003;4.4105126953e+003;4.4015385742e+003;4.4388461914e+003;4.4380771484e+003;4.4325639648e+003;4.4238461914e+003;4.4353847656e+003;4.4608974609e+003;4.4297436523e+003;4.4203847656e+003;4.4375639648e+003;4.4230771484e+003;
2.9843750000e+000;4.3693588867e+003;4.4189741211e+003;4.3819228516e+003;4.3702563477e+003;4.4138461914e+003;4.3967949219e+003;4.3946152344e+003;4.3838461914e+003;4.3875639648e+003;4.4225639648e+003;4.3948715820e+003;4.3921796875e+003;4.4101284180e+003;4.3955126953e+003;
2.9921875000e+000;4.3521796875e+003;4.3976923828e+003;4.3667949219e+003;4.3535898438e+003;4.3966665039e+003;4.3739741211e+003;4.3761538086e+003;4.3584614258e+003;4.3576923828e+003;4.3971796875e+003;4.3753847656e+003;4.3771796875e+003;4.3915385742e+003;4.3784614258e+003;
3.0000000000e+000;4.3653847656e+003;4.4055126953e+003;4.3812822266e+003;4.3637177734e+003;4.4044873047e+003;4.3798715820e+003;4.3878203125e+003;4.3642309570e+003;4.3598715820e+003;4.4019228516e+003;4.3875639648e+003;4.3928203125e+003;4.4010258789e+003;4.3915385742e+003;
3.0078125000e+000;4.3938461914e+003;4.4278203125e+003;4.4161538086e+003;4.3866665039e+003;4.4147436523e+003;4.4037177734e+003;4.4167949219e+003;4.3943588867e+003;4.3874360352e+003;4.4283334961e+003;4.4225639648e+003;4.4308974609e+003;4.4260258789e+003;4.4271796875e+003;
3.0156250000e+000;4.3779487305e+003;4.4119228516e+003;4.4030771484e+003;4.3719228516e+003;4.3939741211e+003;4.3905126953e+003;4.4023076172e+003;4.3815385742e+003;4.3766665039e+003;4.4152563477e+003;4.4097436523e+003;4.4171796875e+003;4.4108974609e+003;4.4148715820e+003;
3.0234375000e+000;4.3730771484e+003;4.4085898438e+003;4.3978203125e+003;4.3682050781e+003;4.3902563477e+003;4.3847436523e+003;4.3952563477e+003;4.3764101563e+003;4.3757690430e+003;4.4123076172e+003;4.4057690430e+003;4.4102563477e+003;4.4073076172e+003;4.4097436523e+003;
3.0312500000e+000;4.3939741211e+003;4.4487177734e+003;4.4303847656e+003;4.3975639648e+003;4.4305126953e+003;4.4047436523e+003;4.4075639648e+003;4.4288461914e+003;4.4423076172e+003;4.4680771484e+003;4.4455126953e+003;4.4416665039e+003;4.4494873047e+003;4.4347436523e+003;
3.0390625000e+000;4.3916665039e+003;4.4493588867e+003;4.4296152344e+003;4.4007690430e+003;4.4339741211e+003;4.4128203125e+003;4.4120512695e+003;4.4307690430e+003;4.4456411133e+003;4.4706411133e+003;4.4433334961e+003;4.4387177734e+003;4.4503847656e+003;4.4329487305e+003;
3.0468750000e+000;4.3834614258e+003;4.4496152344e+003;4.4169228516e+003;4.3989741211e+003;4.4466665039e+003;4.4255126953e+003;4.4193588867e+003;4.4303847656e+003;4.4494873047e+003;4.4744873047e+003;4.4370512695e+003;4.4279487305e+003;4.4434614258e+003;4.4223076172e+003;
3.0546875000e+000;4.3717949219e+003;4.4417949219e+003;4.4121796875e+003;4.3955126953e+003;4.4403847656e+003;4.4237177734e+003;4.4174360352e+003;4.4243588867e+003;4.4421796875e+003;4.4615385742e+003;4.4221796875e+003;4.4114101563e+003;4.4288461914e+003;4.4096152344e+003;
3.0625000000e+000;4.3639741211e+003;4.4350000000e+003;4.4076923828e+003;4.3943588867e+003;4.4326923828e+003;4.4206411133e+003;4.4120512695e+003;4.4198715820e+003;4.4380771484e+003;4.4557690430e+003;4.4139741211e+003;4.4041025391e+003;4.4215385742e+003;4.4046152344e+003;
3.0703125000e+000;4.3239741211e+003;4.3929487305e+003;4.3650000000e+003;4.3476923828e+003;4.3914101563e+003;4.3864101563e+003;4.3789741211e+003;4.3705126953e+003;4.3855126953e+003;4.4002563477e+003;4.3691025391e+003;4.3634614258e+003;4.3758974609e+003;4.3632050781e+003;
3.0781250000e+000;4.3650000000e+003;4.4334614258e+003;4.4060258789e+003;4.3830771484e+003;4.4325639648e+003;4.4247436523e+003;4.4180771484e+003;4.4075639648e+003;4.4174360352e+003;4.4398715820e+003;4.4112822266e+003;4.4064101563e+003;4.4169228516e+003;4.4041025391e+003;
3.0859375000e+000;4.3939741211e+003;4.4619228516e+003;4.4452563477e+003;4.4175639648e+003;4.4608974609e+003;4.4547436523e+003;4.4456411133e+003;4.4339741211e+003;4.4315385742e+003;4.4705126953e+003;4.4443588867e+003;4.4452563477e+003;4.4458974609e+003;4.4385898438e+003;
3.0937500000e+000;4.3823076172e+003;4.4500000000e+003;4.4379487305e+003;4.4093588867e+003;4.4474360352e+003;4.4416665039e+003;4.4329487305e+003;4.4161538086e+003;4.4111538086e+003;4.4517949219e+003;4.4305126953e+003;4.4348715820e+003;4.4314101563e+003;4.4279487305e+003;
3.1015625000e+000;4.4230771484e+003;4.4901284180e+003;4.4764101563e+003;4.4402563477e+003;4.4820512695e+003;4.4624360352e+003;4.4591025391e+003;4.4347436523e+003;4.4323076172e+003;4.4757690430e+003;4.4648715820e+003;4.4758974609e+003;4.4687177734e+003;4.4692309570e+003;
3.1093750000e+000;4.3856411133e+003;4.4471796875e+003;4.4396152344e+003;4.4116665039e+003;4.4289741211e+003;4.4219228516e+003;4.4232050781e+003;4.4016665039e+003;4.3969228516e+003;4.4414101563e+003;4.4319228516e+003;4.4444873047e+003;4.4292309570e+003;4.4353847656e+003;
3.1171875000e+000;4.4048715820e+003;4.4680771484e+003;4.4603847656e+003;4.4293588867e+003;4.4446152344e+003;4.4361538086e+003;4.4416665039e+003;4.4258974609e+003;4.4239741211e+003;4.4642309570e+003;4.4543588867e+003;4.4634614258e+003;4.4501284180e+003;4.4551284180e+003;
3.1250000000e+000;4.4161538086e+003;4.4823076172e+003;4.4747436523e+003;4.4376923828e+003;4.4569228516e+003;4.4441025391e+003;4.4525639648e+003;4.4451284180e+003;4.4471796875e+003;4.4823076172e+003;4.4692309570e+003;4.4770512695e+003;4.4646152344e+003;4.4678203125e+003;
3.1328125000e+000;4.3925639648e+003;4.4602563477e+003;4.4512822266e+003;4.4121796875e+003;4.4470512695e+003;4.4208974609e+003;4.4328203125e+003;4.4357690430e+003;4.4423076172e+003;4.4657690430e+003;4.4451284180e+003;4.4556411133e+003;4.4438461914e+003;4.4438461914e+003;
3.1406250000e+000;4.4037177734e+003;4.4711538086e+003;4.4567949219e+003;4.4241025391e+003;4.4658974609e+003;4.4319228516e+003;4.4441025391e+003;4.4507690430e+003;4.4573076172e+003;4.4769228516e+003;4.4541025391e+003;4.4638461914e+003;4.4551284180e+003;4.4532050781e+003;
3.1484375000e+000;4.4321796875e+003;4.5006411133e+003;4.4796152344e+003;4.4542309570e+003;4.4992309570e+003;4.4605126953e+003;4.4703847656e+003;4.4839741211e+003;4.4896152344e+003;4.5079487305e+003;4.4838461914e+003;4.4901284180e+003;4.4850000000e+003;4.4810258789e+003;
3.1562500000e+000;4.4100000000e+003;4.4915385742e+003;4.4625639648e+003;4.4434614258e+003;4.4887177734e+003;4.4716665039e+003;4.4646152344e+003;4.4700000000e+003;4.4810258789e+003;4.4970512695e+003;4.4715385742e+003;4.4667949219e+003;4.4733334961e+003;4.4578203125e+003;
3.1640625000e+000;4.4441025391e+003;4.5300000000e+003;4.4952563477e+003;4.4793588867e+003;4.5289741211e+003;4.5103847656e+003;4.5005126953e+003;4.5074360352e+003;4.5188461914e+003;4.5367949219e+003;4.5073076172e+003;4.5035898438e+003;4.5119228516e+003;4.4943588867e+003;
3.1718750000e+000;4.4153847656e+003;4.5055126953e+003;4.4703847656e+003;4.4532050781e+003;4.5067949219e+003;4.4942309570e+003;4.4815385742e+003;4.4798715820e+003;4.4964101563e+003;4.5102563477e+003;4.4878203125e+003;4.4796152344e+003;4.4862822266e+003;4.4674360352e+003;
3.1796875000e+000;4.4138461914e+003;4.5117949219e+003;4.4748715820e+003;4.4594873047e+003;4.5130771484e+003;4.5026923828e+003;4.4853847656e+003;4.4774360352e+003;4.4952563477e+003;4.5152563477e+003;4.4893588867e+003;4.4800000000e+003;4.4896152344e+003;4.4678203125e+003;
3.1875000000e+000;4.3800000000e+003;4.4753847656e+003;4.4403847656e+003;4.4308974609e+003;4.4803847656e+003;4.4738461914e+003;4.4525639648e+003;4.4438461914e+003;4.4557690430e+003;4.4783334961e+003;4.4515385742e+003;4.4462822266e+003;4.4555126953e+003;4.4341025391e+003;
3.1953125000e+000;4.3858974609e+003;4.4746152344e+003;4.4453847656e+003;4.4303847656e+003;4.4808974609e+003;4.4726923828e+003;4.4579487305e+003;4.4364101563e+003;4.4380771484e+003;4.4665385742e+003;4.4538461914e+003;4.4453847656e+003;4.4579487305e+003;4.4398715820e+003;
3.2031250000e+000;4.3834614258e+003;4.4712822266e+003;4.4462822266e+003;4.4253847656e+003;4.4746152344e+003;4.4641025391e+003;4.4544873047e+003;4.4291025391e+003;4.4288461914e+003;4.4576923828e+003;4.4503847656e+003;4.4442309570e+003;4.4514101563e+003;4.4374360352e+003;
3.2109375000e+000;4.3801284180e+003;4.4635898438e+003;4.4456411133e+003;4.4203847656e+003;4.4683334961e+003;4.4470512695e+003;4.4455126953e+003;4.4143588867e+003;4.4070512695e+003;4.4352563477e+003;4.4358974609e+003;4.4417949219e+003;4.4358974609e+003;4.4279487305e+003;
3.2187500000e+000;4.4130771484e+003;4.4950000000e+003;4.4783334961e+003;4.4512822266e+003;4.4979487305e+003;4.4721796875e+003;4.4728203125e+003;4.4453847656e+003;4.4348715820e+003;4.4648715820e+003;4.4674360352e+003;4.4761538086e+003;4.4680771484e+003;4.4606411133e+003;
3.2265625000e+000;4.4119228516e+003;4.4905126953e+003;4.4841025391e+003;4.4471796875e+003;4.4594873047e+003;4.4546152344e+003;4.4596152344e+003;4.4520512695e+003;4.4466665039e+003;4.4757690430e+003;4.4867949219e+003;4.4933334961e+003;4.4825639648e+003;4.4782050781e+003;
3.2343750000e+000;4.4033334961e+003;4.4796152344e+003;4.4743588867e+003;4.4361538086e+003;4.4460258789e+003;4.4366665039e+003;4.4456411133e+003;4.4414101563e+003;4.4406411133e+003;4.4651284180e+003;4.4793588867e+003;4.4851284180e+003;4.4734614258e+003;4.4697436523e+003;
3.2421875000e+000;4.4630771484e+003;4.5364101563e+003;4.5298715820e+003;4.4878203125e+003;4.5255126953e+003;4.4807690430e+003;4.4938461914e+003;4.5051284180e+003;4.5092309570e+003;4.5279487305e+003;4.5346152344e+003;4.5407690430e+003;4.5265385742e+003;4.5234614258e+003;
3.2500000000e+000;4.4657690430e+003;4.5388461914e+003;4.5329487305e+003;4.4906411133e+003;4.5401284180e+003;4.4884614258e+003;4.4982050781e+003;4.5174360352e+003;4.5207690430e+003;4.5370512695e+003;4.5364101563e+003;4.5438461914e+003;4.5279487305e+003;4.5262822266e+003;
3.2578125000e+000;4.3896152344e+003;4.4676923828e+003;4.4507690430e+003;4.4278203125e+003;4.4633334961e+003;4.4456411133e+003;4.4434614258e+003;4.4547436523e+003;4.4607690430e+003;4.4669228516e+003;4.4616665039e+003;4.4615385742e+003;4.4557690430e+003;4.4503847656e+003;
3.2656250000e+000;4.3912822266e+003;4.4733334961e+003;4.4508974609e+003;4.4326923828e+003;4.4661538086e+003;4.4542309570e+003;4.4489741211e+003;4.4596152344e+003;4.4691025391e+003;4.4735898438e+003;4.4661538086e+003;4.4625639648e+003;4.4602563477e+003;4.4532050781e+003;
3.2734375000e+000;4.3747436523e+003;4.4606411133e+003;4.4365385742e+003;4.4197436523e+003;4.4562822266e+003;4.4470512695e+003;4.4373076172e+003;4.4494873047e+003;4.4623076172e+003;4.4644873047e+003;4.4528203125e+003;4.4488461914e+003;4.4467949219e+003;4.4402563477e+003;
3.2812500000e+000;4.2689741211e+003;4.3492309570e+003;4.3223076172e+003;4.3191025391e+003;4.3584614258e+003;4.3674360352e+003;4.3407690430e+003;4.3430771484e+003;4.3616665039e+003;4.3557690430e+003;4.3351284180e+003;4.3246152344e+003;4.3366665039e+003;4.3219228516e+003;
3.2890625000e+000;4.2323076172e+003;4.3066665039e+003;4.2842309570e+003;4.2824360352e+003;4.3182050781e+003;4.3312822266e+003;4.3005126953e+003;4.3007690430e+003;4.3174360352e+003;4.3114101563e+003;4.2924360352e+003;4.2835898438e+003;4.2941025391e+003;4.2825639648e+003;
3.2968750000e+000;4.2010258789e+003;4.2719228516e+003;4.2555126953e+003;4.2506411133e+003;4.2905126953e+003;4.2974360352e+003;4.2635898438e+003;4.2520512695e+003;4.2662822266e+003;4.2615385742e+003;4.2506411133e+003;4.2501284180e+003;4.2561538086e+003;4.2537177734e+003;
3.3046875000e+000;4.1439741211e+003;4.1924360352e+003;4.1893588867e+003;4.1858974609e+003;4.2093588867e+003;4.2226923828e+003;4.1982050781e+003;4.1742309570e+003;4.1715385742e+003;4.1723076172e+003;4.1784614258e+003;4.1841025391e+003;4.1780771484e+003;4.1729487305e+003;
3.3125000000e+000;4.1533334961e+003;4.1958974609e+003;4.1953847656e+003;4.1915385742e+003;4.2116665039e+003;4.2233334961e+003;4.2017949219e+003;4.1752563477e+003;4.1664101563e+003;4.1701284180e+003;4.1823076172e+003;4.1900000000e+003;4.1815385742e+003;4.1776923828e+003;
3.3203125000e+000;4.1637177734e+003;4.2065385742e+003;4.2041025391e+003;4.1997436523e+003;4.2137177734e+003;4.2056411133e+003;4.1988461914e+003;4.1914101563e+003;4.1764101563e+003;4.1782050781e+003;4.1955126953e+003;4.2120512695e+003;4.1939741211e+003;4.2047436523e+003;
3.3281250000e+000;4.1347436523e+003;4.1714101563e+003;4.1707690430e+003;4.1682050781e+003;4.1757690430e+003;4.1664101563e+003;4.1691025391e+003;4.1652563477e+003;4.1473076172e+003;4.1441025391e+003;4.1655126953e+003;4.1844873047e+003;4.1612822266e+003;4.1746152344e+003;
3.3359375000e+000;4.1417949219e+003;4.1667949219e+003;4.1706411133e+003;4.1674360352e+003;4.1641025391e+003;4.1633334961e+003;4.1752563477e+003;4.1803847656e+003;4.1560258789e+003;4.1506411133e+003;4.1746152344e+003;4.1903847656e+003;4.1643588867e+003;4.1737177734e+003;
3.3437500000e+000;4.1433334961e+003;4.1674360352e+003;4.1751284180e+003;4.1688461914e+003;4.1629487305e+003;4.1703847656e+003;4.1784614258e+003;4.1897436523e+003;4.1660258789e+003;4.1615385742e+003;4.1808974609e+003;4.1928203125e+003;4.1694873047e+003;4.1752563477e+003;
3.3515625000e+000;4.0984614258e+003;4.1224360352e+003;4.1315385742e+003;4.1260258789e+003;4.1324360352e+003;4.1407690430e+003;4.1383334961e+003;4.1439741211e+003;4.1365385742e+003;4.1206411133e+003;4.1316665039e+003;4.1371796875e+003;4.1239741211e+003;4.1248715820e+003;
3.3593750000e+000;4.1164101563e+003;4.1373076172e+003;4.1430771484e+003;4.1392309570e+003;4.1492309570e+003;4.1544873047e+003;4.1508974609e+003;4.1543588867e+003;4.1498715820e+003;4.1329487305e+003;4.1439741211e+003;4.1494873047e+003;4.1373076172e+003;4.1385898438e+003;
3.3671875000e+000;4.0926923828e+003;4.1079487305e+003;4.1143588867e+003;4.1121796875e+003;4.1102563477e+003;4.1329487305e+003;4.1208974609e+003;4.1221796875e+003;4.1161538086e+003;4.1035898438e+003;4.1135898438e+003;4.1194873047e+003;4.1103847656e+003;4.1126923828e+003;
3.3750000000e+000;4.0646154785e+003;4.0801281738e+003;4.0871794434e+003;4.0876923828e+003;4.0807692871e+003;4.1115385742e+003;4.0960258789e+003;4.0916667480e+003;4.0856411133e+003;4.0735898438e+003;4.0834614258e+003;4.0865385742e+003;4.0839743652e+003;4.0847436523e+003;
3.3828125000e+000;4.1232050781e+003;4.1423076172e+003;4.1398715820e+003;4.1498715820e+003;4.1676923828e+003;4.1769228516e+003;4.1625639648e+003;4.1479487305e+003;4.1552563477e+003;4.1364101563e+003;4.1412822266e+003;4.1365385742e+003;4.1444873047e+003;4.1424360352e+003;
3.3906250000e+000;4.1151284180e+003;4.1307690430e+003;4.1289741211e+003;4.1389741211e+003;4.1612822266e+003;4.1703847656e+003;4.1546152344e+003;4.1415385742e+003;4.1492309570e+003;4.1288461914e+003;4.1323076172e+003;4.1319228516e+003;4.1330771484e+003;4.1337177734e+003;
3.3984375000e+000;4.0934614258e+003;4.1053847656e+003;4.1052563477e+003;4.1143588867e+003;4.1352563477e+003;4.1508974609e+003;4.1329487305e+003;4.1202563477e+003;4.1251284180e+003;4.1043588867e+003;4.1085898438e+003;4.1120512695e+003;4.1082050781e+003;4.1107690430e+003;
3.4062500000e+000;4.0928205566e+003;4.1037177734e+003;4.1030771484e+003;4.1119228516e+003;4.1292309570e+003;4.1501284180e+003;4.1315385742e+003;4.1185898438e+003;4.1201284180e+003;4.1003847656e+003;4.1065385742e+003;4.1098715820e+003;4.1066665039e+003;4.1087177734e+003;
3.4140625000e+000;4.1239741211e+003;4.1400000000e+003;4.1343588867e+003;4.1444873047e+003;4.1538461914e+003;4.1700000000e+003;4.1564101563e+003;4.1411538086e+003;4.1410258789e+003;4.1273076172e+003;4.1332050781e+003;4.1324360352e+003;4.1330771484e+003;4.1362822266e+003;
3.4218750000e+000;4.1478203125e+003;4.1616665039e+003;4.1561538086e+003;4.1550000000e+003;4.1669228516e+003;4.1761538086e+003;4.1644873047e+003;4.1489741211e+003;4.1353847656e+003;4.1433334961e+003;4.1558974609e+003;4.1664101563e+003;4.1565385742e+003;4.1633334961e+003;
3.4296875000e+000;4.1283334961e+003;4.1391025391e+003;4.1379487305e+003;4.1357690430e+003;4.1457690430e+003;4.1500000000e+003;4.1398715820e+003;4.1253847656e+003;4.1103847656e+003;4.1196152344e+003;4.1364101563e+003;4.1489741211e+003;4.1328203125e+003;4.1456411133e+003;
