Time (s);AF3;F7;F3;FC5;T7;P7;O1;O2;P8;T8;FC6;F4;F8;AF4;Sampling Rate
0.0000000000e+000;4.0865385742e+003;4.0864101563e+003;4.1124360352e+003;4.1226923828e+003;4.1076923828e+003;4.0919230957e+003;4.0870512695e+003;4.0884614258e+003;4.0930769043e+003;4.0846154785e+003;4.0961538086e+003;4.0956411133e+003;4.0911538086e+003;4.0992309570e+003;128
7.8125000000e-003;4.0355129395e+003;4.0310256348e+003;4.0626923828e+003;4.0637180176e+003;4.0456411133e+003;4.0566667480e+003;4.0542307129e+003;4.0479487305e+003;4.0523076172e+003;4.0315385742e+003;4.0382050781e+003;4.0460256348e+003;4.0446154785e+003;4.0515385742e+003;
1.5625000000e-002;3.9911538086e+003;4.0003845215e+003;4.0133332520e+003;4.0487180176e+003;4.0170512695e+003;4.0284614258e+003;4.0208974609e+003;4.0196154785e+003;4.0255129395e+003;4.0006411133e+003;4.0035898438e+003;4.0032050781e+003;4.0062819824e+003;4.0088461914e+003;
2.3437500000e-002;3.9798718262e+003;3.9919230957e+003;4.0001281738e+003;4.0388461914e+003;4.0078205566e+003;4.0211538086e+003;4.0117949219e+003;4.0092307129e+003;4.0150000000e+003;3.9889743652e+003;3.9925642090e+003;3.9898718262e+003;3.9950000000e+003;3.9985898438e+003;
3.1250000000e-002;4.0343588867e+003;4.0408974609e+003;4.0530769043e+003;4.0748718262e+003;4.0520512695e+003;4.0711538086e+003;4.0656411133e+003;4.0710256348e+003;4.0737180176e+003;4.0471794434e+003;4.0458974609e+003;4.0498718262e+003;4.0546154785e+003;4.0583332520e+003;
3.9062500000e-002;4.0135898438e+003;4.0167949219e+003;4.0342307129e+003;4.0555129395e+003;4.0287180176e+003;4.0515385742e+003;4.0480769043e+003;4.0506411133e+003;4.0516667480e+003;4.0250000000e+003;4.0248718262e+003;4.0306411133e+003;4.0321794434e+003;4.0343588867e+003;
4.6875000000e-002;4.0462819824e+003;4.0505129395e+003;4.0637180176e+003;4.0844870605e+003;4.0632050781e+003;4.0766667480e+003;4.0760256348e+003;4.0723076172e+003;4.0703845215e+003;4.0494870605e+003;4.0544870605e+003;4.0546154785e+003;4.0589743652e+003;4.0546154785e+003;
5.4687500000e-002;4.0866667480e+003;4.0938461914e+003;4.1005126953e+003;4.1173076172e+003;4.1035898438e+003;4.1093588867e+003;4.1078203125e+003;4.1080771484e+003;4.1041025391e+003;4.0880769043e+003;4.0938461914e+003;4.0912819824e+003;4.0988461914e+003;4.0935898438e+003;
6.2500000000e-002;4.0806411133e+003;4.0762819824e+003;4.0898718262e+003;4.1006411133e+003;4.0608974609e+003;4.0902563477e+003;4.0903845215e+003;4.0894870605e+003;4.0779487305e+003;4.0716667480e+003;4.0823076172e+003;4.0837180176e+003;4.0862819824e+003;4.0910256348e+003;
7.0312500000e-002;4.1357690430e+003;4.1197436523e+003;4.1424360352e+003;4.1516665039e+003;4.1211538086e+003;4.1241025391e+003;4.1306411133e+003;4.1276923828e+003;4.1201284180e+003;4.1256411133e+003;4.1353847656e+003;4.1432050781e+003;4.1376923828e+003;4.1429487305e+003;
7.8125000000e-002;4.1069228516e+003;4.0950000000e+003;4.1155126953e+003;4.1291025391e+003;4.1125639648e+003;4.0948718262e+003;4.1008974609e+003;4.0960258789e+003;4.0903845215e+003;4.0965385742e+003;4.1083334961e+003;4.1171796875e+003;4.1128203125e+003;4.1191025391e+003;
8.5937500000e-002;4.0943588867e+003;4.0858974609e+003;4.1024360352e+003;4.1207690430e+003;4.1120512695e+003;4.0805129395e+003;4.0874357910e+003;4.0776923828e+003;4.0742307129e+003;4.0797436523e+003;4.0958974609e+003;4.1033334961e+003;4.1025639648e+003;4.1101284180e+003;
9.3750000000e-002;4.1228203125e+003;4.1148715820e+003;4.1278203125e+003;4.1467949219e+003;4.1371796875e+003;4.1032050781e+003;4.1114101563e+003;4.0992309570e+003;4.0988461914e+003;4.1034614258e+003;4.1226923828e+003;4.1280771484e+003;4.1308974609e+003;4.1391025391e+003;
1.0156250000e-001;4.0714101563e+003;4.0624357910e+003;4.0800000000e+003;4.0874357910e+003;4.0614101563e+003;4.0701281738e+003;4.0624357910e+003;4.0642307129e+003;4.0675642090e+003;4.0660256348e+003;4.0764101563e+003;4.0866667480e+003;4.0806411133e+003;4.0893588867e+003;
1.0937500000e-001;4.0330769043e+003;4.0282050781e+003;4.0438461914e+003;4.0573076172e+003;4.0355129395e+003;4.0428205566e+003;4.0344870605e+003;4.0361538086e+003;4.0392307129e+003;4.0334614258e+003;4.0446154785e+003;4.0503845215e+003;4.0488461914e+003;4.0564101563e+003;
1.1718750000e-001;3.9320512695e+003;3.9296154785e+003;3.9508974609e+003;3.9765385742e+003;3.9411538086e+003;3.9687180176e+003;3.9591025391e+003;3.9638461914e+003;3.9700000000e+003;3.9496154785e+003;3.9538461914e+003;3.9575642090e+003;3.9594870605e+003;3.9687180176e+003;
1.2500000000e-001;3.8987180176e+003;3.8947436523e+003;3.9208974609e+003;3.9437180176e+003;3.9067949219e+003;3.9428205566e+003;3.9319230957e+003;3.9346154785e+003;3.9411538086e+003;3.9167949219e+003;3.9170512695e+003;3.9242307129e+003;3.9233332520e+003;3.9321794434e+003;
1.3281250000e-001;3.8814101563e+003;3.8733332520e+003;3.9065385742e+003;3.9258974609e+003;3.8874357910e+003;3.9350000000e+003;3.9246154785e+003;3.9326923828e+003;3.9391025391e+003;3.9106411133e+003;3.9058974609e+003;3.9075642090e+003;3.9060256348e+003;3.9143588867e+003;
1.4062500000e-001;3.8719230957e+003;3.8744870605e+003;3.8932050781e+003;3.9308974609e+003;3.8907692871e+003;3.9289743652e+003;3.9225642090e+003;3.9246154785e+003;3.9306411133e+003;3.8902563477e+003;3.8925642090e+003;3.8883332520e+003;3.8988461914e+003;3.9035898438e+003;
1.4843750000e-001;3.9335898438e+003;3.9391025391e+003;3.9524357910e+003;3.9861538086e+003;3.9464101563e+003;3.9802563477e+003;3.9779487305e+003;3.9811538086e+003;3.9873076172e+003;3.9492307129e+003;3.9497436523e+003;3.9444870605e+003;3.9584614258e+003;3.9607692871e+003;
1.5625000000e-001;3.9498718262e+003;3.9452563477e+003;3.9719230957e+003;3.9910256348e+003;3.9385898438e+003;3.9824357910e+003;3.9839743652e+003;3.9798718262e+003;3.9794870605e+003;3.9543588867e+003;3.9620512695e+003;3.9587180176e+003;3.9625642090e+003;3.9741025391e+003;
1.6406250000e-001;4.0789743652e+003;4.0753845215e+003;4.0988461914e+003;4.1096152344e+003;4.0988461914e+003;4.0835898438e+003;4.0835898438e+003;4.0803845215e+003;4.0702563477e+003;4.0712819824e+003;4.0793588867e+003;4.0876923828e+003;4.0887180176e+003;4.0991025391e+003;
1.7187500000e-001;4.0860256348e+003;4.0829487305e+003;4.1060258789e+003;4.1135898438e+003;4.1025639648e+003;4.0858974609e+003;4.0850000000e+003;4.0828205566e+003;4.0706411133e+003;4.0776923828e+003;4.0851281738e+003;4.0982050781e+003;4.0955129395e+003;4.1057690430e+003;
1.7968750000e-001;4.1570512695e+003;4.1507690430e+003;4.1656411133e+003;4.1726923828e+003;4.1460258789e+003;4.1403847656e+003;4.1510258789e+003;4.1434614258e+003;4.1387177734e+003;4.1432050781e+003;4.1592309570e+003;4.1601284180e+003;4.1634614258e+003;4.1739741211e+003;
1.8750000000e-001;4.1842309570e+003;4.1767949219e+003;4.1917949219e+003;4.1966665039e+003;4.1726923828e+003;4.1638461914e+003;4.1755126953e+003;4.1724360352e+003;4.1702563477e+003;4.1761538086e+003;4.1884614258e+003;4.1857690430e+003;4.1901284180e+003;4.2012822266e+003;
1.9531250000e-001;4.1661538086e+003;4.1591025391e+003;4.1797436523e+003;4.1792309570e+003;4.1566665039e+003;4.1533334961e+003;4.1584614258e+003;4.1553847656e+003;4.1541025391e+003;4.1634614258e+003;4.1701284180e+003;4.1708974609e+003;4.1703847656e+003;4.1808974609e+003;
2.0312500000e-001;4.1896152344e+003;4.1846152344e+003;4.2028203125e+003;4.2028203125e+003;4.1788461914e+003;4.1776923828e+003;4.1816665039e+003;4.1757690430e+003;4.1756411133e+003;4.1851284180e+003;4.1921796875e+003;4.1937177734e+003;4.1934614258e+003;4.2011538086e+003;
2.1093750000e-001;4.2492309570e+003;4.2470512695e+003;4.2537177734e+003;4.2596152344e+003;4.2432050781e+003;4.2329487305e+003;4.2396152344e+003;4.2508974609e+003;4.2551284180e+003;4.2547436523e+003;4.2573076172e+003;4.2514101563e+003;4.2584614258e+003;4.2656411133e+003;
2.1875000000e-001;4.2021796875e+003;4.1979487305e+003;4.2076923828e+003;4.2115385742e+003;4.1964101563e+003;4.1926923828e+003;4.1978203125e+003;4.2111538086e+003;4.2142309570e+003;4.2098715820e+003;4.2114101563e+003;4.2052563477e+003;4.2124360352e+003;4.2217949219e+003;
2.2656250000e-001;4.1711538086e+003;4.1646152344e+003;4.1773076172e+003;4.1778203125e+003;4.1633334961e+003;4.1680771484e+003;4.1716665039e+003;4.1828203125e+003;4.1838461914e+003;4.1778203125e+003;4.1800000000e+003;4.1746152344e+003;4.1808974609e+003;4.1905126953e+003;
2.3437500000e-001;4.1673076172e+003;4.1591025391e+003;4.1724360352e+003;4.1714101563e+003;4.1592309570e+003;4.1679487305e+003;4.1702563477e+003;4.1792309570e+003;4.1788461914e+003;4.1725639648e+003;4.1752563477e+003;4.1714101563e+003;4.1756411133e+003;4.1835898438e+003;
2.4218750000e-001;4.1252563477e+003;4.1217949219e+003;4.1260258789e+003;4.1415385742e+003;4.1174360352e+003;4.1408974609e+003;4.1369228516e+003;4.1393588867e+003;4.1460258789e+003;4.1332050781e+003;4.1264101563e+003;4.1210258789e+003;4.1353847656e+003;4.1382050781e+003;
2.5000000000e-001;4.1616665039e+003;4.1565385742e+003;4.1617949219e+003;4.1721796875e+003;4.1448715820e+003;4.1746152344e+003;4.1687177734e+003;4.1730771484e+003;4.1792309570e+003;4.1703847656e+003;4.1614101563e+003;4.1512822266e+003;4.1733334961e+003;4.1743588867e+003;
2.5781250000e-001;4.1519228516e+003;4.1467949219e+003;4.1567949219e+003;4.1629487305e+003;4.1647436523e+003;4.1629487305e+003;4.1579487305e+003;4.1523076172e+003;4.1539741211e+003;4.1511538086e+003;4.1512822266e+003;4.1426923828e+003;4.1620512695e+003;4.1602563477e+003;
2.6562500000e-001;4.2361538086e+003;4.2373076172e+003;4.2432050781e+003;4.2525639648e+003;4.2517949219e+003;4.2333334961e+003;4.2364101563e+003;4.2241025391e+003;4.2210258789e+003;4.2312822266e+003;4.2316665039e+003;4.2280771484e+003;4.2429487305e+003;4.2428203125e+003;
2.7343750000e-001;4.2323076172e+003;4.2314101563e+003;4.2432050781e+003;4.2452563477e+003;4.2308974609e+003;4.2244873047e+003;4.2266665039e+003;4.2217949219e+003;4.2153847656e+003;4.2282050781e+003;4.2284614258e+003;4.2273076172e+003;4.2385898438e+003;4.2425639648e+003;
2.8125000000e-001;4.2156411133e+003;4.2069228516e+003;4.2284614258e+003;4.2152563477e+003;4.2012822266e+003;4.1883334961e+003;4.1983334961e+003;4.1885898438e+003;4.1829487305e+003;4.1920512695e+003;4.2094873047e+003;4.2105126953e+003;4.2158974609e+003;4.2278203125e+003;
2.8906250000e-001;4.2153847656e+003;4.2051284180e+003;4.2317949219e+003;4.2175639648e+003;4.1970512695e+003;4.1912822266e+003;4.1944873047e+003;4.1944873047e+003;4.1870512695e+003;4.2051284180e+003;4.2161538086e+003;4.2246152344e+003;4.2216665039e+003;4.2348715820e+003;
2.9687500000e-001;4.1957690430e+003;4.1855126953e+003;4.2114101563e+003;4.1984614258e+003;4.1779487305e+003;4.1742309570e+003;4.1761538086e+003;4.1779487305e+003;4.1693588867e+003;4.1842309570e+003;4.1958974609e+003;4.2047436523e+003;4.2021796875e+003;4.2152563477e+003;
3.0468750000e-001;4.1994873047e+003;4.1888461914e+003;4.2126923828e+003;4.1997436523e+003;4.1794873047e+003;4.1764101563e+003;4.1797436523e+003;4.1837177734e+003;4.1757690430e+003;4.1858974609e+003;4.1993588867e+003;4.2061538086e+003;4.2058974609e+003;4.2180771484e+003;
3.1250000000e-001;4.1771796875e+003;4.1633334961e+003;4.1894873047e+003;4.1771796875e+003;4.1379487305e+003;4.1556411133e+003;4.1600000000e+003;4.1702563477e+003;4.1655126953e+003;4.1684614258e+003;4.1819228516e+003;4.1856411133e+003;4.1851284180e+003;4.1976923828e+003;
3.2031250000e-001;4.1401284180e+003;4.1301284180e+003;4.1502563477e+003;4.1525639648e+003;4.1282050781e+003;4.1342309570e+003;4.1353847656e+003;4.1400000000e+003;4.1393588867e+003;4.1337177734e+003;4.1482050781e+003;4.1485898438e+003;4.1484614258e+003;4.1608974609e+003;
3.2812500000e-001;4.1641025391e+003;4.1556411133e+003;4.1757690430e+003;4.1766665039e+003;4.1705126953e+003;4.1594873047e+003;4.1608974609e+003;4.1666665039e+003;4.1673076172e+003;4.1612822266e+003;4.1751284180e+003;4.1738461914e+003;4.1738461914e+003;4.1864101563e+003;
3.3593750000e-001;4.1538461914e+003;4.1443588867e+003;4.1706411133e+003;4.1675639648e+003;4.1670512695e+003;4.1541025391e+003;4.1541025391e+003;4.1603847656e+003;4.1615385742e+003;4.1557690430e+003;4.1680771484e+003;4.1673076172e+003;4.1651284180e+003;4.1789741211e+003;
3.4375000000e-001;4.0883332520e+003;4.0794870605e+003;4.1116665039e+003;4.1084614258e+003;4.0883332520e+003;4.1026923828e+003;4.0988461914e+003;4.0980771484e+003;4.0992309570e+003;4.0929487305e+003;4.1028203125e+003;4.1057690430e+003;4.1015385742e+003;4.1144873047e+003;
3.5156250000e-001;4.0991025391e+003;4.0960258789e+003;4.1176923828e+003;4.1217949219e+003;4.0961538086e+003;4.1147436523e+003;4.1110258789e+003;4.1089741211e+003;4.1112822266e+003;4.1046152344e+003;4.1124360352e+003;4.1150000000e+003;4.1150000000e+003;4.1232050781e+003;
3.5937500000e-001;4.1238461914e+003;4.1269228516e+003;4.1350000000e+003;4.1493588867e+003;4.1262822266e+003;4.1388461914e+003;4.1353847656e+003;4.1369228516e+003;4.1403847656e+003;4.1334614258e+003;4.1387177734e+003;4.1385898438e+003;4.1441025391e+003;4.1471796875e+003;
3.6718750000e-001;4.1373076172e+003;4.1361538086e+003;4.1483334961e+003;4.1551284180e+003;4.1328203125e+003;4.1479487305e+003;4.1467949219e+003;4.1456411133e+003;4.1426923828e+003;4.1446152344e+003;4.1479487305e+003;4.1397436523e+003;4.1515385742e+003;4.1570512695e+003;
3.7500000000e-001;4.1425639648e+003;4.1417949219e+003;4.1520512695e+003;4.1570512695e+003;4.1328203125e+003;4.1480771484e+003;4.1457690430e+003;4.1471796875e+003;4.1410258789e+003;4.1467949219e+003;4.1489741211e+003;4.1442309570e+003;4.1530771484e+003;4.1621796875e+003;
3.8281250000e-001;4.1325639648e+003;4.1329487305e+003;4.1338461914e+003;4.1574360352e+003;4.1371796875e+003;4.1352563477e+003;4.1401284180e+003;4.1330771484e+003;4.1205126953e+003;4.1300000000e+003;4.1439741211e+003;4.1353847656e+003;4.1441025391e+003;4.1521796875e+003;
3.9062500000e-001;4.1037177734e+003;4.1003847656e+003;4.1107690430e+003;4.1307690430e+003;4.0737180176e+003;4.1006411133e+003;4.1093588867e+003;4.1132050781e+003;4.1006411133e+003;4.1108974609e+003;4.1203847656e+003;4.1189741211e+003;4.1210258789e+003;4.1302563477e+003;
3.9843750000e-001;4.0605129395e+003;4.0550000000e+003;4.0682050781e+003;4.0882050781e+003;4.0279487305e+003;4.0588461914e+003;4.0646154785e+003;4.0682050781e+003;4.0578205566e+003;4.0628205566e+003;4.0751281738e+003;4.0780769043e+003;4.0782050781e+003;4.0885898438e+003;
4.0625000000e-001;4.0950000000e+003;4.0908974609e+003;4.1033334961e+003;4.1176923828e+003;4.1066665039e+003;4.0923076172e+003;4.0917949219e+003;4.1053847656e+003;4.1023076172e+003;4.1025639648e+003;4.1148715820e+003;4.1135898438e+003;4.1192309570e+003;4.1215385742e+003;
4.1406250000e-001;4.0808974609e+003;4.0797436523e+003;4.0920512695e+003;4.1047436523e+003;4.0994873047e+003;4.0829487305e+003;4.0816667480e+003;4.0960258789e+003;4.0924357910e+003;4.0921794434e+003;4.1002563477e+003;4.0997436523e+003;4.1046152344e+003;4.1061538086e+003;
4.2187500000e-001;4.0935898438e+003;4.0943588867e+003;4.1026923828e+003;4.1132050781e+003;4.1000000000e+003;4.1007690430e+003;4.1016665039e+003;4.1061538086e+003;4.1025639648e+003;4.0993588867e+003;4.1041025391e+003;4.1051284180e+003;4.1085898438e+003;4.1143588867e+003;
4.2968750000e-001;4.1357690430e+003;4.1362822266e+003;4.1411538086e+003;4.1520512695e+003;4.1366665039e+003;4.1435898438e+003;4.1442309570e+003;4.1475639648e+003;4.1458974609e+003;4.1416665039e+003;4.1453847656e+003;4.1450000000e+003;4.1488461914e+003;4.1567949219e+003;
4.3750000000e-001;4.1139741211e+003;4.1160258789e+003;4.1201284180e+003;4.1433334961e+003;4.1264101563e+003;4.1428203125e+003;4.1375639648e+003;4.1380771484e+003;4.1369228516e+003;4.1255126953e+003;4.1250000000e+003;4.1206411133e+003;4.1307690430e+003;4.1339741211e+003;
4.4531250000e-001;4.1129487305e+003;4.1165385742e+003;4.1192309570e+003;4.1458974609e+003;4.1283334961e+003;4.1450000000e+003;4.1420512695e+003;4.1385898438e+003;4.1352563477e+003;4.1229487305e+003;4.1219228516e+003;4.1156411133e+003;4.1292309570e+003;4.1301284180e+003;
4.5312500000e-001;4.1262822266e+003;4.1330771484e+003;4.1338461914e+003;4.1582050781e+003;4.1398715820e+003;4.1579487305e+003;4.1569228516e+003;4.1552563477e+003;4.1496152344e+003;4.1397436523e+003;4.1389741211e+003;4.1316665039e+003;4.1416665039e+003;4.1444873047e+003;
4.6093750000e-001;4.0934614258e+003;4.1008974609e+003;4.1035898438e+003;4.1246152344e+003;4.1073076172e+003;4.1278203125e+003;4.1250000000e+003;4.1220512695e+003;4.1166665039e+003;4.1070512695e+003;4.1091025391e+003;4.1035898438e+003;4.1088461914e+003;4.1133334961e+003;
4.6875000000e-001;4.0946154785e+003;4.0997436523e+003;4.1038461914e+003;4.1217949219e+003;4.1064101563e+003;4.1212822266e+003;4.1198715820e+003;4.1065385742e+003;4.0997436523e+003;4.0955129395e+003;4.1000000000e+003;4.0994873047e+003;4.1076923828e+003;4.1105126953e+003;
4.7656250000e-001;4.1071796875e+003;4.1121796875e+003;4.1146152344e+003;4.1343588867e+003;4.1098715820e+003;4.1282050781e+003;4.1279487305e+003;4.1189741211e+003;4.1093588867e+003;4.1079487305e+003;4.1102563477e+003;4.1120512695e+003;4.1185898438e+003;4.1238461914e+003;
4.8437500000e-001;4.0839743652e+003;4.0897436523e+003;4.0907692871e+003;4.1129487305e+003;4.0778205566e+003;4.1037177734e+003;4.1042309570e+003;4.0979487305e+003;4.0862819824e+003;4.0848718262e+003;4.0885898438e+003;4.0916667480e+003;4.0938461914e+003;4.1019228516e+003;
4.9218750000e-001;4.0565385742e+003;4.0626923828e+003;4.0628205566e+003;4.0866667480e+003;4.0471794434e+003;4.0758974609e+003;4.0787180176e+003;4.0708974609e+003;4.0589743652e+003;4.0560256348e+003;4.0644870605e+003;4.0652563477e+003;4.0657692871e+003;4.0737180176e+003;
5.0000000000e-001;4.1423076172e+003;4.1376923828e+003;4.1534614258e+003;4.1632050781e+003;4.1624360352e+003;4.1426923828e+003;4.1537177734e+003;4.1655126953e+003;4.1607690430e+003;4.1541025391e+003;4.1624360352e+003;4.1524360352e+003;4.1594873047e+003;4.1591025391e+003;
5.0781250000e-001;4.2051284180e+003;4.1974360352e+003;4.2089741211e+003;4.2164101563e+003;4.1957690430e+003;4.1898715820e+003;4.1987177734e+003;4.2243588867e+003;4.2224360352e+003;4.2189741211e+003;4.2234614258e+003;4.2207690430e+003;4.2233334961e+003;4.2269228516e+003;
5.1562500000e-001;4.2015385742e+003;4.1934614258e+003;4.2032050781e+003;4.2116665039e+003;4.1903847656e+003;4.1853847656e+003;4.1921796875e+003;4.2171796875e+003;4.2141025391e+003;4.2142309570e+003;4.2187177734e+003;4.2155126953e+003;4.2189741211e+003;4.2234614258e+003;
5.2343750000e-001;4.1607690430e+003;4.1542309570e+003;4.1623076172e+003;4.1723076172e+003;4.1537177734e+003;4.1505126953e+003;4.1537177734e+003;4.1639741211e+003;4.1612822266e+003;4.1614101563e+003;4.1682050781e+003;4.1637177734e+003;4.1716665039e+003;4.1791025391e+003;
5.3125000000e-001;4.1430771484e+003;4.1357690430e+003;4.1457690430e+003;4.1548715820e+003;4.1338461914e+003;4.1542309570e+003;4.1517949219e+003;4.1411538086e+003;4.1410258789e+003;4.1373076172e+003;4.1473076172e+003;4.1446152344e+003;4.1503847656e+003;4.1561538086e+003;
5.3906250000e-001;4.1429487305e+003;4.1342309570e+003;4.1476923828e+003;4.1543588867e+003;4.1358974609e+003;4.1570512695e+003;4.1558974609e+003;4.1412822266e+003;4.1401284180e+003;4.1332050781e+003;4.1456411133e+003;4.1451284180e+003;4.1465385742e+003;4.1542309570e+003;
5.4687500000e-001;4.1762822266e+003;4.1657690430e+003;4.1802563477e+003;4.1864101563e+003;4.1800000000e+003;4.1856411133e+003;4.1887177734e+003;4.1789741211e+003;4.1780771484e+003;4.1689741211e+003;4.1778203125e+003;4.1779487305e+003;4.1739741211e+003;4.1819228516e+003;
5.5468750000e-001;4.1448715820e+003;4.1362822266e+003;4.1478203125e+003;4.1605126953e+003;4.1567949219e+003;4.1600000000e+003;4.1619228516e+003;4.1541025391e+003;4.1534614258e+003;4.1434614258e+003;4.1488461914e+003;4.1487177734e+003;4.1443588867e+003;4.1505126953e+003;
5.6250000000e-001;4.1028203125e+003;4.1067949219e+003;4.1060258789e+003;4.1332050781e+003;4.1056411133e+003;4.1443588867e+003;4.1396152344e+003;4.1201284180e+003;4.1189741211e+003;4.1037177734e+003;4.1088461914e+003;4.1057690430e+003;4.1123076172e+003;4.1100000000e+003;
5.7031250000e-001;4.1405126953e+003;4.1438461914e+003;4.1458974609e+003;4.1683334961e+003;4.1347436523e+003;4.1774360352e+003;4.1732050781e+003;4.1567949219e+003;4.1546152344e+003;4.1420512695e+003;4.1443588867e+003;4.1429487305e+003;4.1484614258e+003;4.1456411133e+003;
5.7812500000e-001;4.1210258789e+003;4.1185898438e+003;4.1297436523e+003;4.1462822266e+003;4.1273076172e+003;4.1426923828e+003;4.1424360352e+003;4.1335898438e+003;4.1257690430e+003;4.1203847656e+003;4.1173076172e+003;4.1207690430e+003;4.1191025391e+003;4.1201284180e+003;
5.8593750000e-001;4.0998715820e+003;4.0973076172e+003;4.1071796875e+003;4.1230771484e+003;4.1207690430e+003;4.1150000000e+003;4.1169228516e+003;4.1097436523e+003;4.0987177734e+003;4.0955129395e+003;4.0938461914e+003;4.0955129395e+003;4.0948718262e+003;4.0964101563e+003;
5.9375000000e-001;4.0950000000e+003;4.0938461914e+003;4.1019228516e+003;4.1114101563e+003;4.1035898438e+003;4.1008974609e+003;4.0984614258e+003;4.1094873047e+003;4.0973076172e+003;4.0988461914e+003;4.0983334961e+003;4.0942307129e+003;4.0976923828e+003;4.1005126953e+003;
6.0156250000e-001;4.0682050781e+003;4.0648718262e+003;4.0767949219e+003;4.0856411133e+003;4.0620512695e+003;4.0719230957e+003;4.0682050781e+003;4.0816667480e+003;4.0705129395e+003;4.0716667480e+003;4.0721794434e+003;4.0710256348e+003;4.0716667480e+003;4.0767949219e+003;
6.0937500000e-001;4.0658974609e+003;4.0612819824e+003;4.0732050781e+003;4.0816667480e+003;4.0521794434e+003;4.0619230957e+003;4.0607692871e+003;4.0734614258e+003;4.0637180176e+003;4.0641025391e+003;4.0675642090e+003;4.0685898438e+003;4.0675642090e+003;4.0744870605e+003;
6.1718750000e-001;4.1006411133e+003;4.0956411133e+003;4.1041025391e+003;4.1106411133e+003;4.0869230957e+003;4.0847436523e+003;4.0875642090e+003;4.1011538086e+003;4.0930769043e+003;4.0933332520e+003;4.0996152344e+003;4.1012822266e+003;4.0997436523e+003;4.1078203125e+003;
6.2500000000e-001;4.0116667480e+003;4.0062819824e+003;4.0169230957e+003;4.0335898438e+003;3.9956411133e+003;4.0052563477e+003;4.0028205566e+003;4.0164101563e+003;4.0129487305e+003;4.0075642090e+003;4.0166667480e+003;4.0170512695e+003;4.0138461914e+003;4.0214101563e+003;
6.3281250000e-001;3.9814101563e+003;3.9783332520e+003;3.9858974609e+003;4.0080769043e+003;3.9671794434e+003;3.9824357910e+003;3.9802563477e+003;3.9870512695e+003;3.9833332520e+003;3.9764101563e+003;3.9871794434e+003;3.9862819824e+003;3.9858974609e+003;3.9911538086e+003;
6.4062500000e-001;3.9069230957e+003;3.9082050781e+003;3.9137180176e+003;3.9326923828e+003;3.9075642090e+003;3.9305129395e+003;3.9238461914e+003;3.9235898438e+003;3.9167949219e+003;3.9010256348e+003;3.9110256348e+003;3.9169230957e+003;3.9088461914e+003;3.9188461914e+003;
6.4843750000e-001;3.8807692871e+003;3.8842307129e+003;3.8900000000e+003;3.9196154785e+003;3.8861538086e+003;3.9193588867e+003;3.9146154785e+003;3.9011538086e+003;3.8969230957e+003;3.8805129395e+003;3.8919230957e+003;3.8917949219e+003;3.8883332520e+003;3.8944870605e+003;
6.5625000000e-001;3.8607692871e+003;3.8633332520e+003;3.8724357910e+003;3.9025642090e+003;3.8680769043e+003;3.9035898438e+003;3.8953845215e+003;3.8851281738e+003;3.8797436523e+003;3.8656411133e+003;3.8742307129e+003;3.8738461914e+003;3.8698718262e+003;3.8767949219e+003;
6.6406250000e-001;3.7950000000e+003;3.7916667480e+003;3.8089743652e+003;3.8358974609e+003;3.8110256348e+003;3.8532050781e+003;3.8343588867e+003;3.8158974609e+003;3.8102563477e+003;3.7929487305e+003;3.7971794434e+003;3.8043588867e+003;3.7934614258e+003;3.8051281738e+003;
6.7187500000e-001;3.8171794434e+003;3.8116667480e+003;3.8267949219e+003;3.8598718262e+003;3.8129487305e+003;3.8629487305e+003;3.8532050781e+003;3.8341025391e+003;3.8244870605e+003;3.8075642090e+003;3.8179487305e+003;3.8279487305e+003;3.8137180176e+003;3.8264101563e+003;
6.7968750000e-001;3.8010256348e+003;3.7964101563e+003;3.8087180176e+003;3.8456411133e+003;3.8020512695e+003;3.8452563477e+003;3.8357692871e+003;3.8155129395e+003;3.8024357910e+003;3.7866667480e+003;3.8017949219e+003;3.8112819824e+003;3.7967949219e+003;3.8101281738e+003;
6.8750000000e-001;3.8938461914e+003;3.8941025391e+003;3.8943588867e+003;3.9297436523e+003;3.9256411133e+003;3.9229487305e+003;3.9112819824e+003;3.9021794434e+003;3.8921794434e+003;3.8882050781e+003;3.8947436523e+003;3.9003845215e+003;3.8942307129e+003;3.9039743652e+003;
6.9531250000e-001;3.8958974609e+003;3.8943588867e+003;3.8992307129e+003;3.9297436523e+003;3.9203845215e+003;3.9197436523e+003;3.9085898438e+003;3.9057692871e+003;3.8962819824e+003;3.8917949219e+003;3.8965385742e+003;3.9029487305e+003;3.8984614258e+003;3.9065385742e+003;
7.0312500000e-001;3.9491025391e+003;3.9398718262e+003;3.9523076172e+003;3.9733332520e+003;3.9467949219e+003;3.9523076172e+003;3.9492307129e+003;3.9550000000e+003;3.9423076172e+003;3.9348718262e+003;3.9443588867e+003;3.9505129395e+003;3.9488461914e+003;3.9512819824e+003;
7.1093750000e-001;4.0098718262e+003;3.9974357910e+003;4.0084614258e+003;4.0262819824e+003;4.0021794434e+003;4.0016667480e+003;4.0020512695e+003;4.0133332520e+003;4.0005129395e+003;3.9956411133e+003;4.0042307129e+003;4.0088461914e+003;4.0074357910e+003;4.0074357910e+003;
7.1875000000e-001;4.0110256348e+003;4.0039743652e+003;4.0071794434e+003;4.0270512695e+003;4.0160256348e+003;4.0175642090e+003;4.0108974609e+003;4.0191025391e+003;4.0130769043e+003;4.0151281738e+003;4.0121794434e+003;4.0153845215e+003;4.0132050781e+003;4.0103845215e+003;
7.2656250000e-001;4.0266667480e+003;4.0244870605e+003;4.0244870605e+003;4.0432050781e+003;4.0297436523e+003;4.0394870605e+003;4.0305129395e+003;4.0357692871e+003;4.0310256348e+003;4.0316667480e+003;4.0298718262e+003;4.0308974609e+003;4.0321794434e+003;4.0256411133e+003;
7.3437500000e-001;4.0675642090e+003;4.0689743652e+003;4.0662819824e+003;4.0816667480e+003;4.0661538086e+003;4.0808974609e+003;4.0715385742e+003;4.0794870605e+003;4.0755129395e+003;4.0742307129e+003;4.0735898438e+003;4.0723076172e+003;4.0762819824e+003;4.0660256348e+003;
7.4218750000e-001;4.0889743652e+003;4.0919230957e+003;4.0887180176e+003;4.1014101563e+003;4.0870512695e+003;4.1025639648e+003;4.0934614258e+003;4.1060258789e+003;4.1034614258e+003;4.0989741211e+003;4.0984614258e+003;4.0961538086e+003;4.0996152344e+003;4.0880769043e+003;
7.5000000000e-001;4.0428205566e+003;4.0448718262e+003;4.0398718262e+003;4.0608974609e+003;4.0580769043e+003;4.0703845215e+003;4.0628205566e+003;4.0639743652e+003;4.0689743652e+003;4.0548718262e+003;4.0483332520e+003;4.0425642090e+003;4.0512819824e+003;4.0415385742e+003;
7.5781250000e-001;4.0510256348e+003;4.0514101563e+003;4.0467949219e+003;4.0667949219e+003;4.0511538086e+003;4.0789743652e+003;4.0688461914e+003;4.0729487305e+003;4.0778205566e+003;4.0653845215e+003;4.0560256348e+003;4.0508974609e+003;4.0608974609e+003;4.0497436523e+003;
7.6562500000e-001;4.0038461914e+003;4.0101281738e+003;3.9980769043e+003;4.0273076172e+003;4.0091025391e+003;4.0460256348e+003;4.0328205566e+003;4.0283332520e+003;4.0314101563e+003;4.0182050781e+003;4.0115385742e+003;4.0092307129e+003;4.0156411133e+003;4.0064101563e+003;
7.7343750000e-001;4.0264101563e+003;4.0326923828e+003;4.0180769043e+003;4.0498718262e+003;4.0673076172e+003;4.0674357910e+003;4.0523076172e+003;4.0465385742e+003;4.0465385742e+003;4.0408974609e+003;4.0324357910e+003;4.0310256348e+003;4.0371794434e+003;4.0288461914e+003;
7.8125000000e-001;3.9987180176e+003;3.9993588867e+003;3.9905129395e+003;4.0180769043e+003;4.0265385742e+003;4.0367949219e+003;4.0200000000e+003;4.0110256348e+003;4.0098718262e+003;4.0038461914e+003;4.0003845215e+003;4.0014101563e+003;4.0056411133e+003;3.9992307129e+003;
7.8906250000e-001;4.0525642090e+003;4.0501281738e+003;4.0387180176e+003;4.0632050781e+003;4.0533332520e+003;4.0719230957e+003;4.0578205566e+003;4.0462819824e+003;4.0421794434e+003;4.0405129395e+003;4.0480769043e+003;4.0471794434e+003;4.0491025391e+003;4.0473076172e+003;
7.9687500000e-001;3.9958974609e+003;3.9942307129e+003;3.9873076172e+003;4.0194870605e+003;4.0096154785e+003;4.0157692871e+003;4.0033332520e+003;3.9943588867e+003;3.9837180176e+003;3.9847436523e+003;3.9883332520e+003;3.9929487305e+003;3.9915385742e+003;3.9844870605e+003;
8.0468750000e-001;4.0255129395e+003;4.0252563477e+003;4.0139743652e+003;4.0466667480e+003;4.0384614258e+003;4.0396154785e+003;4.0296154785e+003;4.0229487305e+003;4.0125642090e+003;4.0114101563e+003;4.0193588867e+003;4.0200000000e+003;4.0233332520e+003;4.0124357910e+003;
8.1250000000e-001;4.0537180176e+003;4.0548718262e+003;4.0388461914e+003;4.0716667480e+003;4.0643588867e+003;4.0633332520e+003;4.0538461914e+003;4.0535898438e+003;4.0428205566e+003;4.0408974609e+003;4.0525642090e+003;4.0482050781e+003;4.0541025391e+003;4.0416667480e+003;
8.2031250000e-001;4.0101281738e+003;4.0082050781e+003;3.9970512695e+003;4.0278205566e+003;4.0146154785e+003;4.0228205566e+003;4.0125642090e+003;4.0187180176e+003;4.0052563477e+003;4.0067949219e+003;4.0171794434e+003;4.0097436523e+003;4.0116667480e+003;4.0029487305e+003;
8.2812500000e-001;4.0311538086e+003;4.0264101563e+003;4.0230769043e+003;4.0391025391e+003;4.0256411133e+003;4.0405129395e+003;4.0364101563e+003;4.0414101563e+003;4.0371794434e+003;4.0398718262e+003;4.0408974609e+003;4.0375642090e+003;4.0379487305e+003;4.0315385742e+003;
8.3593750000e-001;4.0182050781e+003;4.0167949219e+003;4.0112819824e+003;4.0270512695e+003;4.0180769043e+003;4.0320512695e+003;4.0252563477e+003;4.0337180176e+003;4.0328205566e+003;4.0303845215e+003;4.0330769043e+003;4.0310256348e+003;4.0289743652e+003;4.0237180176e+003;
8.4375000000e-001;3.9711538086e+003;3.9710256348e+003;3.9660256348e+003;3.9850000000e+003;3.9802563477e+003;3.9934614258e+003;3.9829487305e+003;3.9912819824e+003;3.9921794434e+003;3.9830769043e+003;3.9897436523e+003;3.9882050781e+003;3.9838461914e+003;3.9787180176e+003;
8.5156250000e-001;3.9016667480e+003;3.8946154785e+003;3.9021794434e+003;3.9217949219e+003;3.9126923828e+003;3.9350000000e+003;3.9207692871e+003;3.9224357910e+003;3.9235898438e+003;3.9075642090e+003;3.9178205566e+003;3.9152563477e+003;3.9117949219e+003;3.9039743652e+003;
8.5937500000e-001;3.8867949219e+003;3.8766667480e+003;3.8907692871e+003;3.9076923828e+003;3.8853845215e+003;3.9241025391e+003;3.9076923828e+003;3.9083332520e+003;3.9092307129e+003;3.8921794434e+003;3.9001281738e+003;3.8993588867e+003;3.8950000000e+003;3.8887180176e+003;
8.6718750000e-001;3.8556411133e+003;3.8479487305e+003;3.8625642090e+003;3.8811538086e+003;3.8437180176e+003;3.9021794434e+003;3.8815385742e+003;3.8810256348e+003;3.8821794434e+003;3.8625642090e+003;3.8684614258e+003;3.8707692871e+003;3.8638461914e+003;3.8615385742e+003;
8.7500000000e-001;3.7821794434e+003;3.7832050781e+003;3.7862819824e+003;3.8232050781e+003;3.8364101563e+003;3.8575642090e+003;3.8230769043e+003;3.8170512695e+003;3.8252563477e+003;3.7938461914e+003;3.7970512695e+003;3.7957692871e+003;3.7900000000e+003;3.7896154785e+003;
8.8281250000e-001;3.7407692871e+003;3.7366667480e+003;3.7489743652e+003;3.7806411133e+003;3.7834614258e+003;3.8152563477e+003;3.7807692871e+003;3.7743588867e+003;3.7803845215e+003;3.7474357910e+003;3.7532050781e+003;3.7530769043e+003;3.7460256348e+003;3.7467949219e+003;
8.9062500000e-001;3.7397436523e+003;3.7401281738e+003;3.7484614258e+003;3.7857692871e+003;3.7469230957e+003;3.7980769043e+003;3.7711538086e+003;3.7647436523e+003;3.7639743652e+003;3.7360256348e+003;3.7483332520e+003;3.7516667480e+003;3.7434614258e+003;3.7469230957e+003;
8.9843750000e-001;3.6607692871e+003;3.6569230957e+003;3.6764101563e+003;3.7083332520e+003;3.6732050781e+003;3.7174357910e+003;3.6923076172e+003;3.6802563477e+003;3.6741025391e+003;3.6523076172e+003;3.6702563477e+003;3.6808974609e+003;3.6616667480e+003;3.6687180176e+003;
9.0625000000e-001;3.6824357910e+003;3.6802563477e+003;3.6973076172e+003;3.7238461914e+003;3.6926923828e+003;3.7329487305e+003;3.7098718262e+003;3.6962819824e+003;3.6870512695e+003;3.6688461914e+003;3.6920512695e+003;3.7002563477e+003;3.6839743652e+003;3.6884614258e+003;
9.1406250000e-001;3.6856411133e+003;3.6828205566e+003;3.6960256348e+003;3.7224357910e+003;3.6797436523e+003;3.7206411133e+003;3.6930769043e+003;3.6941025391e+003;3.6815385742e+003;3.6748718262e+003;3.6987180176e+003;3.7062819824e+003;3.6875642090e+003;3.6915385742e+003;
9.2187500000e-001;3.6560256348e+003;3.6497436523e+003;3.6653845215e+003;3.6956411133e+003;3.6467949219e+003;3.6915385742e+003;3.6634614258e+003;3.6620512695e+003;3.6528205566e+003;3.6432050781e+003;3.6679487305e+003;3.6784614258e+003;3.6556411133e+003;3.6615385742e+003;
9.2968750000e-001;3.6944870605e+003;3.6853845215e+003;3.7028205566e+003;3.7357692871e+003;3.6962819824e+003;3.7256411133e+003;3.7035898438e+003;3.7017949219e+003;3.7026923828e+003;3.6853845215e+003;3.7084614258e+003;3.7197436523e+003;3.6967949219e+003;3.7019230957e+003;
9.3750000000e-001;3.7029487305e+003;3.6955129395e+003;3.7138461914e+003;3.7469230957e+003;3.7143588867e+003;3.7356411133e+003;3.7148718262e+003;3.7182050781e+003;3.7220512695e+003;3.7010256348e+003;3.7212819824e+003;3.7314101563e+003;3.7106411133e+003;3.7138461914e+003;
9.4531250000e-001;3.6905129395e+003;3.6889743652e+003;3.6988461914e+003;3.7329487305e+003;3.6848718262e+003;3.7385898438e+003;3.7134614258e+003;3.7138461914e+003;3.7164101563e+003;3.6902563477e+003;3.7037180176e+003;3.7111538086e+003;3.6951281738e+003;3.6958974609e+003;
9.5312500000e-001;3.7380769043e+003;3.7378205566e+003;3.7411538086e+003;3.7752563477e+003;3.7264101563e+003;3.7878205566e+003;3.7601281738e+003;3.7607692871e+003;3.7634614258e+003;3.7388461914e+003;3.7479487305e+003;3.7544870605e+003;3.7378205566e+003;3.7398718262e+003;
9.6093750000e-001;3.7538461914e+003;3.7575642090e+003;3.7574357910e+003;3.7920512695e+003;3.7707692871e+003;3.8200000000e+003;3.7846154785e+003;3.7864101563e+003;3.7914101563e+003;3.7644870605e+003;3.7693588867e+003;3.7725642090e+003;3.7548718262e+003;3.7584614258e+003;
9.6875000000e-001;3.7346154785e+003;3.7401281738e+003;3.7414101563e+003;3.7746154785e+003;3.7743588867e+003;3.8115385742e+003;3.7739743652e+003;3.7707692871e+003;3.7773076172e+003;3.7480769043e+003;3.7548718262e+003;3.7539743652e+003;3.7396154785e+003;3.7407692871e+003;
9.7656250000e-001;3.7378205566e+003;3.7446154785e+003;3.7462819824e+003;3.7760256348e+003;3.7906411133e+003;3.8203845215e+003;3.7828205566e+003;3.7741025391e+003;3.7824357910e+003;3.7532050781e+003;3.7612819824e+003;3.7562819824e+003;3.7464101563e+003;3.7437180176e+003;
9.8437500000e-001;3.7534614258e+003;3.7607692871e+003;3.7625642090e+003;3.7885898438e+003;3.8043588867e+003;3.8375642090e+003;3.8001281738e+003;3.7893588867e+003;3.7985898438e+003;3.7724357910e+003;3.7780769043e+003;3.7720512695e+003;3.7639743652e+003;3.7587180176e+003;
9.9218750000e-001;3.6702563477e+003;3.6750000000e+003;3.6850000000e+003;3.7187180176e+003;3.6993588867e+003;3.7700000000e+003;3.7265385742e+003;3.7042307129e+003;3.7137180176e+003;3.6858974609e+003;3.6830769043e+003;3.6883332520e+003;3.6714101563e+003;3.6696154785e+003;
1.0000000000e+000;3.6389743652e+003;3.6485898438e+003;3.6484614258e+003;3.6832050781e+003;3.6803845215e+003;3.7411538086e+003;3.6897436523e+003;3.6747436523e+003;3.6738461914e+003;3.6524357910e+003;3.6575642090e+003;3.6630769043e+003;3.6520512695e+003;3.6500000000e+003;
1.0078125000e+000;3.6488461914e+003;3.6564101563e+003;3.6566667480e+003;3.6912819824e+003;3.6844870605e+003;3.7439743652e+003;3.6947436523e+003;3.6775642090e+003;3.6733332520e+003;3.6543588867e+003;3.6638461914e+003;3.6701281738e+003;3.6598718262e+003;3.6583332520e+003;
1.0156250000e+000;3.6938461914e+003;3.6921794434e+003;3.7070512695e+003;3.7283332520e+003;3.7096154785e+003;3.7624357910e+003;3.7239743652e+003;3.7116667480e+003;3.7096154785e+003;3.6975642090e+003;3.7079487305e+003;3.7161538086e+003;3.7002563477e+003;3.6982050781e+003;
1.0234375000e+000;3.7351281738e+003;3.7306411133e+003;3.7450000000e+003;3.7666667480e+003;3.7446154785e+003;3.7826923828e+003;3.7539743652e+003;3.7541025391e+003;3.7511538086e+003;3.7373076172e+003;3.7479487305e+003;3.7570512695e+003;3.7374357910e+003;3.7325642090e+003;
1.0312500000e+000;3.7647436523e+003;3.7578205566e+003;3.7741025391e+003;3.7925642090e+003;3.7755129395e+003;3.8038461914e+003;3.7775642090e+003;3.7874357910e+003;3.7830769043e+003;3.7684614258e+003;3.7774357910e+003;3.7871794434e+003;3.7658974609e+003;3.7623076172e+003;
1.0390625000e+000;3.7617949219e+003;3.7516667480e+003;3.7711538086e+003;3.7750000000e+003;3.7453845215e+003;3.8020512695e+003;3.7796154785e+003;3.7789743652e+003;3.7761538086e+003;3.7551281738e+003;3.7689743652e+003;3.7848718262e+003;3.7573076172e+003;3.7611538086e+003;
1.0468750000e+000;3.8175642090e+003;3.8092307129e+003;3.8208974609e+003;3.8269230957e+003;3.7920512695e+003;3.8571794434e+003;3.8337180176e+003;3.8293588867e+003;3.8278205566e+003;3.8111538086e+003;3.8228205566e+003;3.8392307129e+003;3.8117949219e+003;3.8153845215e+003;
1.0546875000e+000;3.8797436523e+003;3.8738461914e+003;3.8761538086e+003;3.8958974609e+003;3.8771794434e+003;3.9271794434e+003;3.8925642090e+003;3.8933332520e+003;3.8910256348e+003;3.8878205566e+003;3.8884614258e+003;3.9034614258e+003;3.8764101563e+003;3.8761538086e+003;
1.0625000000e+000;3.8741025391e+003;3.8688461914e+003;3.8710256348e+003;3.8960256348e+003;3.8966667480e+003;3.9280769043e+003;3.8896154785e+003;3.8882050781e+003;3.8867949219e+003;3.8857692871e+003;3.8856411133e+003;3.8973076172e+003;3.8737180176e+003;3.8694870605e+003;
1.0703125000e+000;3.9393588867e+003;3.9383332520e+003;3.9370512695e+003;3.9528205566e+003;3.9778205566e+003;3.9925642090e+003;3.9578205566e+003;3.9480769043e+003;3.9592307129e+003;3.9560256348e+003;3.9561538086e+003;3.9621794434e+003;3.9506411133e+003;3.9371794434e+003;
1.0781250000e+000;3.8357692871e+003;3.8271794434e+003;3.8412819824e+003;3.8502563477e+003;3.8521794434e+003;3.9089743652e+003;3.8624357910e+003;3.8492307129e+003;3.8575642090e+003;3.8553845215e+003;3.8470512695e+003;3.8632050781e+003;3.8456411133e+003;3.8367949219e+003;
1.0859375000e+000;3.8439743652e+003;3.8346154785e+003;3.8506411133e+003;3.8575642090e+003;3.8650000000e+003;3.9174357910e+003;3.8707692871e+003;3.8558974609e+003;3.8637180176e+003;3.8629487305e+003;3.8552563477e+003;3.8697436523e+003;3.8533332520e+003;3.8438461914e+003;
1.0937500000e+000;3.8535898438e+003;3.8447436523e+003;3.8611538086e+003;3.8664101563e+003;3.8783332520e+003;3.9244870605e+003;3.8793588867e+003;3.8657692871e+003;3.8741025391e+003;3.8747436523e+003;3.8674357910e+003;3.8802563477e+003;3.8637180176e+003;3.8542307129e+003;
1.1015625000e+000;3.7997436523e+003;3.7929487305e+003;3.8108974609e+003;3.8180769043e+003;3.8228205566e+003;3.8711538086e+003;3.8302563477e+003;3.8146154785e+003;3.8224357910e+003;3.8237180176e+003;3.8170512695e+003;3.8306411133e+003;3.8106411133e+003;3.8057692871e+003;
1.1093750000e+000;3.7929487305e+003;3.7869230957e+003;3.8043588867e+003;3.8137180176e+003;3.8152563477e+003;3.8643588867e+003;3.8261538086e+003;3.8069230957e+003;3.8123076172e+003;3.8138461914e+003;3.8087180176e+003;3.8225642090e+003;3.8028205566e+003;3.7996154785e+003;
1.1171875000e+000;3.8248718262e+003;3.8185898438e+003;3.8348718262e+003;3.8457692871e+003;3.8470512695e+003;3.8934614258e+003;3.8571794434e+003;3.8378205566e+003;3.8391025391e+003;3.8424357910e+003;3.8387180176e+003;3.8519230957e+003;3.8339743652e+003;3.8298718262e+003;
1.1250000000e+000;3.8221794434e+003;3.8058974609e+003;3.8375642090e+003;3.8389743652e+003;3.8330769043e+003;3.8612819824e+003;3.8296154785e+003;3.8223076172e+003;3.8128205566e+003;3.8182050781e+003;3.8255129395e+003;3.8423076172e+003;3.8251281738e+003;3.8138461914e+003;
1.1328125000e+000;3.8410256348e+003;3.8274357910e+003;3.8593588867e+003;3.8534614258e+003;3.8526923828e+003;3.8732050781e+003;3.8417949219e+003;3.8419230957e+003;3.8329487305e+003;3.8401281738e+003;3.8473076172e+003;3.8660256348e+003;3.8452563477e+003;3.8373076172e+003;
1.1406250000e+000;3.7771794434e+003;3.7651281738e+003;3.7938461914e+003;3.7988461914e+003;3.7556411133e+003;3.8114101563e+003;3.7832050781e+003;3.7892307129e+003;3.7782050781e+003;3.7794870605e+003;3.7921794434e+003;3.8183332520e+003;3.7808974609e+003;3.7867949219e+003;
1.1484375000e+000;3.8273076172e+003;3.8157692871e+003;3.8324357910e+003;3.8424357910e+003;3.8257692871e+003;3.8670512695e+003;3.8388461914e+003;3.8444870605e+003;3.8392307129e+003;3.8384614258e+003;3.8443588867e+003;3.8625642090e+003;3.8367949219e+003;3.8347436523e+003;
1.1562500000e+000;3.7988461914e+003;3.7882050781e+003;3.8064101563e+003;3.8158974609e+003;3.8155129395e+003;3.8479487305e+003;3.8142307129e+003;3.8184614258e+003;3.8143588867e+003;3.8112819824e+003;3.8150000000e+003;3.8310256348e+003;3.8065385742e+003;3.8042307129e+003;
1.1640625000e+000;3.7711538086e+003;3.7693588867e+003;3.7788461914e+003;3.7923076172e+003;3.7946154785e+003;3.8315385742e+003;3.7942307129e+003;3.7885898438e+003;3.7888461914e+003;3.7814101563e+003;3.7810256348e+003;3.7926923828e+003;3.7714101563e+003;3.7710256348e+003;
1.1718750000e+000;3.7562819824e+003;3.7569230957e+003;3.7634614258e+003;3.7771794434e+003;3.7710256348e+003;3.8214101563e+003;3.7826923828e+003;3.7744870605e+003;3.7771794434e+003;3.7708974609e+003;3.7678205566e+003;3.7816667480e+003;3.7576923828e+003;3.7584614258e+003;
1.1796875000e+000;3.7171794434e+003;3.7182050781e+003;3.7255129395e+003;3.7407692871e+003;3.7301281738e+003;3.7962819824e+003;3.7512819824e+003;3.7302563477e+003;3.7401281738e+003;3.7350000000e+003;3.7306411133e+003;3.7474357910e+003;3.7189743652e+003;3.7205129395e+003;
1.1875000000e+000;3.7439743652e+003;3.7430769043e+003;3.7510256348e+003;3.7676923828e+003;3.7624357910e+003;3.8214101563e+003;3.7751281738e+003;3.7511538086e+003;3.7646154785e+003;3.7623076172e+003;3.7569230957e+003;3.7708974609e+003;3.7452563477e+003;3.7446154785e+003;
1.1953125000e+000;3.7482050781e+003;3.7506411133e+003;3.7543588867e+003;3.7775642090e+003;3.7726923828e+003;3.8158974609e+003;3.7687180176e+003;3.7532050781e+003;3.7705129395e+003;3.7767949219e+003;3.7646154785e+003;3.7755129395e+003;3.7566667480e+003;3.7500000000e+003;
1.2031250000e+000;3.7211538086e+003;3.7270512695e+003;3.7288461914e+003;3.7528205566e+003;3.7457692871e+003;3.7919230957e+003;3.7442307129e+003;3.7247436523e+003;3.7410256348e+003;3.7476923828e+003;3.7367949219e+003;3.7491025391e+003;3.7311538086e+003;3.7235898438e+003;
1.2109375000e+000;3.7293588867e+003;3.7361538086e+003;3.7384614258e+003;3.7598718262e+003;3.7537180176e+003;3.8000000000e+003;3.7533332520e+003;3.7298718262e+003;3.7447436523e+003;3.7530769043e+003;3.7430769043e+003;3.7548718262e+003;3.7383332520e+003;3.7307692871e+003;
1.2187500000e+000;3.7560256348e+003;3.7601281738e+003;3.7660256348e+003;3.7832050781e+003;3.7784614258e+003;3.8223076172e+003;3.7776923828e+003;3.7537180176e+003;3.7674357910e+003;3.7782050781e+003;3.7676923828e+003;3.7782050781e+003;3.7617949219e+003;3.7557692871e+003;
1.2265625000e+000;3.7617949219e+003;3.7669230957e+003;3.7648718262e+003;3.7841025391e+003;3.7705129395e+003;3.8082050781e+003;3.7684614258e+003;3.7521794434e+003;3.7587180176e+003;3.7708974609e+003;3.7726923828e+003;3.7801281738e+003;3.7684614258e+003;3.7615385742e+003;
1.2343750000e+000;3.8271794434e+003;3.8276923828e+003;3.8402563477e+003;3.8380769043e+003;3.8347436523e+003;3.8551281738e+003;3.8239743652e+003;3.8261538086e+003;3.8238461914e+003;3.8488461914e+003;3.8467949219e+003;3.8573076172e+003;3.8415385742e+003;3.8380769043e+003;
1.2421875000e+000;3.8130769043e+003;3.8114101563e+003;3.8270512695e+003;3.8260256348e+003;3.8166667480e+003;3.8388461914e+003;3.8129487305e+003;3.8137180176e+003;3.8112819824e+003;3.8337180176e+003;3.8325642090e+003;3.8450000000e+003;3.8265385742e+003;3.8250000000e+003;
1.2500000000e+000;3.8878205566e+003;3.8882050781e+003;3.8858974609e+003;3.8957692871e+003;3.8619230957e+003;3.9080769043e+003;3.8858974609e+003;3.8979487305e+003;3.8958974609e+003;3.9091025391e+003;3.9108974609e+003;3.9148718262e+003;3.9032050781e+003;3.8952563477e+003;
1.2578125000e+000;3.8846154785e+003;3.8855129395e+003;3.8833332520e+003;3.8915385742e+003;3.8692307129e+003;3.9102563477e+003;3.8848718262e+003;3.8991025391e+003;3.8951281738e+003;3.9076923828e+003;3.9066667480e+003;3.9106411133e+003;3.9002563477e+003;3.8905129395e+003;
1.2656250000e+000;3.9782050781e+003;3.9835898438e+003;3.9776923828e+003;3.9853845215e+003;4.0235898438e+003;4.0096154785e+003;3.9853845215e+003;3.9830769043e+003;3.9875642090e+003;4.0016667480e+003;3.9934614258e+003;3.9975642090e+003;3.9925642090e+003;3.9783332520e+003;
1.2734375000e+000;3.9683332520e+003;3.9756411133e+003;3.9662819824e+003;3.9756411133e+003;3.9920512695e+003;4.0183332520e+003;3.9824357910e+003;3.9816667480e+003;3.9992307129e+003;4.0103845215e+003;3.9952563477e+003;3.9991025391e+003;3.9924357910e+003;3.9741025391e+003;
1.2812500000e+000;3.9801281738e+003;3.9879487305e+003;3.9761538086e+003;3.9825642090e+003;4.0033332520e+003;4.0333332520e+003;3.9960256348e+003;3.9916667480e+003;4.0101281738e+003;4.0230769043e+003;4.0060256348e+003;4.0078205566e+003;4.0044870605e+003;3.9838461914e+003;
1.2890625000e+000;4.0228205566e+003;4.0298718262e+003;4.0170512695e+003;4.0182050781e+003;4.0498718262e+003;4.0733332520e+003;4.0364101563e+003;4.0302563477e+003;4.0493588867e+003;4.0666667480e+003;4.0464101563e+003;4.0455129395e+003;4.0457692871e+003;4.0234614258e+003;
1.2968750000e+000;4.0437180176e+003;4.0411538086e+003;4.0393588867e+003;4.0344870605e+003;4.0655129395e+003;4.0860256348e+003;4.0484614258e+003;4.0406411133e+003;4.0612819824e+003;4.0844870605e+003;4.0621794434e+003;4.0611538086e+003;4.0601281738e+003;4.0392307129e+003;
1.3046875000e+000;4.0461538086e+003;4.0479487305e+003;4.0361538086e+003;4.0491025391e+003;4.0656411133e+003;4.0735898438e+003;4.0407692871e+003;4.0212819824e+003;4.0465385742e+003;4.0715385742e+003;4.0600000000e+003;4.0621794434e+003;4.0625642090e+003;4.0415385742e+003;
1.3125000000e+000;4.0656411133e+003;4.0752563477e+003;4.0552563477e+003;4.0675642090e+003;4.0876923828e+003;4.0893588867e+003;4.0566667480e+003;4.0414101563e+003;4.0662819824e+003;4.0937180176e+003;4.0815385742e+003;4.0837180176e+003;4.0843588867e+003;4.0646154785e+003;
1.3203125000e+000;4.0606411133e+003;4.0743588867e+003;4.0534614258e+003;4.0594870605e+003;4.0746154785e+003;4.0837180176e+003;4.0510256348e+003;4.0392307129e+003;4.0610256348e+003;4.0894870605e+003;4.0771794434e+003;4.0796154785e+003;4.0785898438e+003;4.0616667480e+003;
1.3281250000e+000;4.0596154785e+003;4.0710256348e+003;4.0558974609e+003;4.0528205566e+003;4.0555129395e+003;4.0796154785e+003;4.0501281738e+003;4.0382050781e+003;4.0552563477e+003;4.0835898438e+003;4.0726923828e+003;4.0750000000e+003;4.0723076172e+003;4.0576923828e+003;
1.3359375000e+000;4.2123076172e+003;4.2097436523e+003;4.2100000000e+003;4.1847436523e+003;4.2153847656e+003;4.1989741211e+003;4.1894873047e+003;4.1951284180e+003;4.1978203125e+003;4.2348715820e+003;4.2169228516e+003;4.2280771484e+003;4.2157690430e+003;4.2042309570e+003;
1.3437500000e+000;4.1834614258e+003;4.1839741211e+003;4.1839741211e+003;4.1601284180e+003;4.2041025391e+003;4.1741025391e+003;4.1638461914e+003;4.1700000000e+003;4.1697436523e+003;4.2058974609e+003;4.1915385742e+003;4.2039741211e+003;4.1891025391e+003;4.1793588867e+003;
1.3515625000e+000;4.2708974609e+003;4.2680771484e+003;4.2671796875e+003;4.2476923828e+003;4.2751284180e+003;4.2482050781e+003;4.2452563477e+003;4.2471796875e+003;4.2489741211e+003;4.2855126953e+003;4.2756411133e+003;4.2774360352e+003;4.2676923828e+003;4.2532050781e+003;
1.3593750000e+000;4.2053847656e+003;4.2093588867e+003;4.1956411133e+003;4.1825639648e+003;4.2064101563e+003;4.2015385742e+003;4.1882050781e+003;4.1902563477e+003;4.1941025391e+003;4.2265385742e+003;4.2033334961e+003;4.2132050781e+003;4.2019228516e+003;4.1911538086e+003;
1.3671875000e+000;4.1996152344e+003;4.2083334961e+003;4.1892309570e+003;4.1775639648e+003;4.2101284180e+003;4.2011538086e+003;4.1851284180e+003;4.1858974609e+003;4.1901284180e+003;4.2214101563e+003;4.1988461914e+003;4.2082050781e+003;4.2015385742e+003;4.1891025391e+003;
1.3750000000e+000;4.1405126953e+003;4.1453847656e+003;4.1357690430e+003;4.1287177734e+003;4.1476923828e+003;4.1501284180e+003;4.1273076172e+003;4.1225639648e+003;4.1314101563e+003;4.1598715820e+003;4.1429487305e+003;4.1467949219e+003;4.1401284180e+003;4.1273076172e+003;
1.3828125000e+000;4.1308974609e+003;4.1332050781e+003;4.1260258789e+003;4.1160258789e+003;4.1334614258e+003;4.1433334961e+003;4.1193588867e+003;4.1080771484e+003;4.1183334961e+003;4.1453847656e+003;4.1300000000e+003;4.1332050781e+003;4.1253847656e+003;4.1133334961e+003;
1.3906250000e+000;4.1632050781e+003;4.1721796875e+003;4.1623076172e+003;4.1485898438e+003;4.1830771484e+003;4.1869228516e+003;4.1611538086e+003;4.1483334961e+003;4.1598715820e+003;4.1874360352e+003;4.1675639648e+003;4.1744873047e+003;4.1673076172e+003;4.1539741211e+003;
1.3984375000e+000;4.1221796875e+003;4.1352563477e+003;4.1234614258e+003;4.1187177734e+003;4.1446152344e+003;4.1521796875e+003;4.1271796875e+003;4.1121796875e+003;4.1248715820e+003;4.1493588867e+003;4.1302563477e+003;4.1379487305e+003;4.1300000000e+003;4.1161538086e+003;
1.4062500000e+000;4.1051284180e+003;4.1208974609e+003;4.1015385742e+003;4.1044873047e+003;4.1112822266e+003;4.1319228516e+003;4.1096152344e+003;4.0893588867e+003;4.1048715820e+003;4.1269228516e+003;4.1126923828e+003;4.1155126953e+003;4.1087177734e+003;4.0935898438e+003;
1.4140625000e+000;4.1283334961e+003;4.1416665039e+003;4.1220512695e+003;4.1206411133e+003;4.1288461914e+003;4.1492309570e+003;4.1260258789e+003;4.1080771484e+003;4.1229487305e+003;4.1479487305e+003;4.1348715820e+003;4.1361538086e+003;4.1297436523e+003;4.1148715820e+003;
1.4218750000e+000;4.1324360352e+003;4.1403847656e+003;4.1333334961e+003;4.1256411133e+003;4.1666665039e+003;4.1507690430e+003;4.1289741211e+003;4.1089741211e+003;4.1189741211e+003;4.1483334961e+003;4.1394873047e+003;4.1421796875e+003;4.1388461914e+003;4.1264101563e+003;
1.4296875000e+000;4.1774360352e+003;4.1852563477e+003;4.1798715820e+003;4.1673076172e+003;4.2139741211e+003;4.1893588867e+003;4.1728203125e+003;4.1529487305e+003;4.1637177734e+003;4.1944873047e+003;4.1846152344e+003;4.1848715820e+003;4.1834614258e+003;4.1693588867e+003;
1.4375000000e+000;4.2538461914e+003;4.2582050781e+003;4.2596152344e+003;4.2328203125e+003;4.2680771484e+003;4.2515385742e+003;4.2411538086e+003;4.2333334961e+003;4.2417949219e+003;4.2792309570e+003;4.2614101563e+003;4.2597436523e+003;4.2561538086e+003;4.2364101563e+003;
1.4453125000e+000;4.2464101563e+003;4.2505126953e+003;4.2539741211e+003;4.2276923828e+003;4.2557690430e+003;4.2423076172e+003;4.2330771484e+003;4.2292309570e+003;4.2326923828e+003;4.2726923828e+003;4.2526923828e+003;4.2525639648e+003;4.2480771484e+003;4.2255126953e+003;
1.4531250000e+000;4.2389741211e+003;4.2460258789e+003;4.2465385742e+003;4.2270512695e+003;4.2538461914e+003;4.2346152344e+003;4.2270512695e+003;4.2238461914e+003;4.2223076172e+003;4.2634614258e+003;4.2433334961e+003;4.2442309570e+003;4.2414101563e+003;4.2170512695e+003;
1.4609375000e+000;4.2255126953e+003;4.2346152344e+003;4.2276923828e+003;4.2105126953e+003;4.2416665039e+003;4.2355126953e+003;4.2223076172e+003;4.2117949219e+003;4.2178203125e+003;4.2457690430e+003;4.2343588867e+003;4.2330771484e+003;4.2358974609e+003;4.2084614258e+003;
1.4687500000e+000;4.2758974609e+003;4.2820512695e+003;4.2774360352e+003;4.2558974609e+003;4.2970512695e+003;4.2800000000e+003;4.2696152344e+003;4.2579487305e+003;4.2658974609e+003;4.2939741211e+003;4.2825639648e+003;4.2816665039e+003;4.2848715820e+003;4.2569228516e+003;
1.4765625000e+000;4.2769228516e+003;4.2871796875e+003;4.2823076172e+003;4.2623076172e+003;4.3032050781e+003;4.2817949219e+003;4.2687177734e+003;4.2738461914e+003;4.2830771484e+003;4.3057690430e+003;4.2903847656e+003;4.2912822266e+003;4.2880771484e+003;4.2666665039e+003;
1.4843750000e+000;4.2325639648e+003;4.2433334961e+003;4.2396152344e+003;4.2216665039e+003;4.2600000000e+003;4.2461538086e+003;4.2296152344e+003;4.2315385742e+003;4.2411538086e+003;4.2596152344e+003;4.2469228516e+003;4.2444873047e+003;4.2444873047e+003;4.2214101563e+003;
1.4921875000e+000;4.2847436523e+003;4.2902563477e+003;4.2893588867e+003;4.2691025391e+003;4.3134614258e+003;4.2992309570e+003;4.2816665039e+003;4.2782050781e+003;4.2914101563e+003;4.3082050781e+003;4.2942309570e+003;4.2851284180e+003;4.2943588867e+003;4.2658974609e+003;
1.5000000000e+000;4.3124360352e+003;4.3161538086e+003;4.3165385742e+003;4.2944873047e+003;4.3341025391e+003;4.3251284180e+003;4.3082050781e+003;4.3055126953e+003;4.3210258789e+003;4.3380771484e+003;4.3196152344e+003;4.3129487305e+003;4.3207690430e+003;4.2934614258e+003;
1.5078125000e+000;4.2594873047e+003;4.2706411133e+003;4.2657690430e+003;4.2444873047e+003;4.2715385742e+003;4.2797436523e+003;4.2639741211e+003;4.2525639648e+003;4.2706411133e+003;4.2873076172e+003;4.2687177734e+003;4.2674360352e+003;4.2708974609e+003;4.2448715820e+003;
1.5156250000e+000;4.2688461914e+003;4.2810258789e+003;4.2742309570e+003;4.2529487305e+003;4.2937177734e+003;4.2879487305e+003;4.2703847656e+003;4.2615385742e+003;4.2785898438e+003;4.2978203125e+003;4.2794873047e+003;4.2752563477e+003;4.2816665039e+003;4.2524360352e+003;
1.5234375000e+000;4.2330771484e+003;4.2425639648e+003;4.2382050781e+003;4.2203847656e+003;4.2779487305e+003;4.2532050781e+003;4.2341025391e+003;4.2262822266e+003;4.2408974609e+003;4.2608974609e+003;4.2428203125e+003;4.2382050781e+003;4.2426923828e+003;4.2096152344e+003;
1.5312500000e+000;4.2492309570e+003;4.2580771484e+003;4.2537177734e+003;4.2360258789e+003;4.2830771484e+003;4.2648715820e+003;4.2512822266e+003;4.2391025391e+003;4.2535898438e+003;4.2739741211e+003;4.2592309570e+003;4.2538461914e+003;4.2593588867e+003;4.2234614258e+003;
1.5390625000e+000;4.2878203125e+003;4.2944873047e+003;4.2951284180e+003;4.2742309570e+003;4.3041025391e+003;4.2912822266e+003;4.2852563477e+003;4.2779487305e+003;4.2864101563e+003;4.3130771484e+003;4.3016665039e+003;4.2953847656e+003;4.3024360352e+003;4.2648715820e+003;
1.5468750000e+000;4.2629487305e+003;4.2685898438e+003;4.2738461914e+003;4.2512822266e+003;4.2820512695e+003;4.2662822266e+003;4.2606411133e+003;4.2560258789e+003;4.2588461914e+003;4.2865385742e+003;4.2762822266e+003;4.2720512695e+003;4.2762822266e+003;4.2434614258e+003;
1.5546875000e+000;4.2410258789e+003;4.2464101563e+003;4.2538461914e+003;4.2289741211e+003;4.2664101563e+003;4.2456411133e+003;4.2408974609e+003;4.2353847656e+003;4.2332050781e+003;4.2592309570e+003;4.2505126953e+003;4.2483334961e+003;4.2493588867e+003;4.2220512695e+003;
1.5625000000e+000;4.2956411133e+003;4.3017949219e+003;4.3024360352e+003;4.2721796875e+003;4.3173076172e+003;4.2930771484e+003;4.2920512695e+003;4.2912822266e+003;4.2860258789e+003;4.3078203125e+003;4.2965385742e+003;4.2950000000e+003;4.2952563477e+003;4.2688461914e+003;
1.5703125000e+000;4.2016665039e+003;4.2073076172e+003;4.2096152344e+003;4.1855126953e+003;4.2162822266e+003;4.2094873047e+003;4.1992309570e+003;4.2112822266e+003;4.2116665039e+003;4.2235898438e+003;4.2050000000e+003;4.2039741211e+003;4.2070512695e+003;4.1776923828e+003;
1.5781250000e+000;4.1669228516e+003;4.1757690430e+003;4.1757690430e+003;4.1561538086e+003;4.1908974609e+003;4.1826923828e+003;4.1689741211e+003;4.1765385742e+003;4.1801284180e+003;4.1879487305e+003;4.1715385742e+003;4.1685898438e+003;4.1734614258e+003;4.1465385742e+003;
1.5859375000e+000;4.1705126953e+003;4.1834614258e+003;4.1782050781e+003;4.1619228516e+003;4.1983334961e+003;4.1907690430e+003;4.1747436523e+003;4.1800000000e+003;4.1865385742e+003;4.1920512695e+003;4.1771796875e+003;4.1726923828e+003;4.1782050781e+003;4.1529487305e+003;
1.5937500000e+000;4.0930769043e+003;4.0996152344e+003;4.0988461914e+003;4.0923076172e+003;4.1125639648e+003;4.1241025391e+003;4.0971796875e+003;4.0921794434e+003;4.1061538086e+003;4.1037177734e+003;4.0950000000e+003;4.0925642090e+003;4.0974360352e+003;4.0742307129e+003;
1.6015625000e+000;4.0853845215e+003;4.0930769043e+003;4.0898718262e+003;4.0841025391e+003;4.1214101563e+003;4.1193588867e+003;4.0914101563e+003;4.0844870605e+003;4.1000000000e+003;4.0997436523e+003;4.0902563477e+003;4.0843588867e+003;4.0907692871e+003;4.0689743652e+003;
1.6093750000e+000;4.0016667480e+003;4.0175642090e+003;4.0038461914e+003;4.0103845215e+003;4.0453845215e+003;4.0511538086e+003;4.0211538086e+003;4.0061538086e+003;4.0274357910e+003;4.0242307129e+003;4.0153845215e+003;4.0035898438e+003;4.0165385742e+003;3.9891025391e+003;
1.6171875000e+000;4.0097436523e+003;4.0274357910e+003;4.0143588867e+003;4.0216667480e+003;4.0432050781e+003;4.0555129395e+003;4.0258974609e+003;4.0134614258e+003;4.0364101563e+003;4.0394870605e+003;4.0280769043e+003;4.0191025391e+003;4.0361538086e+003;4.0062819824e+003;
1.6250000000e+000;3.9782050781e+003;3.9930769043e+003;3.9866667480e+003;3.9908974609e+003;4.0116667480e+003;4.0242307129e+003;3.9956411133e+003;3.9797436523e+003;3.9993588867e+003;4.0050000000e+003;3.9969230957e+003;3.9908974609e+003;4.0039743652e+003;3.9770512695e+003;
1.6328125000e+000;4.0246154785e+003;4.0283332520e+003;4.0311538086e+003;4.0216667480e+003;4.0311538086e+003;4.0457692871e+003;4.0294870605e+003;4.0171794434e+003;4.0319230957e+003;4.0361538086e+003;4.0376923828e+003;4.0319230957e+003;4.0410256348e+003;4.0164101563e+003;
1.6406250000e+000;4.0256411133e+003;4.0229487305e+003;4.0325642090e+003;4.0158974609e+003;4.0251281738e+003;4.0437180176e+003;4.0297436523e+003;4.0219230957e+003;4.0347436523e+003;4.0362819824e+003;4.0357692871e+003;4.0320512695e+003;4.0366667480e+003;4.0133332520e+003;
1.6484375000e+000;4.0992309570e+003;4.0947436523e+003;4.1033334961e+003;4.0942307129e+003;4.1155126953e+003;4.1215385742e+003;4.1179487305e+003;4.1124360352e+003;4.1084614258e+003;4.1119228516e+003;4.1025639648e+003;4.1080771484e+003;4.1056411133e+003;4.0789743652e+003;
1.6562500000e+000;4.1003847656e+003;4.1112822266e+003;4.1016665039e+003;4.1050000000e+003;4.0919230957e+003;4.1217949219e+003;4.1180771484e+003;4.1343588867e+003;4.1220512695e+003;4.1258974609e+003;4.1189741211e+003;4.1251284180e+003;4.1153847656e+003;4.0997436523e+003;
1.6640625000e+000;4.0823076172e+003;4.0912819824e+003;4.0846154785e+003;4.0810256348e+003;4.0717949219e+003;4.1021796875e+003;4.0962822266e+003;4.1082050781e+003;4.1003847656e+003;4.1012822266e+003;4.0989741211e+003;4.1037177734e+003;4.0937180176e+003;4.0815385742e+003;
1.6718750000e+000;4.1042309570e+003;4.1093588867e+003;4.1080771484e+003;4.0970512695e+003;4.1044873047e+003;4.1196152344e+003;4.1120512695e+003;4.1187177734e+003;4.1165385742e+003;4.1179487305e+003;4.1169228516e+003;4.1207690430e+003;4.1120512695e+003;4.1000000000e+003;
1.6796875000e+000;4.1342309570e+003;4.1338461914e+003;4.1439741211e+003;4.1326923828e+003;4.1706411133e+003;4.1492309570e+003;4.1357690430e+003;4.1415385742e+003;4.1455126953e+003;4.1512822266e+003;4.1451284180e+003;4.1520512695e+003;4.1420512695e+003;4.1269228516e+003;
1.6875000000e+000;4.0887180176e+003;4.0897436523e+003;4.0955129395e+003;4.0894870605e+003;4.1132050781e+003;4.1116665039e+003;4.0926923828e+003;4.0891025391e+003;4.0984614258e+003;4.0974360352e+003;4.0950000000e+003;4.0965385742e+003;4.0948718262e+003;4.0750000000e+003;
1.6953125000e+000;4.1011538086e+003;4.1039741211e+003;4.1058974609e+003;4.0983334961e+003;4.1179487305e+003;4.1232050781e+003;4.1024360352e+003;4.0955129395e+003;4.1094873047e+003;4.1098715820e+003;4.1039741211e+003;4.1028203125e+003;4.1043588867e+003;4.0847436523e+003;
1.7031250000e+000;4.0839743652e+003;4.0905129395e+003;4.0889743652e+003;4.0842307129e+003;4.1025639648e+003;4.1100000000e+003;4.0853845215e+003;4.0748718262e+003;4.0933332520e+003;4.0955129395e+003;4.0842307129e+003;4.0833332520e+003;4.0846154785e+003;4.0674357910e+003;
1.7109375000e+000;4.0407692871e+003;4.0526923828e+003;4.0467949219e+003;4.0492307129e+003;4.0675642090e+003;4.0744870605e+003;4.0460256348e+003;4.0305129395e+003;4.0521794434e+003;4.0542307129e+003;4.0394870605e+003;4.0402563477e+003;4.0401281738e+003;4.0261538086e+003;
1.7187500000e+000;4.0475642090e+003;4.0616667480e+003;4.0515385742e+003;4.0564101563e+003;4.0685898438e+003;4.0750000000e+003;4.0441025391e+003;4.0374357910e+003;4.0588461914e+003;4.0571794434e+003;4.0492307129e+003;4.0458974609e+003;4.0519230957e+003;4.0328205566e+003;
1.7265625000e+000;4.0302563477e+003;4.0414101563e+003;4.0356411133e+003;4.0402563477e+003;4.0457692871e+003;4.0578205566e+003;4.0269230957e+003;4.0188461914e+003;4.0389743652e+003;4.0384614258e+003;4.0315385742e+003;4.0308974609e+003;4.0351281738e+003;4.0144870605e+003;
1.7343750000e+000;4.0617949219e+003;4.0625642090e+003;4.0616667480e+003;4.0671794434e+003;4.0739743652e+003;4.0775642090e+003;4.0580769043e+003;4.0471794434e+003;4.0655129395e+003;4.0680769043e+003;4.0641025391e+003;4.0653845215e+003;4.0600000000e+003;4.0478205566e+003;
1.7421875000e+000;4.0212819824e+003;4.0156411133e+003;4.0257692871e+003;4.0283332520e+003;4.0311538086e+003;4.0339743652e+003;4.0248718262e+003;4.0216667480e+003;4.0278205566e+003;4.0234614258e+003;4.0244870605e+003;4.0311538086e+003;4.0153845215e+003;4.0144870605e+003;
1.7500000000e+000;4.0423076172e+003;4.0402563477e+003;4.0474357910e+003;4.0512819824e+003;4.0439743652e+003;4.0551281738e+003;4.0506411133e+003;4.0470512695e+003;4.0501281738e+003;4.0450000000e+003;4.0461538086e+003;4.0528205566e+003;4.0387180176e+003;4.0357692871e+003;
1.7578125000e+000;4.0544870605e+003;4.0551281738e+003;4.0633332520e+003;4.0625642090e+003;4.0703845215e+003;4.0757692871e+003;4.0746154785e+003;4.0803845215e+003;4.0806411133e+003;4.0747436523e+003;4.0669230957e+003;4.0716667480e+003;4.0584614258e+003;4.0505129395e+003;
1.7656250000e+000;4.0584614258e+003;4.0603845215e+003;4.0666667480e+003;4.0638461914e+003;4.0930769043e+003;4.0829487305e+003;4.0808974609e+003;4.0832050781e+003;4.0838461914e+003;4.0779487305e+003;4.0694870605e+003;4.0721794434e+003;4.0626923828e+003;4.0508974609e+003;
1.7734375000e+000;4.2015385742e+003;4.2167949219e+003;4.2014101563e+003;4.2038461914e+003;4.2398715820e+003;4.2210258789e+003;4.2052563477e+003;4.2160258789e+003;4.2252563477e+003;4.2332050781e+003;4.2117949219e+003;4.2093588867e+003;4.2111538086e+003;4.1866665039e+003;
1.7812500000e+000;4.1547436523e+003;4.1706411133e+003;4.1573076172e+003;4.1641025391e+003;4.1837177734e+003;4.1800000000e+003;4.1578203125e+003;4.1708974609e+003;4.1842309570e+003;4.1937177734e+003;4.1687177734e+003;4.1669228516e+003;4.1660258789e+003;4.1419228516e+003;
1.7890625000e+000;4.0592307129e+003;4.0708974609e+003;4.0652563477e+003;4.0729487305e+003;4.0903845215e+003;4.0955129395e+003;4.0724357910e+003;4.0752563477e+003;4.0958974609e+003;4.1005126953e+003;4.0770512695e+003;4.0693588867e+003;4.0712819824e+003;4.0451281738e+003;
1.7968750000e+000;4.0746154785e+003;4.0853845215e+003;4.0793588867e+003;4.0839743652e+003;4.1111538086e+003;4.1117949219e+003;4.0908974609e+003;4.0917949219e+003;4.1146152344e+003;4.1169228516e+003;4.0926923828e+003;4.0806411133e+003;4.0885898438e+003;4.0596154785e+003;
1.8046875000e+000;4.0625642090e+003;4.0733332520e+003;4.0651281738e+003;4.0744870605e+003;4.0917949219e+003;4.1105126953e+003;4.0839743652e+003;4.0860256348e+003;4.1083334961e+003;4.1088461914e+003;4.0782050781e+003;4.0676923828e+003;4.0801281738e+003;4.0519230957e+003;
1.8125000000e+000;4.0571794434e+003;4.0669230957e+003;4.0587180176e+003;4.0687180176e+003;4.0861538086e+003;4.1033334961e+003;4.0780769043e+003;4.0765385742e+003;4.0998715820e+003;4.1006411133e+003;4.0721794434e+003;4.0616667480e+003;4.0733332520e+003;4.0455129395e+003;
1.8203125000e+000;4.0735898438e+003;4.0820512695e+003;4.0770512695e+003;4.0820512695e+003;4.1067949219e+003;4.1102563477e+003;4.0882050781e+003;4.0888461914e+003;4.1179487305e+003;4.1166665039e+003;4.0942307129e+003;4.0824357910e+003;4.0911538086e+003;4.0641025391e+003;
1.8281250000e+000;4.0560256348e+003;4.0662819824e+003;4.0619230957e+003;4.0701281738e+003;4.0876923828e+003;4.0921794434e+003;4.0685898438e+003;4.0715385742e+003;4.1038461914e+003;4.0980771484e+003;4.0798718262e+003;4.0696154785e+003;4.0746154785e+003;4.0502563477e+003;
1.8359375000e+000;4.0379487305e+003;4.0512819824e+003;4.0439743652e+003;4.0594870605e+003;4.0666667480e+003;4.0735898438e+003;4.0488461914e+003;4.0510256348e+003;4.0853845215e+003;4.0753845215e+003;4.0617949219e+003;4.0537180176e+003;4.0553845215e+003;4.0343588867e+003;
1.8437500000e+000;4.0442307129e+003;4.0596154785e+003;4.0467949219e+003;4.0675642090e+003;4.0703845215e+003;4.0750000000e+003;4.0512819824e+003;4.0510256348e+003;4.0856411133e+003;4.0750000000e+003;4.0646154785e+003;4.0584614258e+003;4.0576923828e+003;4.0401281738e+003;
1.8515625000e+000;4.0288461914e+003;4.0297436523e+003;4.0278205566e+003;4.0280769043e+003;4.0194870605e+003;4.0394870605e+003;4.0251281738e+003;4.0189743652e+003;4.0402563477e+003;4.0358974609e+003;4.0355129395e+003;4.0400000000e+003;4.0320512695e+003;4.0261538086e+003;
1.8593750000e+000;4.0569230957e+003;4.0565385742e+003;4.0546154785e+003;4.0584614258e+003;4.0369230957e+003;4.0612819824e+003;4.0512819824e+003;4.0442307129e+003;4.0624357910e+003;4.0557692871e+003;4.0629487305e+003;4.0664101563e+003;4.0602563477e+003;4.0550000000e+003;
1.8671875000e+000;4.1126923828e+003;4.1180771484e+003;4.1071796875e+003;4.1226923828e+003;4.1182050781e+003;4.1044873047e+003;4.1016665039e+003;4.1029487305e+003;4.1142309570e+003;4.1142309570e+003;4.1233334961e+003;4.1262822266e+003;4.1148715820e+003;4.1156411133e+003;
1.8750000000e+000;4.0608974609e+003;4.0652563477e+003;4.0587180176e+003;4.0708974609e+003;4.0892307129e+003;4.0696154785e+003;4.0644870605e+003;4.0576923828e+003;4.0682050781e+003;4.0673076172e+003;4.0753845215e+003;4.0715385742e+003;4.0730769043e+003;4.0687180176e+003;
1.8828125000e+000;4.0928205566e+003;4.0960258789e+003;4.0888461914e+003;4.0998715820e+003;4.1178203125e+003;4.1010258789e+003;4.0955129395e+003;4.0962822266e+003;4.1100000000e+003;4.1087177734e+003;4.1129487305e+003;4.1044873047e+003;4.1093588867e+003;4.1032050781e+003;
1.8906250000e+000;4.0806411133e+003;4.0893588867e+003;4.0721794434e+003;4.0900000000e+003;4.1160258789e+003;4.1019228516e+003;4.0917949219e+003;4.0962822266e+003;4.1243588867e+003;4.1193588867e+003;4.1111538086e+003;4.0964101563e+003;4.1007690430e+003;4.0874357910e+003;
1.8984375000e+000;4.1019228516e+003;4.1141025391e+003;4.0912819824e+003;4.1098715820e+003;4.1397436523e+003;4.1262822266e+003;4.1144873047e+003;4.1178203125e+003;4.1501284180e+003;4.1443588867e+003;4.1312822266e+003;4.1150000000e+003;4.1238461914e+003;4.1064101563e+003;
1.9062500000e+000;4.0397436523e+003;4.0542307129e+003;4.0353845215e+003;4.0494870605e+003;4.0678205566e+003;4.0811538086e+003;4.0626923828e+003;4.0698718262e+003;4.1010258789e+003;4.0870512695e+003;4.0652563477e+003;4.0555129395e+003;4.0675642090e+003;4.0485898438e+003;
1.9140625000e+000;4.0534614258e+003;4.0653845215e+003;4.0467949219e+003;4.0753845215e+003;4.0796154785e+003;4.0853845215e+003;4.0711538086e+003;4.0716667480e+003;4.0993588867e+003;4.0812819824e+003;4.0661538086e+003;4.0642307129e+003;4.0635898438e+003;4.0471794434e+003;
1.9218750000e+000;4.0474357910e+003;4.0574357910e+003;4.0408974609e+003;4.0692307129e+003;4.0647436523e+003;4.0762819824e+003;4.0612819824e+003;4.0603845215e+003;4.0897436523e+003;4.0711538086e+003;4.0571794434e+003;4.0583332520e+003;4.0525642090e+003;4.0403845215e+003;
1.9296875000e+000;4.0232050781e+003;4.0297436523e+003;4.0193588867e+003;4.0406411133e+003;4.0329487305e+003;4.0521794434e+003;4.0357692871e+003;4.0305129395e+003;4.0619230957e+003;4.0417949219e+003;4.0310256348e+003;4.0339743652e+003;4.0269230957e+003;4.0188461914e+003;
1.9375000000e+000;4.0179487305e+003;4.0203845215e+003;4.0173076172e+003;4.0275642090e+003;4.0260256348e+003;4.0455129395e+003;4.0289743652e+003;4.0191025391e+003;4.0524357910e+003;4.0312819824e+003;4.0253845215e+003;4.0284614258e+003;4.0238461914e+003;4.0174357910e+003;
1.9453125000e+000;4.0810256348e+003;4.0855129395e+003;4.0853845215e+003;4.0982050781e+003;4.0780769043e+003;4.0755129395e+003;4.0823076172e+003;4.0748718262e+003;4.0957692871e+003;4.0933332520e+003;4.0950000000e+003;4.1076923828e+003;4.0910256348e+003;4.0862819824e+003;
1.9531250000e+000;4.0926923828e+003;4.0971796875e+003;4.0951281738e+003;4.1119228516e+003;4.0824357910e+003;4.0728205566e+003;4.0910256348e+003;4.0789743652e+003;4.0975639648e+003;4.0996152344e+003;4.1028203125e+003;4.1129487305e+003;4.0991025391e+003;4.0964101563e+003;
1.9609375000e+000;4.1423076172e+003;4.1384614258e+003;4.1429487305e+003;4.1452563477e+003;4.1538461914e+003;4.0996152344e+003;4.1329487305e+003;4.1280771484e+003;4.1425639648e+003;4.1565385742e+003;4.1564101563e+003;4.1556411133e+003;4.1548715820e+003;4.1469228516e+003;
1.9687500000e+000;4.1130771484e+003;4.1161538086e+003;4.1117949219e+003;4.1151284180e+003;4.1219228516e+003;4.0743588867e+003;4.1139741211e+003;4.1152563477e+003;4.1187177734e+003;4.1298715820e+003;4.1301284180e+003;4.1257690430e+003;4.1253847656e+003;4.1166665039e+003;
1.9765625000e+000;4.1411538086e+003;4.1432050781e+003;4.1367949219e+003;4.1392309570e+003;4.1385898438e+003;4.0955129395e+003;4.1379487305e+003;4.1451284180e+003;4.1483334961e+003;4.1601284180e+003;4.1552563477e+003;4.1493588867e+003;4.1502563477e+003;4.1442309570e+003;
1.9843750000e+000;4.0693588867e+003;4.0684614258e+003;4.0660256348e+003;4.0733332520e+003;4.0714101563e+003;4.0379487305e+003;4.0783332520e+003;4.0850000000e+003;4.0910256348e+003;4.0971796875e+003;4.0775642090e+003;4.0807692871e+003;4.0802563477e+003;4.0712819824e+003;
1.9921875000e+000;4.0856411133e+003;4.0893588867e+003;4.0800000000e+003;4.0928205566e+003;4.0926923828e+003;4.0585898438e+003;4.0989741211e+003;4.1014101563e+003;4.1097436523e+003;4.1125639648e+003;4.0928205566e+003;4.0955129395e+003;4.0983334961e+003;4.0856411133e+003;
2.0000000000e+000;4.1223076172e+003;4.1292309570e+003;4.1161538086e+003;4.1320512695e+003;4.1270512695e+003;4.0941025391e+003;4.1302563477e+003;4.1367949219e+003;4.1493588867e+003;4.1479487305e+003;4.1282050781e+003;4.1271796875e+003;4.1338461914e+003;4.1234614258e+003;
2.0078125000e+000;4.0906411133e+003;4.0932050781e+003;4.0878205566e+003;4.0992309570e+003;4.0947436523e+003;4.0626923828e+003;4.0956411133e+003;4.1030771484e+003;4.1160258789e+003;4.1121796875e+003;4.0941025391e+003;4.0946154785e+003;4.0987177734e+003;4.0929487305e+003;
2.0156250000e+000;4.0811538086e+003;4.0739743652e+003;4.0789743652e+003;4.0767949219e+003;4.0861538086e+003;4.0462819824e+003;4.0838461914e+003;4.0839743652e+003;4.0953845215e+003;4.0874357910e+003;4.0775642090e+003;4.0937180176e+003;4.0820512695e+003;4.0824357910e+003;
2.0234375000e+000;4.0794870605e+003;4.0748718262e+003;4.0774357910e+003;4.0784614258e+003;4.0806411133e+003;4.0448718262e+003;4.0821794434e+003;4.0833332520e+003;4.0960258789e+003;4.0870512695e+003;4.0785898438e+003;4.0980771484e+003;4.0823076172e+003;4.0829487305e+003;
2.0312500000e+000;4.0128205566e+003;4.0146154785e+003;4.0133332520e+003;4.0271794434e+003;4.0193588867e+003;3.9862819824e+003;4.0150000000e+003;4.0052563477e+003;4.0276923828e+003;4.0212819824e+003;4.0126923828e+003;4.0300000000e+003;4.0139743652e+003;4.0156411133e+003;
2.0390625000e+000;4.0260256348e+003;4.0255129395e+003;4.0273076172e+003;4.0387180176e+003;4.0385898438e+003;3.9987180176e+003;4.0261538086e+003;4.0144870605e+003;4.0384614258e+003;4.0376923828e+003;4.0256411133e+003;4.0406411133e+003;4.0271794434e+003;4.0287180176e+003;
2.0468750000e+000;3.9962819824e+003;3.9896154785e+003;4.0006411133e+003;4.0075642090e+003;4.0002563477e+003;3.9748718262e+003;3.9997436523e+003;3.9873076172e+003;4.0098718262e+003;4.0130769043e+003;3.9978205566e+003;4.0094870605e+003;4.0007692871e+003;4.0014101563e+003;
2.0546875000e+000;3.9798718262e+003;3.9735898438e+003;3.9826923828e+003;3.9919230957e+003;3.9716667480e+003;3.9614101563e+003;3.9867949219e+003;3.9711538086e+003;3.9941025391e+003;3.9944870605e+003;3.9807692871e+003;3.9898718262e+003;3.9853845215e+003;3.9834614258e+003;
2.0625000000e+000;3.9991025391e+003;3.9966667480e+003;3.9975642090e+003;4.0110256348e+003;3.9837180176e+003;3.9794870605e+003;4.0073076172e+003;3.9897436523e+003;4.0142307129e+003;4.0129487305e+003;3.9996154785e+003;4.0052563477e+003;4.0061538086e+003;4.0002563477e+003;
2.0703125000e+000;4.0017949219e+003;4.0065385742e+003;4.0001281738e+003;4.0126923828e+003;4.0382050781e+003;3.9765385742e+003;4.0133332520e+003;4.0078205566e+003;4.0150000000e+003;4.0308974609e+003;4.0169230957e+003;4.0207692871e+003;4.0247436523e+003;4.0175642090e+003;
2.0781250000e+000;4.0392307129e+003;4.0412819824e+003;4.0351281738e+003;4.0474357910e+003;4.0612819824e+003;4.0051281738e+003;4.0437180176e+003;4.0425642090e+003;4.0483332520e+003;4.0673076172e+003;4.0534614258e+003;4.0546154785e+003;4.0619230957e+003;4.0521794434e+003;
2.0859375000e+000;4.0821794434e+003;4.0844870605e+003;4.0762819824e+003;4.0910256348e+003;4.0724357910e+003;4.0342307129e+003;4.0816667480e+003;4.0848718262e+003;4.0885898438e+003;4.1079487305e+003;4.0892307129e+003;4.0914101563e+003;4.1006411133e+003;4.0843588867e+003;
2.0937500000e+000;4.1344873047e+003;4.1465385742e+003;4.1279487305e+003;4.1369228516e+003;4.1419228516e+003;4.0857692871e+003;4.1300000000e+003;4.1402563477e+003;4.1451284180e+003;4.1688461914e+003;4.1443588867e+003;4.1446152344e+003;4.1560258789e+003;4.1369228516e+003;
2.1015625000e+000;4.0887180176e+003;4.1028203125e+003;4.0828205566e+003;4.0947436523e+003;4.0973076172e+003;4.0502563477e+003;4.0894870605e+003;4.0992309570e+003;4.1057690430e+003;4.1258974609e+003;4.1001284180e+003;4.1014101563e+003;4.1084614258e+003;4.0914101563e+003;
2.1093750000e+000;4.0833332520e+003;4.1044873047e+003;4.0757692871e+003;4.0937180176e+003;4.0962822266e+003;4.0619230957e+003;4.1025639648e+003;4.0975639648e+003;4.1020512695e+003;4.1033334961e+003;4.0842307129e+003;4.0851281738e+003;4.0898718262e+003;4.0784614258e+003;
2.1171875000e+000;4.1248715820e+003;4.1289741211e+003;4.1166665039e+003;4.1246152344e+003;4.1347436523e+003;4.0939743652e+003;4.1307690430e+003;4.1314101563e+003;4.1380771484e+003;4.1385898438e+003;4.1157690430e+003;4.1235898438e+003;4.1211538086e+003;4.1144873047e+003;
2.1250000000e+000;4.1379487305e+003;4.1426923828e+003;4.1289741211e+003;4.1402563477e+003;4.1512822266e+003;4.1052563477e+003;4.1432050781e+003;4.1403847656e+003;4.1519228516e+003;4.1529487305e+003;4.1296152344e+003;4.1371796875e+003;4.1362822266e+003;4.1282050781e+003;
2.1328125000e+000;4.1684614258e+003;4.1780771484e+003;4.1583334961e+003;4.1717949219e+003;4.1835898438e+003;4.1339741211e+003;4.1737177734e+003;4.1708974609e+003;4.1866665039e+003;4.1893588867e+003;4.1643588867e+003;4.1700000000e+003;4.1720512695e+003;4.1619228516e+003;
2.1406250000e+000;4.1651284180e+003;4.1779487305e+003;4.1555126953e+003;4.1660258789e+003;4.1738461914e+003;4.1346152344e+003;4.1725639648e+003;4.1747436523e+003;4.1929487305e+003;4.1985898438e+003;4.1693588867e+003;4.1741025391e+003;4.1756411133e+003;4.1673076172e+003;
2.1484375000e+000;4.1437177734e+003;4.1512822266e+003;4.1339741211e+003;4.1411538086e+003;4.1503847656e+003;4.1146152344e+003;4.1512822266e+003;4.1507690430e+003;4.1691025391e+003;4.1753847656e+003;4.1464101563e+003;4.1519228516e+003;4.1519228516e+003;4.1450000000e+003;
2.1562500000e+000;4.2044873047e+003;4.2050000000e+003;4.1952563477e+003;4.1888461914e+003;4.2047436523e+003;4.1584614258e+003;4.2012822266e+003;4.2025639648e+003;4.2206411133e+003;4.2375639648e+003;4.2065385742e+003;4.2133334961e+003;4.2103847656e+003;4.1992309570e+003;
2.1640625000e+000;4.0830769043e+003;4.0915385742e+003;4.0815385742e+003;4.0953845215e+003;4.0667949219e+003;4.0525642090e+003;4.0987177734e+003;4.0961538086e+003;4.1034614258e+003;4.1191025391e+003;4.0975639648e+003;4.1028203125e+003;4.0969228516e+003;4.0878205566e+003;
2.1718750000e+000;4.1062822266e+003;4.1132050781e+003;4.1028203125e+003;4.1170512695e+003;4.0987177734e+003;4.0720512695e+003;4.1206411133e+003;4.1169228516e+003;4.1198715820e+003;4.1367949219e+003;4.1161538086e+003;4.1197436523e+003;4.1165385742e+003;4.1084614258e+003;
2.1796875000e+000;4.1378203125e+003;4.1433334961e+003;4.1333334961e+003;4.1416665039e+003;4.1438461914e+003;4.0964101563e+003;4.1465385742e+003;4.1464101563e+003;4.1453847656e+003;4.1644873047e+003;4.1415385742e+003;4.1465385742e+003;4.1434614258e+003;4.1370512695e+003;
2.1875000000e+000;4.1384614258e+003;4.1438461914e+003;4.1348715820e+003;4.1371796875e+003;4.1558974609e+003;4.0921794434e+003;4.1424360352e+003;4.1450000000e+003;4.1417949219e+003;4.1616665039e+003;4.1366665039e+003;4.1458974609e+003;4.1398715820e+003;4.1353847656e+003;
2.1953125000e+000;4.1765385742e+003;4.1815385742e+003;4.1747436523e+003;4.1765385742e+003;4.1780771484e+003;4.1196152344e+003;4.1710258789e+003;4.1703847656e+003;4.1714101563e+003;4.1941025391e+003;4.1717949219e+003;4.1771796875e+003;4.1766665039e+003;4.1706411133e+003;
2.2031250000e+000;4.1705126953e+003;4.1750000000e+003;4.1719228516e+003;4.1719228516e+003;4.1717949219e+003;4.1162822266e+003;4.1648715820e+003;4.1716665039e+003;4.1723076172e+003;4.1956411133e+003;4.1694873047e+003;4.1743588867e+003;4.1732050781e+003;4.1691025391e+003;
2.2109375000e+000;4.1306411133e+003;4.1437177734e+003;4.1315385742e+003;4.1410258789e+003;4.1462822266e+003;4.0892307129e+003;4.1307690430e+003;4.1439741211e+003;4.1483334961e+003;4.1578203125e+003;4.1344873047e+003;4.1420512695e+003;4.1351284180e+003;4.1312822266e+003;
2.2187500000e+000;4.1338461914e+003;4.1507690430e+003;4.1332050781e+003;4.1571796875e+003;4.1508974609e+003;4.1012822266e+003;4.1393588867e+003;4.1538461914e+003;4.1570512695e+003;4.1662822266e+003;4.1441025391e+003;4.1497436523e+003;4.1424360352e+003;4.1353847656e+003;
2.2265625000e+000;4.1303847656e+003;4.1464101563e+003;4.1291025391e+003;4.1523076172e+003;4.1491025391e+003;4.0970512695e+003;4.1365385742e+003;4.1464101563e+003;4.1498715820e+003;4.1598715820e+003;4.1379487305e+003;4.1430771484e+003;4.1365385742e+003;4.1306411133e+003;
2.2343750000e+000;4.1762822266e+003;4.1801284180e+003;4.1732050781e+003;4.1833334961e+003;4.1810258789e+003;4.1347436523e+003;4.1775639648e+003;4.1832050781e+003;4.1928203125e+003;4.2042309570e+003;4.1789741211e+003;4.1852563477e+003;4.1757690430e+003;4.1720512695e+003;
2.2421875000e+000;4.1179487305e+003;4.1176923828e+003;4.1197436523e+003;4.1456411133e+003;4.1129487305e+003;4.0908974609e+003;4.1329487305e+003;4.1383334961e+003;4.1423076172e+003;4.1466665039e+003;4.1247436523e+003;4.1334614258e+003;4.1243588867e+003;4.1115385742e+003;
2.2500000000e+000;4.1241025391e+003;4.1275639648e+003;4.1234614258e+003;4.1597436523e+003;4.1316665039e+003;4.0938461914e+003;4.1375639648e+003;4.1465385742e+003;4.1501284180e+003;4.1529487305e+003;4.1301284180e+003;4.1415385742e+003;4.1302563477e+003;4.1171796875e+003;
2.2578125000e+000;4.1051284180e+003;4.1130771484e+003;4.1028203125e+003;4.1474360352e+003;4.1285898438e+003;4.0739743652e+003;4.1170512695e+003;4.1273076172e+003;4.1311538086e+003;4.1316665039e+003;4.1092309570e+003;4.1247436523e+003;4.1089741211e+003;4.0983334961e+003;
2.2656250000e+000;4.0673076172e+003;4.0791025391e+003;4.0642307129e+003;4.1047436523e+003;4.1029487305e+003;4.0391025391e+003;4.0771794434e+003;4.0782050781e+003;4.0785898438e+003;4.0760256348e+003;4.0623076172e+003;4.0823076172e+003;4.0630769043e+003;4.0561538086e+003;
2.2734375000e+000;4.1053847656e+003;4.1152563477e+003;4.1010258789e+003;4.1317949219e+003;4.1320512695e+003;4.0726923828e+003;4.1103847656e+003;4.1105126953e+003;4.1070512695e+003;4.1079487305e+003;4.0966665039e+003;4.1150000000e+003;4.0994873047e+003;4.0905129395e+003;
2.2812500000e+000;4.0905129395e+003;4.0967949219e+003;4.0870512695e+003;4.1205126953e+003;4.0994873047e+003;4.0534614258e+003;4.0907692871e+003;4.1011538086e+003;4.0956411133e+003;4.1037177734e+003;4.0846154785e+003;4.1060258789e+003;4.0897436523e+003;4.0796154785e+003;
2.2890625000e+000;4.0556411133e+003;4.0641025391e+003;4.0538461914e+003;4.0942307129e+003;4.0720512695e+003;4.0225642090e+003;4.0603845215e+003;4.0642307129e+003;4.0611538086e+003;4.0657692871e+003;4.0489743652e+003;4.0725642090e+003;4.0543588867e+003;4.0456411133e+003;
2.2968750000e+000;4.1470512695e+003;4.1555126953e+003;4.1428203125e+003;4.1823076172e+003;4.1657690430e+003;4.1057690430e+003;4.1474360352e+003;4.1457690430e+003;4.1443588867e+003;4.1506411133e+003;4.1379487305e+003;4.1591025391e+003;4.1425639648e+003;4.1328203125e+003;
2.3046875000e+000;4.1917949219e+003;4.1983334961e+003;4.1864101563e+003;4.2219228516e+003;4.2037177734e+003;4.1453847656e+003;4.1874360352e+003;4.1902563477e+003;4.1874360352e+003;4.1984614258e+003;4.1835898438e+003;4.2030771484e+003;4.1870512695e+003;4.1769228516e+003;
2.3125000000e+000;4.1862822266e+003;4.1915385742e+003;4.1806411133e+003;4.2146152344e+003;4.1932050781e+003;4.1388461914e+003;4.1802563477e+003;4.1856411133e+003;4.1819228516e+003;4.1964101563e+003;4.1787177734e+003;4.1971796875e+003;4.1815385742e+003;4.1719228516e+003;
2.3203125000e+000;4.1419228516e+003;4.1493588867e+003;4.1410258789e+003;4.1715385742e+003;4.1561538086e+003;4.1042309570e+003;4.1433334961e+003;4.1476923828e+003;4.1535898438e+003;4.1610258789e+003;4.1410258789e+003;4.1544873047e+003;4.1470512695e+003;4.1337177734e+003;
2.3281250000e+000;4.1525639648e+003;4.1587177734e+003;4.1530771484e+003;4.1829487305e+003;4.1714101563e+003;4.1175639648e+003;4.1593588867e+003;4.1607690430e+003;4.1633334961e+003;4.1700000000e+003;4.1512822266e+003;4.1658974609e+003;4.1571796875e+003;4.1429487305e+003;
2.3359375000e+000;4.2907690430e+003;4.2973076172e+003;4.2837177734e+003;4.3114101563e+003;4.2887177734e+003;4.2464101563e+003;4.2947436523e+003;4.2971796875e+003;4.2994873047e+003;4.3132050781e+003;4.2876923828e+003;4.2992309570e+003;4.2937177734e+003;4.2741025391e+003;
2.3437500000e+000;4.2655126953e+003;4.2703847656e+003;4.2584614258e+003;4.2828203125e+003;4.2529487305e+003;4.2219228516e+003;4.2675639648e+003;4.2716665039e+003;4.2755126953e+003;4.2871796875e+003;4.2628203125e+003;4.2741025391e+003;4.2683334961e+003;4.2489741211e+003;
2.3515625000e+000;4.2387177734e+003;4.2398715820e+003;4.2319228516e+003;4.2502563477e+003;4.2378203125e+003;4.1903847656e+003;4.2367949219e+003;4.2375639648e+003;4.2415385742e+003;4.2482050781e+003;4.2332050781e+003;4.2426923828e+003;4.2380771484e+003;4.2191025391e+003;
2.3593750000e+000;4.2358974609e+003;4.2478203125e+003;4.2360258789e+003;4.2651284180e+003;4.2598715820e+003;4.1911538086e+003;4.2353847656e+003;4.2351284180e+003;4.2392309570e+003;4.2537177734e+003;4.2319228516e+003;4.2494873047e+003;4.2348715820e+003;4.2219228516e+003;
2.3671875000e+000;4.1983334961e+003;4.2098715820e+003;4.1964101563e+003;4.2288461914e+003;4.2143588867e+003;4.1557690430e+003;4.1991025391e+003;4.1925639648e+003;4.1982050781e+003;4.2119228516e+003;4.1929487305e+003;4.2102563477e+003;4.1964101563e+003;4.1842309570e+003;
2.3750000000e+000;4.1780771484e+003;4.1848715820e+003;4.1716665039e+003;4.2016665039e+003;4.1867949219e+003;4.1294873047e+003;4.1720512695e+003;4.1638461914e+003;4.1717949219e+003;4.1874360352e+003;4.1703847656e+003;4.1857690430e+003;4.1746152344e+003;4.1646152344e+003;
2.3828125000e+000;4.1653847656e+003;4.1705126953e+003;4.1596152344e+003;4.1880771484e+003;4.1735898438e+003;4.1146152344e+003;4.1564101563e+003;4.1502563477e+003;4.1579487305e+003;4.1751284180e+003;4.1578203125e+003;4.1735898438e+003;4.1623076172e+003;4.1530771484e+003;
2.3906250000e+000;4.1932050781e+003;4.1998715820e+003;4.1891025391e+003;4.2141025391e+003;4.1907690430e+003;4.1321796875e+003;4.1721796875e+003;4.1747436523e+003;4.1817949219e+003;4.2039741211e+003;4.1942309570e+003;4.2044873047e+003;4.1979487305e+003;4.1826923828e+003;
2.3984375000e+000;4.1800000000e+003;4.1851284180e+003;4.1784614258e+003;4.1994873047e+003;4.1726923828e+003;4.1180771484e+003;4.1565385742e+003;4.1643588867e+003;4.1703847656e+003;4.1932050781e+003;4.1851284180e+003;4.1967949219e+003;4.1869228516e+003;4.1726923828e+003;
2.4062500000e+000;4.1205126953e+003;4.1173076172e+003;4.1228203125e+003;4.1397436523e+003;4.1100000000e+003;4.0619230957e+003;4.1093588867e+003;4.1079487305e+003;4.1130771484e+003;4.1269228516e+003;4.1237177734e+003;4.1405126953e+003;4.1225639648e+003;4.1153847656e+003;
2.4140625000e+000;4.1802563477e+003;4.1764101563e+003;4.1787177734e+003;4.1974360352e+003;4.1721796875e+003;4.1147436523e+003;4.1667949219e+003;4.1683334961e+003;4.1742309570e+003;4.1865385742e+003;4.1824360352e+003;4.1953847656e+003;4.1814101563e+003;4.1724360352e+003;
2.4218750000e+000;4.2117949219e+003;4.2079487305e+003;4.2108974609e+003;4.2319228516e+003;4.1970512695e+003;4.1434614258e+003;4.1923076172e+003;4.2066665039e+003;4.2115385742e+003;4.2203847656e+003;4.2115385742e+003;4.2232050781e+003;4.2097436523e+003;4.2016665039e+003;
2.4296875000e+000;4.1705126953e+003;4.1669228516e+003;4.1735898438e+003;4.1930771484e+003;4.1455126953e+003;4.1082050781e+003;4.1537177734e+003;4.1644873047e+003;4.1694873047e+003;4.1747436523e+003;4.1646152344e+003;4.1794873047e+003;4.1635898438e+003;4.1594873047e+003;
2.4375000000e+000;4.1520512695e+003;4.1491025391e+003;4.1570512695e+003;4.1729487305e+003;4.1193588867e+003;4.0935898438e+003;4.1387177734e+003;4.1407690430e+003;4.1473076172e+003;4.1503847656e+003;4.1392309570e+003;4.1561538086e+003;4.1403847656e+003;4.1385898438e+003;
2.4453125000e+000;4.1117949219e+003;4.1130771484e+003;4.1142309570e+003;4.1384614258e+003;4.1302563477e+003;4.0620512695e+003;4.1029487305e+003;4.1044873047e+003;4.1116665039e+003;4.1164101563e+003;4.1038461914e+003;4.1162822266e+003;4.1034614258e+003;4.0984614258e+003;
2.4531250000e+000;4.1021796875e+003;4.1056411133e+003;4.1055126953e+003;4.1323076172e+003;4.1161538086e+003;4.0546154785e+003;4.0955129395e+003;4.0928205566e+003;4.1010258789e+003;4.1056411133e+003;4.0947436523e+003;4.1061538086e+003;4.0948718262e+003;4.0908974609e+003;
2.4609375000e+000;4.0502563477e+003;4.0403845215e+003;4.0594870605e+003;4.0693588867e+003;4.0443588867e+003;4.0124357910e+003;4.0471794434e+003;4.0403845215e+003;4.0469230957e+003;4.0519230957e+003;4.0434614258e+003;4.0626923828e+003;4.0444870605e+003;4.0439743652e+003;
2.4687500000e+000;4.1560258789e+003;4.1469228516e+003;4.1589741211e+003;4.1678203125e+003;4.1483334961e+003;4.1026923828e+003;4.1387177734e+003;4.1374360352e+003;4.1361538086e+003;4.1512822266e+003;4.1470512695e+003;4.1619228516e+003;4.1462822266e+003;4.1500000000e+003;
2.4765625000e+000;4.1571796875e+003;4.1514101563e+003;4.1600000000e+003;4.1758974609e+003;4.1470512695e+003;4.1015385742e+003;4.1387177734e+003;4.1393588867e+003;4.1367949219e+003;4.1552563477e+003;4.1492309570e+003;4.1642309570e+003;4.1485898438e+003;4.1520512695e+003;
2.4843750000e+000;4.1229487305e+003;4.1157690430e+003;4.1239741211e+003;4.1429487305e+003;4.1042309570e+003;4.0691025391e+003;4.1071796875e+003;4.1021796875e+003;4.0980771484e+003;4.1192309570e+003;4.1126923828e+003;4.1265385742e+003;4.1160258789e+003;4.1124360352e+003;
2.4921875000e+000;4.1020512695e+003;4.0906411133e+003;4.1062822266e+003;4.1176923828e+003;4.0937180176e+003;4.0461538086e+003;4.0874357910e+003;4.0894870605e+003;4.0862819824e+003;4.1070512695e+003;4.0965385742e+003;4.1111538086e+003;4.0985898438e+003;4.0994873047e+003;
2.5000000000e+000;4.0860256348e+003;4.0778205566e+003;4.0935898438e+003;4.1084614258e+003;4.0833332520e+003;4.0342307129e+003;4.0780769043e+003;4.0764101563e+003;4.0757692871e+003;4.0923076172e+003;4.0817949219e+003;4.0964101563e+003;4.0839743652e+003;4.0839743652e+003;
2.5078125000e+000;4.1067949219e+003;4.1026923828e+003;4.1151284180e+003;4.1329487305e+003;4.1012822266e+003;4.0570512695e+003;4.1024360352e+003;4.1006411133e+003;4.1029487305e+003;4.1152563477e+003;4.1037177734e+003;4.1169228516e+003;4.1057690430e+003;4.1024360352e+003;
2.5156250000e+000;4.1552563477e+003;4.1571796875e+003;4.1594873047e+003;4.1793588867e+003;4.1323076172e+003;4.1093588867e+003;4.1515385742e+003;4.1621796875e+003;4.1657690430e+003;4.1717949219e+003;4.1561538086e+003;4.1657690430e+003;4.1553847656e+003;4.1480771484e+003;
2.5234375000e+000;4.1506411133e+003;4.1544873047e+003;4.1525639648e+003;4.1730771484e+003;4.1307690430e+003;4.1076923828e+003;4.1497436523e+003;4.1624360352e+003;4.1632050781e+003;4.1678203125e+003;4.1523076172e+003;4.1603847656e+003;4.1519228516e+003;4.1438461914e+003;
2.5312500000e+000;4.2475639648e+003;4.2570512695e+003;4.2464101563e+003;4.2617949219e+003;4.2747436523e+003;4.1966665039e+003;4.2473076172e+003;4.2542309570e+003;4.2521796875e+003;4.2648715820e+003;4.2469228516e+003;4.2496152344e+003;4.2515385742e+003;4.2406411133e+003;
2.5390625000e+000;4.2674360352e+003;4.2773076172e+003;4.2670512695e+003;4.2815385742e+003;4.2960258789e+003;4.2167949219e+003;4.2647436523e+003;4.2728203125e+003;4.2724360352e+003;4.2867949219e+003;4.2665385742e+003;4.2711538086e+003;4.2700000000e+003;4.2617949219e+003;
2.5468750000e+000;4.2651284180e+003;4.2719228516e+003;4.2643588867e+003;4.2803847656e+003;4.2747436523e+003;4.2185898438e+003;4.2600000000e+003;4.2624360352e+003;4.2647436523e+003;4.2752563477e+003;4.2606411133e+003;4.2685898438e+003;4.2635898438e+003;4.2584614258e+003;
2.5546875000e+000;4.2934614258e+003;4.2969228516e+003;4.2911538086e+003;4.3035898438e+003;4.2944873047e+003;4.2430771484e+003;4.2838461914e+003;4.2841025391e+003;4.2880771484e+003;4.2982050781e+003;4.2874360352e+003;4.2947436523e+003;4.2919228516e+003;4.2843588867e+003;
2.5625000000e+000;4.3184614258e+003;4.3180771484e+003;4.3161538086e+003;4.3219228516e+003;4.3153847656e+003;4.2638461914e+003;4.3030771484e+003;4.3047436523e+003;4.3108974609e+003;4.3234614258e+003;4.3138461914e+003;4.3208974609e+003;4.3183334961e+003;4.3088461914e+003;
2.5703125000e+000;4.2007690430e+003;4.1997436523e+003;4.1965385742e+003;4.2070512695e+003;4.1996152344e+003;4.1494873047e+003;4.1808974609e+003;4.1725639648e+003;4.1755126953e+003;4.1908974609e+003;4.1914101563e+003;4.2073076172e+003;4.1921796875e+003;4.1946152344e+003;
2.5781250000e+000;4.2033334961e+003;4.2028203125e+003;4.1991025391e+003;4.2058974609e+003;4.1983334961e+003;4.1500000000e+003;4.1825639648e+003;4.1764101563e+003;4.1765385742e+003;4.1947436523e+003;4.1923076172e+003;4.2082050781e+003;4.1953847656e+003;4.1970512695e+003;
2.5859375000e+000;4.2085898438e+003;4.2019228516e+003;4.2083334961e+003;4.2164101563e+003;4.2041025391e+003;4.1614101563e+003;4.1943588867e+003;4.1828203125e+003;4.1779487305e+003;4.2030771484e+003;4.1956411133e+003;4.2101284180e+003;4.2030771484e+003;4.1948715820e+003;
2.5937500000e+000;4.2241025391e+003;4.2234614258e+003;4.2266665039e+003;4.2350000000e+003;4.2050000000e+003;4.1787177734e+003;4.2157690430e+003;4.2166665039e+003;4.2028203125e+003;4.2306411133e+003;4.2210258789e+003;4.2337177734e+003;4.2288461914e+003;4.2189741211e+003;
2.6015625000e+000;4.2052563477e+003;4.2070512695e+003;4.2071796875e+003;4.2130771484e+003;4.1847436523e+003;4.1629487305e+003;4.2003847656e+003;4.1991025391e+003;4.1846152344e+003;4.2125639648e+003;4.2043588867e+003;4.2147436523e+003;4.2130771484e+003;4.2014101563e+003;
2.6093750000e+000;4.3346152344e+003;4.3332050781e+003;4.3257690430e+003;4.3311538086e+003;4.3456411133e+003;4.2817949219e+003;4.3207690430e+003;4.3235898438e+003;4.3164101563e+003;4.3474360352e+003;4.3326923828e+003;4.3367949219e+003;4.3425639648e+003;4.3237177734e+003;
2.6171875000e+000;4.3275639648e+003;4.3246152344e+003;4.3205126953e+003;4.3266665039e+003;4.3452563477e+003;4.2743588867e+003;4.3135898438e+003;4.3192309570e+003;4.3126923828e+003;4.3416665039e+003;4.3217949219e+003;4.3292309570e+003;4.3325639648e+003;4.3148715820e+003;
2.6250000000e+000;4.3133334961e+003;4.3119228516e+003;4.3108974609e+003;4.3117949219e+003;4.3279487305e+003;4.2580771484e+003;4.3006411133e+003;4.3034614258e+003;4.2976923828e+003;4.3229487305e+003;4.2983334961e+003;4.3078203125e+003;4.3148715820e+003;4.2942309570e+003;
2.6328125000e+000;4.3457690430e+003;4.3466665039e+003;4.3442309570e+003;4.3406411133e+003;4.3573076172e+003;4.2874360352e+003;4.3300000000e+003;4.3342309570e+003;4.3301284180e+003;4.3560258789e+003;4.3302563477e+003;4.3375639648e+003;4.3484614258e+003;4.3247436523e+003;
2.6406250000e+000;4.3165385742e+003;4.3260258789e+003;4.3166665039e+003;4.3179487305e+003;4.3289741211e+003;4.2696152344e+003;4.3014101563e+003;4.3012822266e+003;4.3028203125e+003;4.3216665039e+003;4.3019228516e+003;4.3106411133e+003;4.3121796875e+003;4.2935898438e+003;
2.6484375000e+000;4.3197436523e+003;4.3311538086e+003;4.3153847656e+003;4.3205126953e+003;4.3312822266e+003;4.2746152344e+003;4.3053847656e+003;4.2992309570e+003;4.3021796875e+003;4.3196152344e+003;4.3032050781e+003;4.3100000000e+003;4.3111538086e+003;4.2937177734e+003;
2.6562500000e+000;4.3585898438e+003;4.3675639648e+003;4.3460258789e+003;4.3534614258e+003;4.3669228516e+003;4.3134614258e+003;4.3387177734e+003;4.3393588867e+003;4.3458974609e+003;4.3710258789e+003;4.3492309570e+003;4.3483334961e+003;4.3582050781e+003;4.3376923828e+003;
2.6640625000e+000;4.3266665039e+003;4.3344873047e+003;4.3182050781e+003;4.3250000000e+003;4.3342309570e+003;4.2858974609e+003;4.3091025391e+003;4.3096152344e+003;4.3166665039e+003;4.3405126953e+003;4.3185898438e+003;4.3189741211e+003;4.3279487305e+003;4.3093588867e+003;
2.6718750000e+000;4.3351284180e+003;4.3384614258e+003;4.3334614258e+003;4.3302563477e+003;4.3398715820e+003;4.2929487305e+003;4.3165385742e+003;4.3151284180e+003;4.3203847656e+003;4.3428203125e+003;4.3242309570e+003;4.3274360352e+003;4.3306411133e+003;4.3180771484e+003;
2.6796875000e+000;4.3473076172e+003;4.3464101563e+003;4.3457690430e+003;4.3396152344e+003;4.3502563477e+003;4.3028203125e+003;4.3269228516e+003;4.3273076172e+003;4.3296152344e+003;4.3530771484e+003;4.3352563477e+003;4.3407690430e+003;4.3396152344e+003;4.3297436523e+003;
2.6875000000e+000;4.3298715820e+003;4.3255126953e+003;4.3270512695e+003;4.3235898438e+003;4.3292309570e+003;4.2865385742e+003;4.3114101563e+003;4.3126923828e+003;4.3106411133e+003;4.3339741211e+003;4.3178203125e+003;4.3256411133e+003;4.3211538086e+003;4.3126923828e+003;
2.6953125000e+000;4.2805126953e+003;4.2842309570e+003;4.2776923828e+003;4.2769228516e+003;4.2797436523e+003;4.2417949219e+003;4.2738461914e+003;4.2792309570e+003;4.2684614258e+003;4.2942309570e+003;4.2858974609e+003;4.2884614258e+003;4.2873076172e+003;4.2783334961e+003;
2.7031250000e+000;4.2594873047e+003;4.2620512695e+003;4.2570512695e+003;4.2579487305e+003;4.2732050781e+003;4.2241025391e+003;4.2534614258e+003;4.2521796875e+003;4.2428203125e+003;4.2682050781e+003;4.2615385742e+003;4.2646152344e+003;4.2647436523e+003;4.2553847656e+003;
2.7109375000e+000;4.3889741211e+003;4.3915385742e+003;4.3770512695e+003;4.3811538086e+003;4.4002563477e+003;4.3362822266e+003;4.3738461914e+003;4.3670512695e+003;4.3593588867e+003;4.3846152344e+003;4.3732050781e+003;4.3748715820e+003;4.3824360352e+003;4.3739741211e+003;
2.7187500000e+000;4.3788461914e+003;4.3808974609e+003;4.3701284180e+003;4.3694873047e+003;4.3782050781e+003;4.3241025391e+003;4.3610258789e+003;4.3610258789e+003;4.3532050781e+003;4.3773076172e+003;4.3633334961e+003;4.3685898438e+003;4.3701284180e+003;4.3662822266e+003;
2.7265625000e+000;4.2965385742e+003;4.2951284180e+003;4.2946152344e+003;4.2906411133e+003;4.2907690430e+003;4.2475639648e+003;4.2779487305e+003;4.2810258789e+003;4.2753847656e+003;4.2934614258e+003;4.2816665039e+003;4.2950000000e+003;4.2883334961e+003;4.2875639648e+003;
2.7343750000e+000;4.3060258789e+003;4.3071796875e+003;4.2991025391e+003;4.2983334961e+003;4.3034614258e+003;4.2597436523e+003;4.2894873047e+003;4.2992309570e+003;4.3002563477e+003;4.3138461914e+003;4.3060258789e+003;4.3116665039e+003;4.3106411133e+003;4.3039741211e+003;
2.7421875000e+000;4.3006411133e+003;4.3019228516e+003;4.2934614258e+003;4.2907690430e+003;4.2942309570e+003;4.2569228516e+003;4.2879487305e+003;4.2930771484e+003;4.2948715820e+003;4.3082050781e+003;4.3035898438e+003;4.3071796875e+003;4.3047436523e+003;4.3001284180e+003;
2.7500000000e+000;4.3737177734e+003;4.3712822266e+003;4.3601284180e+003;4.3544873047e+003;4.3670512695e+003;4.3238461914e+003;4.3547436523e+003;4.3597436523e+003;4.3605126953e+003;4.3780771484e+003;4.3701284180e+003;4.3739741211e+003;4.3714101563e+003;4.3684614258e+003;
2.7578125000e+000;4.3919228516e+003;4.3883334961e+003;4.3767949219e+003;4.3720512695e+003;4.3897436523e+003;4.3405126953e+003;4.3692309570e+003;4.3784614258e+003;4.3769228516e+003;4.3957690430e+003;4.3824360352e+003;4.3885898438e+003;4.3869228516e+003;4.3835898438e+003;
2.7656250000e+000;4.3592309570e+003;4.3598715820e+003;4.3489741211e+003;4.3493588867e+003;4.3469228516e+003;4.3143588867e+003;4.3398715820e+003;4.3483334961e+003;4.3475639648e+003;4.3628203125e+003;4.3464101563e+003;4.3517949219e+003;4.3548715820e+003;4.3476923828e+003;
2.7734375000e+000;4.3403847656e+003;4.3403847656e+003;4.3316665039e+003;4.3329487305e+003;4.3156411133e+003;4.2979487305e+003;4.3232050781e+003;4.3306411133e+003;4.3319228516e+003;4.3469228516e+003;4.3312822266e+003;4.3358974609e+003;4.3370512695e+003;4.3306411133e+003;
2.7812500000e+000;4.2905126953e+003;4.2874360352e+003;4.2834614258e+003;4.2851284180e+003;4.2611538086e+003;4.2534614258e+003;4.2783334961e+003;4.2829487305e+003;4.2843588867e+003;4.2978203125e+003;4.2835898438e+003;4.2898715820e+003;4.2869228516e+003;4.2830771484e+003;
2.7890625000e+000;4.1911538086e+003;4.1834614258e+003;4.1867949219e+003;4.1860258789e+003;4.1912822266e+003;4.1661538086e+003;4.1932050781e+003;4.1858974609e+003;4.1830771484e+003;4.1912822266e+003;4.1832050781e+003;4.1930771484e+003;4.1882050781e+003;4.1865385742e+003;
2.7968750000e+000;4.2255126953e+003;4.2234614258e+003;4.2187177734e+003;4.2228203125e+003;4.2450000000e+003;4.1994873047e+003;4.2247436523e+003;4.2252563477e+003;4.2208974609e+003;4.2348715820e+003;4.2273076172e+003;4.2337177734e+003;4.2364101563e+003;4.2264101563e+003;
2.8046875000e+000;4.2097436523e+003;4.2085898438e+003;4.2016665039e+003;4.2115385742e+003;4.2147436523e+003;4.1856411133e+003;4.2094873047e+003;4.2089741211e+003;4.2048715820e+003;4.2198715820e+003;4.2117949219e+003;4.2180771484e+003;4.2205126953e+003;4.2112822266e+003;
2.8125000000e+000;4.2124360352e+003;4.2116665039e+003;4.2021796875e+003;4.2147436523e+003;4.2057690430e+003;4.1878203125e+003;4.2124360352e+003;4.2066665039e+003;4.2038461914e+003;4.2187177734e+003;4.2111538086e+003;4.2164101563e+003;4.2205126953e+003;4.2125639648e+003;
2.8203125000e+000;4.2502563477e+003;4.2494873047e+003;4.2378203125e+003;4.2478203125e+003;4.2402563477e+003;4.2200000000e+003;4.2466665039e+003;4.2380771484e+003;4.2373076172e+003;4.2530771484e+003;4.2453847656e+003;4.2478203125e+003;4.2558974609e+003;4.2489741211e+003;
2.8281250000e+000;4.2453847656e+003;4.2453847656e+003;4.2334614258e+003;4.2403847656e+003;4.2464101563e+003;4.2033334961e+003;4.2283334961e+003;4.2356411133e+003;4.2343588867e+003;4.2519228516e+003;4.2426923828e+003;4.2338461914e+003;4.2501284180e+003;4.2414101563e+003;
2.8359375000e+000;4.2675639648e+003;4.2694873047e+003;4.2521796875e+003;4.2611538086e+003;4.2658974609e+003;4.2214101563e+003;4.2491025391e+003;4.2582050781e+003;4.2560258789e+003;4.2719228516e+003;4.2629487305e+003;4.2523076172e+003;4.2717949219e+003;4.2588461914e+003;
2.8437500000e+000;4.2707690430e+003;4.2728203125e+003;4.2558974609e+003;4.2635898438e+003;4.2594873047e+003;4.2228203125e+003;4.2510258789e+003;4.2691025391e+003;4.2691025391e+003;4.2852563477e+003;4.2708974609e+003;4.2707690430e+003;4.2815385742e+003;4.2691025391e+003;
2.8515625000e+000;4.2269228516e+003;4.2244873047e+003;4.2107690430e+003;4.2244873047e+003;4.2211538086e+003;4.1851284180e+003;4.2142309570e+003;4.2215385742e+003;4.2224360352e+003;4.2355126953e+003;4.2216665039e+003;4.2230771484e+003;4.2308974609e+003;4.2243588867e+003;
2.8593750000e+000;4.2358974609e+003;4.2323076172e+003;4.2211538086e+003;4.2337177734e+003;4.2260258789e+003;4.1958974609e+003;4.2256411133e+003;4.2350000000e+003;4.2360258789e+003;4.2458974609e+003;4.2285898438e+003;4.2312822266e+003;4.2400000000e+003;4.2332050781e+003;
2.8671875000e+000;4.1537177734e+003;4.1519228516e+003;4.1474360352e+003;4.1543588867e+003;4.1311538086e+003;4.1426923828e+003;4.1712822266e+003;4.1701284180e+003;4.1698715820e+003;4.1671796875e+003;4.1497436523e+003;4.1576923828e+003;4.1600000000e+003;4.1550000000e+003;
2.8750000000e+000;4.0915385742e+003;4.0924357910e+003;4.0821794434e+003;4.0988461914e+003;4.1251284180e+003;4.1026923828e+003;4.1167949219e+003;4.1189741211e+003;4.1197436523e+003;4.1123076172e+003;4.0892307129e+003;4.0975639648e+003;4.0988461914e+003;4.0961538086e+003;
2.8828125000e+000;4.0666667480e+003;4.0662819824e+003;4.0565385742e+003;4.0837180176e+003;4.1073076172e+003;4.0805129395e+003;4.0928205566e+003;4.0937180176e+003;4.0946154785e+003;4.0852563477e+003;4.0648718262e+003;4.0717949219e+003;4.0762819824e+003;4.0729487305e+003;
2.8906250000e+000;4.1252563477e+003;4.1298715820e+003;4.1125639648e+003;4.1508974609e+003;4.1367949219e+003;4.1237177734e+003;4.1441025391e+003;4.1470512695e+003;4.1450000000e+003;4.1457690430e+003;4.1323076172e+003;4.1351284180e+003;4.1410258789e+003;4.1341025391e+003;
2.8984375000e+000;4.0998715820e+003;4.1051284180e+003;4.0891025391e+003;4.1239741211e+003;4.1061538086e+003;4.0974360352e+003;4.1161538086e+003;4.1205126953e+003;4.1174360352e+003;4.1214101563e+003;4.1067949219e+003;4.1123076172e+003;4.1150000000e+003;4.1085898438e+003;
2.9062500000e+000;4.0664101563e+003;4.0698718262e+003;4.0567949219e+003;4.0885898438e+003;4.0720512695e+003;4.0634614258e+003;4.0801281738e+003;4.0829487305e+003;4.0801281738e+003;4.0844870605e+003;4.0702563477e+003;4.0773076172e+003;4.0810256348e+003;4.0741025391e+003;
2.9140625000e+000;4.0696154785e+003;4.0669230957e+003;4.0557692871e+003;4.0846154785e+003;4.0688461914e+003;4.0557692871e+003;4.0739743652e+003;4.0783332520e+003;4.0760256348e+003;4.0814101563e+003;4.0716667480e+003;4.0742307129e+003;4.0862819824e+003;4.0791025391e+003;
2.9218750000e+000;3.9941025391e+003;3.9925642090e+003;3.9819230957e+003;4.0151281738e+003;3.9841025391e+003;3.9778205566e+003;4.0000000000e+003;4.0050000000e+003;3.9982050781e+003;4.0025642090e+003;4.0032050781e+003;4.0111538086e+003;4.0093588867e+003;4.0134614258e+003;
2.9296875000e+000;4.0035898438e+003;4.0025642090e+003;3.9897436523e+003;4.0257692871e+003;3.9926923828e+003;3.9843588867e+003;4.0073076172e+003;4.0085898438e+003;4.0034614258e+003;4.0058974609e+003;4.0079487305e+003;4.0183332520e+003;4.0165385742e+003;4.0193588867e+003;
2.9375000000e+000;4.0421794434e+003;4.0403845215e+003;4.0257692871e+003;4.0616667480e+003;4.0271794434e+003;4.0167949219e+003;4.0402563477e+003;4.0426923828e+003;4.0403845215e+003;4.0428205566e+003;4.0424357910e+003;4.0528205566e+003;4.0541025391e+003;4.0538461914e+003;
2.9453125000e+000;4.0597436523e+003;4.0555129395e+003;4.0434614258e+003;4.0748718262e+003;4.0405129395e+003;4.0298718262e+003;4.0532050781e+003;4.0608974609e+003;4.0606411133e+003;4.0641025391e+003;4.0597436523e+003;4.0688461914e+003;4.0721794434e+003;4.0698718262e+003;
2.9531250000e+000;3.9789743652e+003;3.9678205566e+003;3.9675642090e+003;3.9970512695e+003;3.9585898438e+003;3.9460256348e+003;3.9705129395e+003;3.9753845215e+003;3.9798718262e+003;3.9773076172e+003;3.9771794434e+003;3.9808974609e+003;3.9851281738e+003;3.9850000000e+003;
2.9609375000e+000;3.9439743652e+003;3.9450000000e+003;3.9303845215e+003;3.9753845215e+003;3.9338461914e+003;3.9370512695e+003;3.9574357910e+003;3.9485898438e+003;3.9505129395e+003;3.9403845215e+003;3.9369230957e+003;3.9478205566e+003;3.9470512695e+003;3.9503845215e+003;
2.9687500000e+000;3.9660256348e+003;3.9655129395e+003;3.9503845215e+003;3.9903845215e+003;3.9728205566e+003;3.9602563477e+003;3.9812819824e+003;3.9696154785e+003;3.9708974609e+003;3.9621794434e+003;3.9606411133e+003;3.9661538086e+003;3.9698718262e+003;3.9725642090e+003;
2.9765625000e+000;3.9603845215e+003;3.9562819824e+003;3.9491025391e+003;3.9830769043e+003;3.9751281738e+003;3.9620512695e+003;3.9784614258e+003;3.9678205566e+003;3.9719230957e+003;3.9624357910e+003;3.9591025391e+003;3.9630769043e+003;3.9671794434e+003;3.9729487305e+003;
2.9843750000e+000;3.9867949219e+003;3.9793588867e+003;3.9830769043e+003;4.0085898438e+003;3.9811538086e+003;3.9911538086e+003;4.0052563477e+003;3.9970512695e+003;3.9943588867e+003;3.9887180176e+003;3.9847436523e+003;3.9952563477e+003;3.9887180176e+003;3.9970512695e+003;
2.9921875000e+000;3.9762819824e+003;3.9620512695e+003;3.9734614258e+003;3.9950000000e+003;3.9676923828e+003;3.9794870605e+003;3.9902563477e+003;3.9871794434e+003;3.9820512695e+003;3.9770512695e+003;3.9739743652e+003;3.9851281738e+003;3.9775642090e+003;3.9851281738e+003;
3.0000000000e+000;3.9251281738e+003;3.9093588867e+003;3.9226923828e+003;3.9493588867e+003;3.9153845215e+003;3.9329487305e+003;3.9393588867e+003;3.9307692871e+003;3.9243588867e+003;3.9183332520e+003;3.9194870605e+003;3.9296154785e+003;3.9244870605e+003;3.9301281738e+003;
3.0078125000e+000;3.9479487305e+003;3.9383332520e+003;3.9437180176e+003;3.9752563477e+003;3.9424357910e+003;3.9542307129e+003;3.9615385742e+003;3.9507692871e+003;3.9437180176e+003;3.9411538086e+003;3.9420512695e+003;3.9492307129e+003;3.9476923828e+003;3.9514101563e+003;
3.0156250000e+000;3.9811538086e+003;3.9814101563e+003;3.9719230957e+003;4.0157692871e+003;3.9855129395e+003;3.9847436523e+003;3.9937180176e+003;3.9856411133e+003;3.9752563477e+003;3.9816667480e+003;3.9793588867e+003;3.9834614258e+003;3.9867949219e+003;3.9852563477e+003;
3.0234375000e+000;3.9929487305e+003;3.9924357910e+003;3.9815385742e+003;4.0261538086e+003;4.0001281738e+003;3.9955129395e+003;4.0066667480e+003;3.9935898438e+003;3.9850000000e+003;3.9905129395e+003;3.9916667480e+003;3.9950000000e+003;3.9998718262e+003;3.9957692871e+003;
3.0312500000e+000;4.0353845215e+003;4.0329487305e+003;4.0212819824e+003;4.0619230957e+003;4.0450000000e+003;4.0332050781e+003;4.0467949219e+003;4.0320512695e+003;4.0262819824e+003;4.0314101563e+003;4.0353845215e+003;4.0375642090e+003;4.0432050781e+003;4.0374357910e+003;
3.0390625000e+000;4.0766667480e+003;4.0691025391e+003;4.0626923828e+003;4.0891025391e+003;4.0766667480e+003;4.0671794434e+003;4.0797436523e+003;4.0752563477e+003;4.0724357910e+003;4.0785898438e+003;4.0797436523e+003;4.0843588867e+003;4.0855129395e+003;4.0821794434e+003;
3.0468750000e+000;4.0607692871e+003;4.0514101563e+003;4.0473076172e+003;4.0753845215e+003;4.0433332520e+003;4.0379487305e+003;4.0576923828e+003;4.0523076172e+003;4.0543588867e+003;4.0556411133e+003;4.0497436523e+003;4.0543588867e+003;4.0642307129e+003;4.0537180176e+003;
3.0546875000e+000;4.0871794434e+003;4.0774357910e+003;4.0697436523e+003;4.0988461914e+003;4.0793588867e+003;4.0571794434e+003;4.0796154785e+003;4.0774357910e+003;4.0819230957e+003;4.0805129395e+003;4.0743588867e+003;4.0780769043e+003;4.0876923828e+003;4.0744870605e+003;
3.0625000000e+000;4.0819230957e+003;4.0716667480e+003;4.0616667480e+003;4.0900000000e+003;4.0862819824e+003;4.0517949219e+003;4.0730769043e+003;4.0751281738e+003;4.0794870605e+003;4.0750000000e+003;4.0706411133e+003;4.0762819824e+003;4.0794870605e+003;4.0674357910e+003;
3.0703125000e+000;4.0539743652e+003;4.0439743652e+003;4.0329487305e+003;4.0593588867e+003;4.0664101563e+003;4.0297436523e+003;4.0479487305e+003;4.0507692871e+003;4.0528205566e+003;4.0453845215e+003;4.0446154785e+003;4.0535898438e+003;4.0494870605e+003;4.0406411133e+003;
3.0781250000e+000;4.2057690430e+003;4.1935898438e+003;4.1796152344e+003;4.2025639648e+003;4.2076923828e+003;4.1726923828e+003;4.1943588867e+003;4.1924360352e+003;4.1953847656e+003;4.1935898438e+003;4.1873076172e+003;4.1939741211e+003;4.1991025391e+003;4.1842309570e+003;
3.0859375000e+000;4.2164101563e+003;4.2017949219e+003;4.1875639648e+003;4.2133334961e+003;4.2183334961e+003;4.1847436523e+003;4.2052563477e+003;4.1994873047e+003;4.2025639648e+003;4.2019228516e+003;4.1942309570e+003;4.2006411133e+003;4.2069228516e+003;4.1910258789e+003;
3.0937500000e+000;4.2887177734e+003;4.2828203125e+003;4.2519228516e+003;4.2729487305e+003;4.2873076172e+003;4.2657690430e+003;4.2815385742e+003;4.2643588867e+003;4.2642309570e+003;4.2675639648e+003;4.2589741211e+003;4.2644873047e+003;4.2711538086e+003;4.2597436523e+003;
3.1015625000e+000;4.2871796875e+003;4.2742309570e+003;4.2538461914e+003;4.2692309570e+003;4.2830771484e+003;4.2597436523e+003;4.2702563477e+003;4.2526923828e+003;4.2521796875e+003;4.2574360352e+003;4.2501284180e+003;4.2535898438e+003;4.2587177734e+003;4.2483334961e+003;
3.1093750000e+000;4.3162822266e+003;4.3015385742e+003;4.2807690430e+003;4.2956411133e+003;4.3102563477e+003;4.2816665039e+003;4.2939741211e+003;4.2747436523e+003;4.2753847656e+003;4.2806411133e+003;4.2779487305e+003;4.2774360352e+003;4.2855126953e+003;4.2741025391e+003;
3.1171875000e+000;4.3447436523e+003;4.3285898438e+003;4.3066665039e+003;4.3123076172e+003;4.3317949219e+003;4.3043588867e+003;4.3180771484e+003;4.3023076172e+003;4.3021796875e+003;4.3102563477e+003;4.3097436523e+003;4.3080771484e+003;4.3169228516e+003;4.3051284180e+003;
3.1250000000e+000;4.5100000000e+003;4.4814101563e+003;4.4580771484e+003;4.4569228516e+003;4.4776923828e+003;4.4497436523e+003;4.4648715820e+003;4.4552563477e+003;4.4601284180e+003;4.4717949219e+003;4.4637177734e+003;4.4593588867e+003;4.4756411133e+003;4.4576923828e+003;
3.1328125000e+000;4.5487177734e+003;4.5214101563e+003;4.4952563477e+003;4.4944873047e+003;4.5097436523e+003;4.4812822266e+003;4.4970512695e+003;4.4962822266e+003;4.5020512695e+003;4.5173076172e+003;4.5042309570e+003;4.4976923828e+003;4.5134614258e+003;4.4961538086e+003;
3.1406250000e+000;4.5400000000e+003;4.5161538086e+003;4.4888461914e+003;4.4887177734e+003;4.5037177734e+003;4.4705126953e+003;4.4880771484e+003;4.4919228516e+003;4.4962822266e+003;4.5135898438e+003;4.4984614258e+003;4.4908974609e+003;4.5053847656e+003;4.4882050781e+003;
3.1484375000e+000;4.5776923828e+003;4.5544873047e+003;4.5266665039e+003;4.5156411133e+003;4.5611538086e+003;4.4969228516e+003;4.5229487305e+003;4.5264101563e+003;4.5276923828e+003;4.5464101563e+003;4.5328203125e+003;4.5230771484e+003;4.5425639648e+003;4.5191025391e+003;
3.1562500000e+000;4.6480771484e+003;4.6205126953e+003;4.5937177734e+003;4.5706411133e+003;4.6335898438e+003;4.5550000000e+003;4.5837177734e+003;4.5928203125e+003;4.5943588867e+003;4.6142309570e+003;4.5989741211e+003;4.5888461914e+003;4.6106411133e+003;4.5855126953e+003;
3.1640625000e+000;4.6853847656e+003;4.6533334961e+003;4.6296152344e+003;4.5970512695e+003;4.6642309570e+003;4.5835898438e+003;4.6115385742e+003;4.6296152344e+003;4.6324360352e+003;4.6529487305e+003;4.6342309570e+003;4.6257690430e+003;4.6453847656e+003;4.6229487305e+003;
3.1718750000e+000;4.6602563477e+003;4.6256411133e+003;4.6065385742e+003;4.5716665039e+003;4.6282050781e+003;4.5573076172e+003;4.5828203125e+003;4.6061538086e+003;4.6103847656e+003;4.6305126953e+003;4.6102563477e+003;4.6047436523e+003;4.6185898438e+003;4.6015385742e+003;
3.1796875000e+000;4.5801284180e+003;4.5485898438e+003;4.5317949219e+003;4.5141025391e+003;4.5389741211e+003;4.4856411133e+003;4.5141025391e+003;4.5216665039e+003;4.5302563477e+003;4.5525639648e+003;4.5408974609e+003;4.5366665039e+003;4.5464101563e+003;4.5271796875e+003;
3.1875000000e+000;4.5117949219e+003;4.4839741211e+003;4.4726923828e+003;4.4394873047e+003;4.4733334961e+003;4.4474360352e+003;4.4657690430e+003;4.4602563477e+003;4.4630771484e+003;4.4725639648e+003;4.4712822266e+003;4.4715385742e+003;4.4748715820e+003;4.4650000000e+003;
3.1953125000e+000;4.5171796875e+003;4.4876923828e+003;4.4811538086e+003;4.4476923828e+003;4.4834614258e+003;4.4565385742e+003;4.4720512695e+003;4.4674360352e+003;4.4691025391e+003;4.4808974609e+003;4.4796152344e+003;4.4811538086e+003;4.4844873047e+003;4.4747436523e+003;
3.2031250000e+000;4.4575639648e+003;4.4297436523e+003;4.4224360352e+003;4.4048715820e+003;4.4335898438e+003;4.4053847656e+003;4.4156411133e+003;4.4047436523e+003;4.4067949219e+003;4.4205126953e+003;4.4219228516e+003;4.4237177734e+003;4.4264101563e+003;4.4182050781e+003;
3.2109375000e+000;4.4196152344e+003;4.3991025391e+003;4.3869228516e+003;4.3719228516e+003;4.4041025391e+003;4.3773076172e+003;4.3796152344e+003;4.3708974609e+003;4.3726923828e+003;4.3856411133e+003;4.3852563477e+003;4.3839741211e+003;4.3875639648e+003;4.3841025391e+003;
3.2187500000e+000;4.3894873047e+003;4.3658974609e+003;4.3598715820e+003;4.3416665039e+003;4.3682050781e+003;4.3515385742e+003;4.3542309570e+003;4.3443588867e+003;4.3466665039e+003;4.3552563477e+003;4.3564101563e+003;4.3561538086e+003;4.3597436523e+003;4.3556411133e+003;
3.2265625000e+000;4.4208974609e+003;4.3935898438e+003;4.3876923828e+003;4.3669228516e+003;4.3741025391e+003;4.3746152344e+003;4.3807690430e+003;4.3708974609e+003;4.3755126953e+003;4.3833334961e+003;4.3897436523e+003;4.3857690430e+003;4.3915385742e+003;4.3839741211e+003;
3.2343750000e+000;4.4451284180e+003;4.4183334961e+003;4.4101284180e+003;4.3880771484e+003;4.3924360352e+003;4.3911538086e+003;4.3966665039e+003;4.3938461914e+003;4.3978203125e+003;4.4105126953e+003;4.4169228516e+003;4.4120512695e+003;4.4160258789e+003;4.4093588867e+003;
3.2421875000e+000;4.4234614258e+003;4.3974360352e+003;4.3932050781e+003;4.3620512695e+003;4.3991025391e+003;4.3605126953e+003;4.3674360352e+003;4.3729487305e+003;4.3771796875e+003;4.3889741211e+003;4.3947436523e+003;4.3967949219e+003;4.3948715820e+003;4.3962822266e+003;
3.2500000000e+000;4.4500000000e+003;4.4230771484e+003;4.4200000000e+003;4.3857690430e+003;4.4278203125e+003;4.3816665039e+003;4.3928203125e+003;4.3992309570e+003;4.4044873047e+003;4.4146152344e+003;4.4191025391e+003;4.4220512695e+003;4.4208974609e+003;4.4226923828e+003;
3.2578125000e+000;4.4355126953e+003;4.4052563477e+003;4.4080771484e+003;4.3752563477e+003;4.3929487305e+003;4.3623076172e+003;4.3750000000e+003;4.3858974609e+003;4.3880771484e+003;4.4003847656e+003;4.4037177734e+003;4.4091025391e+003;4.4046152344e+003;4.4074360352e+003;
3.2656250000e+000;4.3919228516e+003;4.3606411133e+003;4.3666665039e+003;4.3376923828e+003;4.3416665039e+003;4.3194873047e+003;4.3303847656e+003;4.3394873047e+003;4.3392309570e+003;4.3512822266e+003;4.3583334961e+003;4.3653847656e+003;4.3583334961e+003;4.3623076172e+003;
3.2734375000e+000;4.4158974609e+003;4.3871796875e+003;4.3923076172e+003;4.3626923828e+003;4.3770512695e+003;4.3353847656e+003;4.3467949219e+003;4.3583334961e+003;4.3612822266e+003;4.3679487305e+003;4.3785898438e+003;4.3891025391e+003;4.3762822266e+003;4.3823076172e+003;
3.2812500000e+000;4.4084614258e+003;4.3800000000e+003;4.3864101563e+003;4.3534614258e+003;4.3697436523e+003;4.3319228516e+003;4.3432050781e+003;4.3555126953e+003;4.3598715820e+003;4.3646152344e+003;4.3724360352e+003;4.3858974609e+003;4.3696152344e+003;4.3770512695e+003;
3.2890625000e+000;4.3870512695e+003;4.3594873047e+003;4.3662822266e+003;4.3316665039e+003;4.3458974609e+003;4.3180771484e+003;4.3296152344e+003;4.3371796875e+003;4.3412822266e+003;4.3447436523e+003;4.3516665039e+003;4.3665385742e+003;4.3494873047e+003;4.3571796875e+003;
3.2968750000e+000;4.3908974609e+003;4.3661538086e+003;4.3697436523e+003;4.3355126953e+003;4.3485898438e+003;4.3276923828e+003;4.3405126953e+003;4.3412822266e+003;4.3439741211e+003;4.3480771484e+003;4.3553847656e+003;4.3687177734e+003;4.3544873047e+003;4.3608974609e+003;
3.3046875000e+000;4.4144873047e+003;4.3978203125e+003;4.3926923828e+003;4.3688461914e+003;4.3944873047e+003;4.3748715820e+003;4.3828203125e+003;4.3769228516e+003;4.3776923828e+003;4.3793588867e+003;4.3805126953e+003;4.3874360352e+003;4.3788461914e+003;4.3832050781e+003;
3.3125000000e+000;4.4388461914e+003;4.4312822266e+003;4.4116665039e+003;4.3938461914e+003;4.4051284180e+003;4.4160258789e+003;4.4193588867e+003;4.4105126953e+003;4.4114101563e+003;4.4179487305e+003;4.4125639648e+003;4.4130771484e+003;4.4144873047e+003;4.4137177734e+003;
3.3203125000e+000;4.4187177734e+003;4.4073076172e+003;4.3915385742e+003;4.3792309570e+003;4.3874360352e+003;4.3975639648e+003;4.3994873047e+003;4.3919228516e+003;4.3929487305e+003;4.3988461914e+003;4.3955126953e+003;4.3941025391e+003;4.3965385742e+003;4.3933334961e+003;
3.3281250000e+000;4.4317949219e+003;4.4160258789e+003;4.4038461914e+003;4.3934614258e+003;4.4329487305e+003;4.4057690430e+003;4.4083334961e+003;4.3992309570e+003;4.4030771484e+003;4.4060258789e+003;4.4101284180e+003;4.4026923828e+003;4.4091025391e+003;4.4035898438e+003;
3.3359375000e+000;4.4057690430e+003;4.4030771484e+003;4.3824360352e+003;4.3683334961e+003;4.4024360352e+003;4.3825639648e+003;4.3819228516e+003;4.3723076172e+003;4.3758974609e+003;4.3856411133e+003;4.3847436523e+003;4.3842309570e+003;4.3865385742e+003;4.3847436523e+003;
3.3437500000e+000;4.4373076172e+003;4.4337177734e+003;4.4123076172e+003;4.3982050781e+003;4.4273076172e+003;4.4078203125e+003;4.4106411133e+003;4.3992309570e+003;4.4028203125e+003;4.4139741211e+003;4.4135898438e+003;4.4128203125e+003;4.4165385742e+003;4.4152563477e+003;
3.3515625000e+000;4.4833334961e+003;4.4771796875e+003;4.4603847656e+003;4.4408974609e+003;4.4764101563e+003;4.4469228516e+003;4.4492309570e+003;4.4487177734e+003;4.4535898438e+003;4.4656411133e+003;4.4626923828e+003;4.4617949219e+003;4.4643588867e+003;4.4653847656e+003;
3.3593750000e+000;4.4511538086e+003;4.4467949219e+003;4.4329487305e+003;4.4123076172e+003;4.4462822266e+003;4.4198715820e+003;4.4188461914e+003;4.4232050781e+003;4.4279487305e+003;4.4371796875e+003;4.4337177734e+003;4.4347436523e+003;4.4351284180e+003;4.4365385742e+003;
3.3671875000e+000;4.4565385742e+003;4.4647436523e+003;4.4452563477e+003;4.4253847656e+003;4.4503847656e+003;4.4229487305e+003;4.4265385742e+003;4.4396152344e+003;4.4451284180e+003;4.4525639648e+003;4.4469228516e+003;4.4457690430e+003;4.4487177734e+003;4.4442309570e+003;
3.3750000000e+000;4.4597436523e+003;4.4679487305e+003;4.4503847656e+003;4.4291025391e+003;4.4535898438e+003;4.4247436523e+003;4.4291025391e+003;4.4467949219e+003;4.4521796875e+003;4.4626923828e+003;4.4550000000e+003;4.4523076172e+003;4.4535898438e+003;4.4497436523e+003;
3.3828125000e+000;4.4234614258e+003;4.4244873047e+003;4.4164101563e+003;4.3934614258e+003;4.4089741211e+003;4.3929487305e+003;4.3950000000e+003;4.4107690430e+003;4.4152563477e+003;4.4255126953e+003;4.4187177734e+003;4.4158974609e+003;4.4167949219e+003;4.4119228516e+003;
3.3906250000e+000;4.4443588867e+003;4.4432050781e+003;4.4352563477e+003;4.4132050781e+003;4.4270512695e+003;4.4120512695e+003;4.4148715820e+003;4.4287177734e+003;4.4343588867e+003;4.4414101563e+003;4.4356411133e+003;4.4316665039e+003;4.4371796875e+003;4.4284614258e+003;
3.3984375000e+000;4.4814101563e+003;4.4893588867e+003;4.4660258789e+003;4.4535898438e+003;4.4866665039e+003;4.4535898438e+003;4.4584614258e+003;4.4700000000e+003;4.4776923828e+003;4.4723076172e+003;4.4678203125e+003;4.4638461914e+003;4.4691025391e+003;4.4608974609e+003;
3.4062500000e+000;4.4860258789e+003;4.4967949219e+003;4.4689741211e+003;4.4583334961e+003;4.4894873047e+003;4.4632050781e+003;4.4684614258e+003;4.4721796875e+003;4.4783334961e+003;4.4719228516e+003;4.4697436523e+003;4.4666665039e+003;4.4691025391e+003;4.4643588867e+003;
3.4140625000e+000;4.5333334961e+003;4.5438461914e+003;4.5141025391e+003;4.5014101563e+003;4.5242309570e+003;4.5093588867e+003;4.5157690430e+003;4.5137177734e+003;4.5191025391e+003;4.5152563477e+003;4.5138461914e+003;4.5105126953e+003;4.5124360352e+003;4.5097436523e+003;
3.4218750000e+000;4.5979487305e+003;4.6052563477e+003;4.5775639648e+003;4.5594873047e+003;4.5730771484e+003;4.5675639648e+003;4.5752563477e+003;4.5733334961e+003;4.5791025391e+003;4.5794873047e+003;4.5764101563e+003;4.5733334961e+003;4.5751284180e+003;4.5730771484e+003;
3.4296875000e+000;4.5910258789e+003;4.5887177734e+003;4.5723076172e+003;4.5394873047e+003;4.5947436523e+003;4.5534614258e+003;4.5624360352e+003;4.5575639648e+003;4.5571796875e+003;4.5594873047e+003;4.5696152344e+003;4.5667949219e+003;4.5655126953e+003;4.5648715820e+003;
