Time (s);AF3;F7;F3;FC5;T7;P7;O1;O2;P8;T8;FC6;F4;F8;AF4;Sampling Rate
0.0000000000e+000;4.1669228516e+003;4.1688461914e+003;4.1847436523e+003;4.2138461914e+003;4.1598715820e+003;4.1894873047e+003;4.1980771484e+003;4.2142309570e+003;4.2048715820e+003;4.1947436523e+003;4.2020512695e+003;4.1839741211e+003;4.1843588867e+003;4.1960258789e+003;128
7.8125000000e-003;4.1624360352e+003;4.1658974609e+003;4.1779487305e+003;4.2075639648e+003;4.1517949219e+003;4.1920512695e+003;4.1971796875e+003;4.2093588867e+003;4.1985898438e+003;4.1885898438e+003;4.1948715820e+003;4.1769228516e+003;4.1774360352e+003;4.1857690430e+003;
1.5625000000e-002;4.1725639648e+003;4.1735898438e+003;4.1874360352e+003;4.2174360352e+003;4.1933334961e+003;4.2035898438e+003;4.2153847656e+003;4.2189741211e+003;4.2053847656e+003;4.2066665039e+003;4.2112822266e+003;4.1866665039e+003;4.1960258789e+003;4.2016665039e+003;
2.3437500000e-002;4.1857690430e+003;4.1871796875e+003;4.2014101563e+003;4.2275639648e+003;4.2046152344e+003;4.2178203125e+003;4.2251284180e+003;4.2282050781e+003;4.2167949219e+003;4.2173076172e+003;4.2228203125e+003;4.1985898438e+003;4.2082050781e+003;4.2142309570e+003;
3.1250000000e-002;4.1816665039e+003;4.1888461914e+003;4.1947436523e+003;4.2239741211e+003;4.1611538086e+003;4.2103847656e+003;4.2175639648e+003;4.2179487305e+003;4.2073076172e+003;4.2083334961e+003;4.2143588867e+003;4.1985898438e+003;4.2003847656e+003;4.2064101563e+003;
3.9062500000e-002;4.2037177734e+003;4.2142309570e+003;4.2148715820e+003;4.2447436523e+003;4.1802563477e+003;4.2283334961e+003;4.2384614258e+003;4.2343588867e+003;4.2212822266e+003;4.2261538086e+003;4.2337177734e+003;4.2166665039e+003;4.2193588867e+003;4.2262822266e+003;
4.6875000000e-002;4.3243588867e+003;4.3317949219e+003;4.3310258789e+003;4.3496152344e+003;4.3205126953e+003;4.3324360352e+003;4.3426923828e+003;4.3423076172e+003;4.3246152344e+003;4.3420512695e+003;4.3500000000e+003;4.3274360352e+003;4.3361538086e+003;4.3437177734e+003;
5.4687500000e-002;4.3644873047e+003;4.3614101563e+003;4.3724360352e+003;4.3932050781e+003;4.3579487305e+003;4.3567949219e+003;4.3732050781e+003;4.3723076172e+003;4.3557690430e+003;4.3830771484e+003;4.3938461914e+003;4.3711538086e+003;4.3797436523e+003;4.3882050781e+003;
6.2500000000e-002;4.3783334961e+003;4.3779487305e+003;4.3844873047e+003;4.4030771484e+003;4.3605126953e+003;4.3617949219e+003;4.3801284180e+003;4.3878203125e+003;4.3702563477e+003;4.4011538086e+003;4.4079487305e+003;4.3869228516e+003;4.3928203125e+003;4.4023076172e+003;
7.0312500000e-002;4.2724360352e+003;4.2716665039e+003;4.2819228516e+003;4.2934614258e+003;4.2532050781e+003;4.2498715820e+003;4.2629487305e+003;4.2885898438e+003;4.2678203125e+003;4.2906411133e+003;4.2948715820e+003;4.2839741211e+003;4.2800000000e+003;4.2935898438e+003;
7.8125000000e-002;4.2033334961e+003;4.1998715820e+003;4.2151284180e+003;4.2279487305e+003;4.1894873047e+003;4.1829487305e+003;4.1952563477e+003;4.2188461914e+003;4.1979487305e+003;4.2121796875e+003;4.2208974609e+003;4.2132050781e+003;4.2062822266e+003;4.2211538086e+003;
8.5937500000e-002;4.1876923828e+003;4.1825639648e+003;4.1974360352e+003;4.2146152344e+003;4.1688461914e+003;4.1835898438e+003;4.1994873047e+003;4.2083334961e+003;4.1884614258e+003;4.1976923828e+003;4.2078203125e+003;4.1996152344e+003;4.1916665039e+003;4.2053847656e+003;
9.3750000000e-002;4.1747436523e+003;4.1697436523e+003;4.1855126953e+003;4.1992309570e+003;4.1544873047e+003;4.1775639648e+003;4.1906411133e+003;4.1992309570e+003;4.1776923828e+003;4.1876923828e+003;4.1955126953e+003;4.1893588867e+003;4.1798715820e+003;4.1939741211e+003;
1.0156250000e-001;4.1894873047e+003;4.1847436523e+003;4.2034614258e+003;4.2146152344e+003;4.1783334961e+003;4.1907690430e+003;4.2032050781e+003;4.2120512695e+003;4.1889741211e+003;4.1993588867e+003;4.2087177734e+003;4.1982050781e+003;4.1897436523e+003;4.2053847656e+003;
1.0937500000e-001;4.2205126953e+003;4.2175639648e+003;4.2361538086e+003;4.2494873047e+003;4.2156411133e+003;4.2188461914e+003;4.2334614258e+003;4.2429487305e+003;4.2220512695e+003;4.2333334961e+003;4.2421796875e+003;4.2257690430e+003;4.2193588867e+003;4.2353847656e+003;
1.1718750000e-001;4.1242309570e+003;4.1224360352e+003;4.1435898438e+003;4.1550000000e+003;4.1133334961e+003;4.1432050781e+003;4.1528203125e+003;4.1542309570e+003;4.1393588867e+003;4.1383334961e+003;4.1419228516e+003;4.1306411133e+003;4.1238461914e+003;4.1378203125e+003;
1.2500000000e-001;4.0997436523e+003;4.0967949219e+003;4.1171796875e+003;4.1270512695e+003;4.0888461914e+003;4.1205126953e+003;4.1273076172e+003;4.1260258789e+003;4.1092309570e+003;4.1030771484e+003;4.1101284180e+003;4.1037177734e+003;4.0956411133e+003;4.1094873047e+003;
1.3281250000e-001;4.1134614258e+003;4.1115385742e+003;4.1288461914e+003;4.1406411133e+003;4.1088461914e+003;4.1300000000e+003;4.1355126953e+003;4.1344873047e+003;4.1146152344e+003;4.1084614258e+003;4.1202563477e+003;4.1148715820e+003;4.1053847656e+003;4.1200000000e+003;
1.4062500000e-001;4.1382050781e+003;4.1394873047e+003;4.1529487305e+003;4.1698715820e+003;4.1392309570e+003;4.1501284180e+003;4.1556411133e+003;4.1553847656e+003;4.1323076172e+003;4.1307690430e+003;4.1467949219e+003;4.1385898438e+003;4.1279487305e+003;4.1441025391e+003;
1.4843750000e-001;4.1129487305e+003;4.1116665039e+003;4.1256411133e+003;4.1451284180e+003;4.0643588867e+003;4.1282050781e+003;4.1312822266e+003;4.1280771484e+003;4.1038461914e+003;4.1141025391e+003;4.1275639648e+003;4.1120512695e+003;4.1132050781e+003;4.1210258789e+003;
1.5625000000e-001;3.8810256348e+003;3.8780769043e+003;3.8993588867e+003;3.9369230957e+003;3.9141025391e+003;3.8978205566e+003;3.8993588867e+003;3.8911538086e+003;3.8680769043e+003;3.8778205566e+003;3.8973076172e+003;3.8951281738e+003;3.8847436523e+003;3.8929487305e+003;
1.6406250000e-001;3.9102563477e+003;3.9079487305e+003;3.9248718262e+003;3.9635898438e+003;3.9333332520e+003;3.9202563477e+003;3.9246154785e+003;3.9175642090e+003;3.8960256348e+003;3.9042307129e+003;3.9287180176e+003;3.9228205566e+003;3.9144870605e+003;3.9219230957e+003;
1.7187500000e-001;3.9030769043e+003;3.8970512695e+003;3.9153845215e+003;3.9505129395e+003;3.8847436523e+003;3.9087180176e+003;3.9116667480e+003;3.9176923828e+003;3.8991025391e+003;3.8974357910e+003;3.9239743652e+003;3.9188461914e+003;3.9074357910e+003;3.9191025391e+003;
1.7968750000e-001;3.8525642090e+003;3.8446154785e+003;3.8673076172e+003;3.9020512695e+003;3.8312819824e+003;3.8610256348e+003;3.8635898438e+003;3.8723076172e+003;3.8542307129e+003;3.8471794434e+003;3.8726923828e+003;3.8710256348e+003;3.8569230957e+003;3.8705129395e+003;
1.8750000000e-001;3.7678205566e+003;3.7552563477e+003;3.7902563477e+003;3.8239743652e+003;3.7628205566e+003;3.7897436523e+003;3.7919230957e+003;3.7996154785e+003;3.7798718262e+003;3.7700000000e+003;3.7871794434e+003;3.7928205566e+003;3.7719230957e+003;3.7848718262e+003;
1.9531250000e-001;3.6225642090e+003;3.6162819824e+003;3.6480769043e+003;3.6934614258e+003;3.6056411133e+003;3.6762819824e+003;3.6705129395e+003;3.6623076172e+003;3.6370512695e+003;3.6211538086e+003;3.6417949219e+003;3.6437180176e+003;3.6228205566e+003;3.6403845215e+003;
2.0312500000e-001;3.6251281738e+003;3.6211538086e+003;3.6496154785e+003;3.6994870605e+003;3.6210256348e+003;3.6761538086e+003;3.6732050781e+003;3.6616667480e+003;3.6392307129e+003;3.6224357910e+003;3.6419230957e+003;3.6405129395e+003;3.6258974609e+003;3.6408974609e+003;
2.1093750000e-001;3.5773076172e+003;3.5697436523e+003;3.6007692871e+003;3.6625642090e+003;3.5866667480e+003;3.6316667480e+003;3.6221794434e+003;3.6147436523e+003;3.5961538086e+003;3.5760256348e+003;3.5930769043e+003;3.5939743652e+003;3.5774357910e+003;3.5962819824e+003;
2.1875000000e-001;3.5666667480e+003;3.5576923828e+003;3.5883332520e+003;3.6510256348e+003;3.5710256348e+003;3.6267949219e+003;3.6120512695e+003;3.6042307129e+003;3.5826923828e+003;3.5638461914e+003;3.5834614258e+003;3.5847436523e+003;3.5671794434e+003;3.5887180176e+003;
2.2656250000e-001;3.5857692871e+003;3.5742307129e+003;3.6069230957e+003;3.6651281738e+003;3.5862819824e+003;3.6457692871e+003;3.6289743652e+003;3.6233332520e+003;3.5976923828e+003;3.5867949219e+003;3.6057692871e+003;3.6057692871e+003;3.5908974609e+003;3.6128205566e+003;
2.3437500000e-001;3.5576923828e+003;3.5465385742e+003;3.5816667480e+003;3.6394870605e+003;3.5597436523e+003;3.6175642090e+003;3.6026923828e+003;3.5965385742e+003;3.5702563477e+003;3.5623076172e+003;3.5784614258e+003;3.5793588867e+003;3.5648718262e+003;3.5856411133e+003;
2.4218750000e-001;3.5110256348e+003;3.5024357910e+003;3.5367949219e+003;3.5964101563e+003;3.5143588867e+003;3.5726923828e+003;3.5605129395e+003;3.5505129395e+003;3.5238461914e+003;3.5171794434e+003;3.5311538086e+003;3.5333332520e+003;3.5187180176e+003;3.5383332520e+003;
2.5000000000e-001;3.4839743652e+003;3.4783332520e+003;3.5079487305e+003;3.5689743652e+003;3.4865385742e+003;3.5461538086e+003;3.5369230957e+003;3.5224357910e+003;3.4952563477e+003;3.4893588867e+003;3.5023076172e+003;3.5050000000e+003;3.4900000000e+003;3.5098718262e+003;
2.5781250000e-001;3.4643588867e+003;3.4443588867e+003;3.4874357910e+003;3.5455129395e+003;3.4537180176e+003;3.5188461914e+003;3.5044870605e+003;3.4982050781e+003;3.4723076172e+003;3.4615385742e+003;3.4807692871e+003;3.4871794434e+003;3.4630769043e+003;3.4882050781e+003;
2.6562500000e-001;3.4716667480e+003;3.4660256348e+003;3.4929487305e+003;3.5620512695e+003;3.4547436523e+003;3.5146154785e+003;3.5098718262e+003;3.5120512695e+003;3.4978205566e+003;3.4829487305e+003;3.4997436523e+003;3.5007692871e+003;3.4752563477e+003;3.4979487305e+003;
2.7343750000e-001;3.4480769043e+003;3.4364101563e+003;3.4694870605e+003;3.5367949219e+003;3.4443588867e+003;3.4934614258e+003;3.4880769043e+003;3.4924357910e+003;3.4764101563e+003;3.4607692871e+003;3.4742307129e+003;3.4756411133e+003;3.4501281738e+003;3.4726923828e+003;
2.8125000000e-001;3.4701281738e+003;3.4562819824e+003;3.4993588867e+003;3.5528205566e+003;3.4753845215e+003;3.5273076172e+003;3.5173076172e+003;3.5170512695e+003;3.5029487305e+003;3.4805129395e+003;3.4850000000e+003;3.4885898438e+003;3.4785898438e+003;3.4905129395e+003;
2.8906250000e-001;3.4478205566e+003;3.4408974609e+003;3.4791025391e+003;3.5321794434e+003;3.4479487305e+003;3.5119230957e+003;3.4988461914e+003;3.4966667480e+003;3.4833332520e+003;3.4601281738e+003;3.4650000000e+003;3.4698718262e+003;3.4608974609e+003;3.4728205566e+003;
2.9687500000e-001;3.3947436523e+003;3.3892307129e+003;3.4232050781e+003;3.4887180176e+003;3.3988461914e+003;3.4651281738e+003;3.4506411133e+003;3.4374357910e+003;3.4220512695e+003;3.3996154785e+003;3.4111538086e+003;3.4169230957e+003;3.4064101563e+003;3.4219230957e+003;
3.0468750000e-001;3.4235898438e+003;3.4135898438e+003;3.4474357910e+003;3.5201281738e+003;3.4339743652e+003;3.4884614258e+003;3.4751281738e+003;3.4600000000e+003;3.4443588867e+003;3.4239743652e+003;3.4356411133e+003;3.4411538086e+003;3.4307692871e+003;3.4467949219e+003;
3.1250000000e-001;3.4461538086e+003;3.4383332520e+003;3.4683332520e+003;3.5307692871e+003;3.4508974609e+003;3.5047436523e+003;3.4855129395e+003;3.4776923828e+003;3.4692307129e+003;3.4489743652e+003;3.4510256348e+003;3.4638461914e+003;3.4446154785e+003;3.4664101563e+003;
3.2031250000e-001;3.4625642090e+003;3.4461538086e+003;3.4844870605e+003;3.5414101563e+003;3.4524357910e+003;3.5189743652e+003;3.4989743652e+003;3.4896154785e+003;3.4769230957e+003;3.4587180176e+003;3.4665385742e+003;3.4774357910e+003;3.4582050781e+003;3.4834614258e+003;
3.2812500000e-001;3.4646154785e+003;3.4433332520e+003;3.4879487305e+003;3.5496154785e+003;3.4534614258e+003;3.5185898438e+003;3.5002563477e+003;3.4943588867e+003;3.4780769043e+003;3.4637180176e+003;3.4716667480e+003;3.4802563477e+003;3.4628205566e+003;3.4876923828e+003;
3.3593750000e-001;3.4521794434e+003;3.4403845215e+003;3.4716667480e+003;3.5338461914e+003;3.4420512695e+003;3.4996154785e+003;3.4891025391e+003;3.4764101563e+003;3.4616667480e+003;3.4474357910e+003;3.4578205566e+003;3.4684614258e+003;3.4529487305e+003;3.4780769043e+003;
3.4375000000e-001;3.4743588867e+003;3.4633332520e+003;3.4917949219e+003;3.5479487305e+003;3.4593588867e+003;3.5214101563e+003;3.5082050781e+003;3.4976923828e+003;3.4830769043e+003;3.4712819824e+003;3.4775642090e+003;3.4926923828e+003;3.4746154785e+003;3.5002563477e+003;
3.5156250000e-001;3.4382050781e+003;3.4167949219e+003;3.4637180176e+003;3.5097436523e+003;3.4166667480e+003;3.4911538086e+003;3.4721794434e+003;3.4670512695e+003;3.4496154785e+003;3.4434614258e+003;3.4429487305e+003;3.4625642090e+003;3.4396154785e+003;3.4632050781e+003;
3.5937500000e-001;3.4183332520e+003;3.3937180176e+003;3.4482050781e+003;3.4924357910e+003;3.4016667480e+003;3.4687180176e+003;3.4533332520e+003;3.4462819824e+003;3.4306411133e+003;3.4241025391e+003;3.4253845215e+003;3.4416667480e+003;3.4208974609e+003;3.4405129395e+003;
3.6718750000e-001;3.4610256348e+003;3.4425642090e+003;3.4824357910e+003;3.5356411133e+003;3.4583332520e+003;3.4900000000e+003;3.4828205566e+003;3.4824357910e+003;3.4793588867e+003;3.4694870605e+003;3.4691025391e+003;3.4798718262e+003;3.4612819824e+003;3.4807692871e+003;
3.7500000000e-001;3.4302563477e+003;3.4112819824e+003;3.4500000000e+003;3.5097436523e+003;3.4239743652e+003;3.4625642090e+003;3.4508974609e+003;3.4520512695e+003;3.4489743652e+003;3.4379487305e+003;3.4352563477e+003;3.4502563477e+003;3.4276923828e+003;3.4514101563e+003;
3.8281250000e-001;3.4029487305e+003;3.3824357910e+003;3.4229487305e+003;3.4858974609e+003;3.3892307129e+003;3.4393588867e+003;3.4244870605e+003;3.4229487305e+003;3.4187180176e+003;3.4065385742e+003;3.4046154785e+003;3.4223076172e+003;3.3985898438e+003;3.4233332520e+003;
3.9062500000e-001;3.4092307129e+003;3.3889743652e+003;3.4302563477e+003;3.4894870605e+003;3.3853845215e+003;3.4460256348e+003;3.4319230957e+003;3.4266667480e+003;3.4216667480e+003;3.4092307129e+003;3.4103845215e+003;3.4273076172e+003;3.4051281738e+003;3.4279487305e+003;
3.9843750000e-001;3.4010256348e+003;3.3880769043e+003;3.4251281738e+003;3.4708974609e+003;3.3888461914e+003;3.4602563477e+003;3.4498718262e+003;3.4326923828e+003;3.4261538086e+003;3.4119230957e+003;3.4116667480e+003;3.4282050781e+003;3.4038461914e+003;3.4217949219e+003;
4.0625000000e-001;3.4082050781e+003;3.3906411133e+003;3.4297436523e+003;3.4830769043e+003;3.4147436523e+003;3.4729487305e+003;3.4589743652e+003;3.4385898438e+003;3.4312819824e+003;3.4169230957e+003;3.4153845215e+003;3.4315385742e+003;3.4067949219e+003;3.4242307129e+003;
4.1406250000e-001;3.4387180176e+003;3.4221794434e+003;3.4592307129e+003;3.5160256348e+003;3.4582050781e+003;3.5041025391e+003;3.4878205566e+003;3.4680769043e+003;3.4611538086e+003;3.4523076172e+003;3.4496154785e+003;3.4614101563e+003;3.4371794434e+003;3.4556411133e+003;
4.2187500000e-001;3.4994870605e+003;3.4966667480e+003;3.5134614258e+003;3.5698718262e+003;3.5171794434e+003;3.5551281738e+003;3.5453845215e+003;3.5320512695e+003;3.5196154785e+003;3.5170512695e+003;3.5062819824e+003;3.5229487305e+003;3.5100000000e+003;3.5155129395e+003;
4.2968750000e-001;3.5243588867e+003;3.5152563477e+003;3.5373076172e+003;3.5884614258e+003;3.5408974609e+003;3.5728205566e+003;3.5606411133e+003;3.5546154785e+003;3.5400000000e+003;3.5416667480e+003;3.5279487305e+003;3.5464101563e+003;3.5312819824e+003;3.5371794434e+003;
4.3750000000e-001;3.4843588867e+003;3.4696154785e+003;3.4982050781e+003;3.5311538086e+003;3.4837180176e+003;3.5302563477e+003;3.5160256348e+003;3.5005129395e+003;3.4898718262e+003;3.4948718262e+003;3.4858974609e+003;3.5016667480e+003;3.4783332520e+003;3.4946154785e+003;
4.4531250000e-001;3.4994870605e+003;3.4861538086e+003;3.5129487305e+003;3.5651281738e+003;3.4903845215e+003;3.5324357910e+003;3.5239743652e+003;3.5146154785e+003;3.5073076172e+003;3.5170512695e+003;3.4996154785e+003;3.5139743652e+003;3.4978205566e+003;3.5129487305e+003;
4.5312500000e-001;3.4874357910e+003;3.4700000000e+003;3.5011538086e+003;3.5591025391e+003;3.4753845215e+003;3.5182050781e+003;3.5078205566e+003;3.4991025391e+003;3.4930769043e+003;3.5012819824e+003;3.4862819824e+003;3.5000000000e+003;3.4829487305e+003;3.5010256348e+003;
4.6093750000e-001;3.5779487305e+003;3.5710256348e+003;3.5883332520e+003;3.6238461914e+003;3.5657692871e+003;3.5983332520e+003;3.5915385742e+003;3.5907692871e+003;3.5908974609e+003;3.5961538086e+003;3.5874357910e+003;3.5983332520e+003;3.5741025391e+003;3.5937180176e+003;
4.6875000000e-001;3.5626923828e+003;3.5575642090e+003;3.5756411133e+003;3.6020512695e+003;3.5546154785e+003;3.5853845215e+003;3.5807692871e+003;3.5832050781e+003;3.5821794434e+003;3.5861538086e+003;3.5738461914e+003;3.5888461914e+003;3.5625642090e+003;3.5778205566e+003;
4.7656250000e-001;3.5221794434e+003;3.5101281738e+003;3.5388461914e+003;3.5701281738e+003;3.5210256348e+003;3.5526923828e+003;3.5501281738e+003;3.5479487305e+003;3.5421794434e+003;3.5453845215e+003;3.5285898438e+003;3.5429487305e+003;3.5247436523e+003;3.5297436523e+003;
4.8437500000e-001;3.5444870605e+003;3.5315385742e+003;3.5601281738e+003;3.5996154785e+003;3.5412819824e+003;3.5758974609e+003;3.5714101563e+003;3.5692307129e+003;3.5623076172e+003;3.5678205566e+003;3.5503845215e+003;3.5591025391e+003;3.5466667480e+003;3.5496154785e+003;
4.9218750000e-001;3.5646154785e+003;3.5547436523e+003;3.5794870605e+003;3.6237180176e+003;3.5556411133e+003;3.5971794434e+003;3.5887180176e+003;3.5894870605e+003;3.5823076172e+003;3.5894870605e+003;3.5719230957e+003;3.5771794434e+003;3.5652563477e+003;3.5698718262e+003;
5.0000000000e-001;3.5382050781e+003;3.5335898438e+003;3.5553845215e+003;3.5925642090e+003;3.5257692871e+003;3.5773076172e+003;3.5632050781e+003;3.5607692871e+003;3.5565385742e+003;3.5582050781e+003;3.5430769043e+003;3.5537180176e+003;3.5308974609e+003;3.5441025391e+003;
5.0781250000e-001;3.5434614258e+003;3.5364101563e+003;3.5603845215e+003;3.5898718262e+003;3.5378205566e+003;3.5824357910e+003;3.5693588867e+003;3.5608974609e+003;3.5592307129e+003;3.5575642090e+003;3.5443588867e+003;3.5571794434e+003;3.5332050781e+003;3.5470512695e+003;
5.1562500000e-001;3.5773076172e+003;3.5662819824e+003;3.5920512695e+003;3.6162819824e+003;3.5775642090e+003;3.6124357910e+003;3.6012819824e+003;3.5900000000e+003;3.5901281738e+003;3.5892307129e+003;3.5758974609e+003;3.5871794434e+003;3.5673076172e+003;3.5783332520e+003;
5.2343750000e-001;3.5779487305e+003;3.5728205566e+003;3.5957692871e+003;3.6297436523e+003;3.5687180176e+003;3.6098718262e+003;3.5982050781e+003;3.5834614258e+003;3.5805129395e+003;3.5866667480e+003;3.5679487305e+003;3.5791025391e+003;3.5605129395e+003;3.5742307129e+003;
5.3125000000e-001;3.6019230957e+003;3.5967949219e+003;3.6226923828e+003;3.6492307129e+003;3.6106411133e+003;3.6326923828e+003;3.6212819824e+003;3.6085898438e+003;3.6046154785e+003;3.6124357910e+003;3.5934614258e+003;3.6064101563e+003;3.5835898438e+003;3.6005129395e+003;
5.3906250000e-001;3.6023076172e+003;3.5979487305e+003;3.6278205566e+003;3.6541025391e+003;3.6212819824e+003;3.6405129395e+003;3.6260256348e+003;3.6114101563e+003;3.6048718262e+003;3.6191025391e+003;3.6037180176e+003;3.6193588867e+003;3.5971794434e+003;3.6061538086e+003;
5.4687500000e-001;3.6355129395e+003;3.6247436523e+003;3.6612819824e+003;3.6683332520e+003;3.6335898438e+003;3.6643588867e+003;3.6517949219e+003;3.6442307129e+003;3.6429487305e+003;3.6605129395e+003;3.6406411133e+003;3.6578205566e+003;3.6270512695e+003;3.6402563477e+003;
5.5468750000e-001;3.5975642090e+003;3.5905129395e+003;3.6260256348e+003;3.6339743652e+003;3.6019230957e+003;3.6306411133e+003;3.6208974609e+003;3.6123076172e+003;3.6098718262e+003;3.6232050781e+003;3.6060256348e+003;3.6210256348e+003;3.5916667480e+003;3.6052563477e+003;
5.6250000000e-001;3.6580769043e+003;3.6620512695e+003;3.6821794434e+003;3.7043588867e+003;3.6632050781e+003;3.6857692871e+003;3.6862819824e+003;3.6801281738e+003;3.6761538086e+003;3.6832050781e+003;3.6710256348e+003;3.6765385742e+003;3.6705129395e+003;3.6702563477e+003;
5.7031250000e-001;3.6758974609e+003;3.6761538086e+003;3.6998718262e+003;3.7198718262e+003;3.6797436523e+003;3.7010256348e+003;3.6996154785e+003;3.7007692871e+003;3.6983332520e+003;3.7047436523e+003;3.6893588867e+003;3.6988461914e+003;3.6923076172e+003;3.6906411133e+003;
5.7812500000e-001;3.6662819824e+003;3.6621794434e+003;3.6930769043e+003;3.7052563477e+003;3.6738461914e+003;3.6944870605e+003;3.6865385742e+003;3.6921794434e+003;3.6880769043e+003;3.6951281738e+003;3.6766667480e+003;3.6951281738e+003;3.6844870605e+003;3.6835898438e+003;
5.8593750000e-001;3.6875642090e+003;3.6838461914e+003;3.7150000000e+003;3.7225642090e+003;3.6920512695e+003;3.7139743652e+003;3.7058974609e+003;3.7094870605e+003;3.7028205566e+003;3.7141025391e+003;3.6942307129e+003;3.7135898438e+003;3.7038461914e+003;3.7034614258e+003;
5.9375000000e-001;3.6855129395e+003;3.6765385742e+003;3.7175642090e+003;3.7111538086e+003;3.6780769043e+003;3.7044870605e+003;3.6998718262e+003;3.6973076172e+003;3.6912819824e+003;3.7061538086e+003;3.6821794434e+003;3.7010256348e+003;3.6860256348e+003;3.6928205566e+003;
6.0156250000e-001;3.6865385742e+003;3.6794870605e+003;3.7178205566e+003;3.7112819824e+003;3.6843588867e+003;3.7061538086e+003;3.7019230957e+003;3.6970512695e+003;3.6941025391e+003;3.7056411133e+003;3.6828205566e+003;3.6989743652e+003;3.6858974609e+003;3.6911538086e+003;
6.0937500000e-001;3.7724357910e+003;3.7738461914e+003;3.8006411133e+003;3.7988461914e+003;3.7832050781e+003;3.7943588867e+003;3.7887180176e+003;3.7903845215e+003;3.7923076172e+003;3.8038461914e+003;3.7764101563e+003;3.7860256348e+003;3.7832050781e+003;3.7787180176e+003;
6.1718750000e-001;3.7852563477e+003;3.7866667480e+003;3.8162819824e+003;3.8148718262e+003;3.8002563477e+003;3.8130769043e+003;3.8047436523e+003;3.8100000000e+003;3.8129487305e+003;3.8261538086e+003;3.7932050781e+003;3.8035898438e+003;3.7994870605e+003;3.7943588867e+003;
6.2500000000e-001;3.7534614258e+003;3.7452563477e+003;3.7956411133e+003;3.7817949219e+003;3.7552563477e+003;3.7883332520e+003;3.7817949219e+003;3.7743588867e+003;3.7743588867e+003;3.7870512695e+003;3.7511538086e+003;3.7703845215e+003;3.7505129395e+003;3.7576923828e+003;
6.3281250000e-001;3.7791025391e+003;3.7717949219e+003;3.8219230957e+003;3.8037180176e+003;3.7665385742e+003;3.8061538086e+003;3.8016667480e+003;3.7964101563e+003;3.7930769043e+003;3.8087180176e+003;3.7753845215e+003;3.7932050781e+003;3.7766667480e+003;3.7821794434e+003;
6.4062500000e-001;3.7844870605e+003;3.7792307129e+003;3.8289743652e+003;3.8073076172e+003;3.7606411133e+003;3.8062819824e+003;3.8002563477e+003;3.7997436523e+003;3.7935898438e+003;3.8138461914e+003;3.7839743652e+003;3.7992307129e+003;3.7888461914e+003;3.7889743652e+003;
6.4843750000e-001;3.8419230957e+003;3.8293588867e+003;3.8794870605e+003;3.8520512695e+003;3.8598718262e+003;3.8407692871e+003;3.8335898438e+003;3.8321794434e+003;3.8337180176e+003;3.8591025391e+003;3.8334614258e+003;3.8515385742e+003;3.8437180176e+003;3.8394870605e+003;
6.5625000000e-001;3.8264101563e+003;3.8169230957e+003;3.8646154785e+003;3.8378205566e+003;3.8329487305e+003;3.8291025391e+003;3.8220512695e+003;3.8230769043e+003;3.8211538086e+003;3.8450000000e+003;3.8171794434e+003;3.8356411133e+003;3.8266667480e+003;3.8253845215e+003;
6.6406250000e-001;3.8835898438e+003;3.8874357910e+003;3.9261538086e+003;3.8932050781e+003;3.8761538086e+003;3.8962819824e+003;3.8898718262e+003;3.8911538086e+003;3.8910256348e+003;3.9166667480e+003;3.8885898438e+003;3.8975642090e+003;3.8956411133e+003;3.8891025391e+003;
6.7187500000e-001;3.8776923828e+003;3.8801281738e+003;3.9203845215e+003;3.9044870605e+003;3.8964101563e+003;3.8879487305e+003;3.8835898438e+003;3.8892307129e+003;3.8924357910e+003;3.9112819824e+003;3.8764101563e+003;3.8897436523e+003;3.8870512695e+003;3.8798718262e+003;
6.7968750000e-001;3.8823076172e+003;3.8858974609e+003;3.9221794434e+003;3.9050000000e+003;3.8964101563e+003;3.8866667480e+003;3.8873076172e+003;3.8906411133e+003;3.8921794434e+003;3.9091025391e+003;3.8760256348e+003;3.8883332520e+003;3.8860256348e+003;3.8805129395e+003;
6.8750000000e-001;3.8952563477e+003;3.9026923828e+003;3.9350000000e+003;3.9010256348e+003;3.8964101563e+003;3.8964101563e+003;3.8965385742e+003;3.9066667480e+003;3.9067949219e+003;3.9285898438e+003;3.8938461914e+003;3.9042307129e+003;3.9002563477e+003;3.8920512695e+003;
6.9531250000e-001;3.8197436523e+003;3.8265385742e+003;3.8650000000e+003;3.8335898438e+003;3.8329487305e+003;3.8426923828e+003;3.8344870605e+003;3.8348718262e+003;3.8375642090e+003;3.8603845215e+003;3.8244870605e+003;3.8406411133e+003;3.8360256348e+003;3.8273076172e+003;
7.0312500000e-001;3.8044870605e+003;3.8108974609e+003;3.8521794434e+003;3.8188461914e+003;3.8187180176e+003;3.8300000000e+003;3.8207692871e+003;3.8192307129e+003;3.8234614258e+003;3.8464101563e+003;3.8124357910e+003;3.8300000000e+003;3.8208974609e+003;3.8174357910e+003;
7.1093750000e-001;3.7656411133e+003;3.7717949219e+003;3.8173076172e+003;3.7844870605e+003;3.7789743652e+003;3.7953845215e+003;3.7839743652e+003;3.7794870605e+003;3.7851281738e+003;3.8076923828e+003;3.7761538086e+003;3.7950000000e+003;3.7820512695e+003;3.7824357910e+003;
7.1875000000e-001;3.6979487305e+003;3.7048718262e+003;3.7529487305e+003;3.7278205566e+003;3.7074357910e+003;3.7341025391e+003;3.7184614258e+003;3.7051281738e+003;3.7121794434e+003;3.7350000000e+003;3.7075642090e+003;3.7271794434e+003;3.7170512695e+003;3.7133332520e+003;
7.2656250000e-001;3.6952563477e+003;3.7023076172e+003;3.7484614258e+003;3.7247436523e+003;3.7015385742e+003;3.7296154785e+003;3.7130769043e+003;3.6994870605e+003;3.7048718262e+003;3.7305129395e+003;3.7035898438e+003;3.7243588867e+003;3.7153845215e+003;3.7098718262e+003;
7.3437500000e-001;3.6564101563e+003;3.6611538086e+003;3.7073076172e+003;3.6797436523e+003;3.6569230957e+003;3.6853845215e+003;3.6689743652e+003;3.6575642090e+003;3.6565385742e+003;3.6875642090e+003;3.6661538086e+003;3.6921794434e+003;3.6715385742e+003;3.6762819824e+003;
7.4218750000e-001;3.6258974609e+003;3.6292307129e+003;3.6766667480e+003;3.6483332520e+003;3.6283332520e+003;3.6533332520e+003;3.6382050781e+003;3.6241025391e+003;3.6221794434e+003;3.6526923828e+003;3.6366667480e+003;3.6617949219e+003;3.6371794434e+003;3.6470512695e+003;
7.5000000000e-001;3.6421794434e+003;3.6438461914e+003;3.6920512695e+003;3.6712819824e+003;3.6402563477e+003;3.6688461914e+003;3.6515385742e+003;3.6420512695e+003;3.6501281738e+003;3.6761538086e+003;3.6521794434e+003;3.6628205566e+003;3.6584614258e+003;3.6565385742e+003;
7.5781250000e-001;3.6197436523e+003;3.6207692871e+003;3.6701281738e+003;3.6510256348e+003;3.6082050781e+003;3.6482050781e+003;3.6302563477e+003;3.6247436523e+003;3.6329487305e+003;3.6578205566e+003;3.6276923828e+003;3.6394870605e+003;3.6373076172e+003;3.6335898438e+003;
7.6562500000e-001;3.5960256348e+003;3.5970512695e+003;3.6450000000e+003;3.6271794434e+003;3.5789743652e+003;3.6230769043e+003;3.6083332520e+003;3.6026923828e+003;3.6093588867e+003;3.6324357910e+003;3.6014101563e+003;3.6156411133e+003;3.6116667480e+003;3.6097436523e+003;
7.7343750000e-001;3.6048718262e+003;3.6073076172e+003;3.6498718262e+003;3.6343588867e+003;3.5915385742e+003;3.6266667480e+003;3.6174357910e+003;3.6105129395e+003;3.6164101563e+003;3.6371794434e+003;3.6092307129e+003;3.6242307129e+003;3.6179487305e+003;3.6183332520e+003;
7.8125000000e-001;3.5955129395e+003;3.5987180176e+003;3.6423076172e+003;3.6316667480e+003;3.6303845215e+003;3.6293588867e+003;3.6134614258e+003;3.6148718262e+003;3.6257692871e+003;3.6328205566e+003;3.6108974609e+003;3.6237180176e+003;3.6139743652e+003;3.6105129395e+003;
7.8906250000e-001;3.6720512695e+003;3.6738461914e+003;3.7124357910e+003;3.7024357910e+003;3.6815385742e+003;3.6908974609e+003;3.6876923828e+003;3.6891025391e+003;3.6956411133e+003;3.7169230957e+003;3.6843588867e+003;3.7034614258e+003;3.6893588867e+003;3.6862819824e+003;
7.9687500000e-001;3.6548718262e+003;3.6578205566e+003;3.6956411133e+003;3.6871794434e+003;3.6656411133e+003;3.6825642090e+003;3.6767949219e+003;3.6730769043e+003;3.6817949219e+003;3.6994870605e+003;3.6676923828e+003;3.6875642090e+003;3.6715385742e+003;3.6674357910e+003;
8.0468750000e-001;3.6806411133e+003;3.6814101563e+003;3.7211538086e+003;3.7078205566e+003;3.7024357910e+003;3.7155129395e+003;3.7056411133e+003;3.6911538086e+003;3.7023076172e+003;3.7134614258e+003;3.6883332520e+003;3.7050000000e+003;3.6925642090e+003;3.6841025391e+003;
8.1250000000e-001;3.6833332520e+003;3.6910256348e+003;3.7161538086e+003;3.7117949219e+003;3.7024357910e+003;3.7132050781e+003;3.6939743652e+003;3.6810256348e+003;3.6873076172e+003;3.7178205566e+003;3.6884614258e+003;3.7091025391e+003;3.6969230957e+003;3.6912819824e+003;
8.2031250000e-001;3.6930769043e+003;3.6998718262e+003;3.7229487305e+003;3.7210256348e+003;3.7071794434e+003;3.7198718262e+003;3.7007692871e+003;3.6843588867e+003;3.6898718262e+003;3.7241025391e+003;3.6966667480e+003;3.7192307129e+003;3.7035898438e+003;3.6983332520e+003;
8.2812500000e-001;3.6784614258e+003;3.6737180176e+003;3.7088461914e+003;3.7020512695e+003;3.6891025391e+003;3.6987180176e+003;3.6788461914e+003;3.6644870605e+003;3.6669230957e+003;3.7028205566e+003;3.6810256348e+003;3.7053845215e+003;3.6835898438e+003;3.6788461914e+003;
8.3593750000e-001;3.6525642090e+003;3.6455129395e+003;3.6841025391e+003;3.6764101563e+003;3.6664101563e+003;3.6721794434e+003;3.6530769043e+003;3.6391025391e+003;3.6398718262e+003;3.6728205566e+003;3.6544870605e+003;3.6770512695e+003;3.6574357910e+003;3.6519230957e+003;
8.4375000000e-001;3.8543588867e+003;3.8675642090e+003;3.8747436523e+003;3.8657692871e+003;3.8680769043e+003;3.8608974609e+003;3.8547436523e+003;3.8452563477e+003;3.8485898438e+003;3.8821794434e+003;3.8579487305e+003;3.8675642090e+003;3.8662819824e+003;3.8542307129e+003;
8.5156250000e-001;3.9269230957e+003;3.9451281738e+003;3.9456411133e+003;3.9337180176e+003;3.9382050781e+003;3.9332050781e+003;3.9287180176e+003;3.9239743652e+003;3.9288461914e+003;3.9643588867e+003;3.9341025391e+003;3.9439743652e+003;3.9407692871e+003;3.9287180176e+003;
8.5937500000e-001;3.9637180176e+003;3.9807692871e+003;3.9838461914e+003;3.9683332520e+003;3.9796154785e+003;3.9711538086e+003;3.9689743652e+003;3.9683332520e+003;3.9721794434e+003;4.0044870605e+003;3.9708974609e+003;3.9858974609e+003;3.9751281738e+003;3.9624357910e+003;
8.6718750000e-001;3.9838461914e+003;3.9980769043e+003;4.0039743652e+003;3.9869230957e+003;4.0034614258e+003;3.9848718262e+003;3.9855129395e+003;3.9878205566e+003;3.9901281738e+003;4.0208974609e+003;3.9879487305e+003;4.0032050781e+003;3.9928205566e+003;3.9782050781e+003;
8.7500000000e-001;4.0224357910e+003;4.0326923828e+003;4.0424357910e+003;4.0248718262e+003;4.0366667480e+003;4.0164101563e+003;4.0153845215e+003;4.0253845215e+003;4.0296154785e+003;4.0637180176e+003;4.0270512695e+003;4.0387180176e+003;4.0316667480e+003;4.0158974609e+003;
8.8281250000e-001;4.0467949219e+003;4.0571794434e+003;4.0648718262e+003;4.0457692871e+003;4.0579487305e+003;4.0441025391e+003;4.0411538086e+003;4.0478205566e+003;4.0550000000e+003;4.0894870605e+003;4.0524357910e+003;4.0626923828e+003;4.0573076172e+003;4.0407692871e+003;
8.9062500000e-001;4.0975639648e+003;4.1080771484e+003;4.1120512695e+003;4.0880769043e+003;4.1079487305e+003;4.0920512695e+003;4.0908974609e+003;4.0958974609e+003;4.1055126953e+003;4.1411538086e+003;4.1026923828e+003;4.1121796875e+003;4.1087177734e+003;4.0900000000e+003;
8.9843750000e-001;4.1407690430e+003;4.1512822266e+003;4.1524360352e+003;4.1216665039e+003;4.1539741211e+003;4.1283334961e+003;4.1310258789e+003;4.1383334961e+003;4.1480771484e+003;4.1857690430e+003;4.1447436523e+003;4.1553847656e+003;4.1516665039e+003;4.1311538086e+003;
9.0625000000e-001;4.1083334961e+003;4.1188461914e+003;4.1183334961e+003;4.0941025391e+003;4.1157690430e+003;4.0955129395e+003;4.0985898438e+003;4.0929487305e+003;4.0970512695e+003;4.1405126953e+003;4.1079487305e+003;4.1164101563e+003;4.1167949219e+003;4.0962822266e+003;
9.1406250000e-001;4.1397436523e+003;4.1400000000e+003;4.1505126953e+003;4.1053847656e+003;4.1298715820e+003;4.1129487305e+003;4.1157690430e+003;4.1060258789e+003;4.1116665039e+003;4.1639741211e+003;4.1294873047e+003;4.1435898438e+003;4.1356411133e+003;4.1148715820e+003;
9.2187500000e-001;4.1367949219e+003;4.1388461914e+003;4.1465385742e+003;4.0987177734e+003;4.1448715820e+003;4.1121796875e+003;4.1121796875e+003;4.1025639648e+003;4.1043588867e+003;4.1593588867e+003;4.1267949219e+003;4.1407690430e+003;4.1324360352e+003;4.1097436523e+003;
9.2968750000e-001;4.1355126953e+003;4.1419228516e+003;4.1407690430e+003;4.1075639648e+003;4.1623076172e+003;4.1188461914e+003;4.1134614258e+003;4.1124360352e+003;4.1066665039e+003;4.1684614258e+003;4.1344873047e+003;4.1439741211e+003;4.1357690430e+003;4.1120512695e+003;
9.3750000000e-001;4.1517949219e+003;4.1602563477e+003;4.1456411133e+003;4.1252563477e+003;4.1734614258e+003;4.1302563477e+003;4.1356411133e+003;4.1392309570e+003;4.1400000000e+003;4.1848715820e+003;4.1497436523e+003;4.1553847656e+003;4.1557690430e+003;4.1292309570e+003;
9.4531250000e-001;4.1634614258e+003;4.1702563477e+003;4.1582050781e+003;4.1329487305e+003;4.1878203125e+003;4.1414101563e+003;4.1446152344e+003;4.1547436523e+003;4.1553847656e+003;4.2005126953e+003;4.1606411133e+003;4.1687177734e+003;4.1697436523e+003;4.1417949219e+003;
9.5312500000e-001;4.0984614258e+003;4.1010258789e+003;4.1020512695e+003;4.0753845215e+003;4.1173076172e+003;4.0867949219e+003;4.0871794434e+003;4.0950000000e+003;4.0933332520e+003;4.1382050781e+003;4.0956411133e+003;4.1085898438e+003;4.1017949219e+003;4.0779487305e+003;
9.6093750000e-001;4.0907692871e+003;4.0953845215e+003;4.0948718262e+003;4.0728205566e+003;4.1044873047e+003;4.0800000000e+003;4.0832050781e+003;4.0869230957e+003;4.0869230957e+003;4.1288461914e+003;4.0898718262e+003;4.1002563477e+003;4.0921794434e+003;4.0700000000e+003;
9.6875000000e-001;4.1047436523e+003;4.1216665039e+003;4.0994873047e+003;4.0894870605e+003;4.1180771484e+003;4.0910256348e+003;4.0946154785e+003;4.1076923828e+003;4.1146152344e+003;4.1510258789e+003;4.1116665039e+003;4.1162822266e+003;4.1167949219e+003;4.0915385742e+003;
9.7656250000e-001;4.0889743652e+003;4.1048715820e+003;4.0838461914e+003;4.0728205566e+003;4.1024360352e+003;4.0801281738e+003;4.0817949219e+003;4.0907692871e+003;4.0970512695e+003;4.1355126953e+003;4.0935898438e+003;4.1010258789e+003;4.1026923828e+003;4.0765385742e+003;
9.8437500000e-001;4.1316665039e+003;4.1433334961e+003;4.1312822266e+003;4.1103847656e+003;4.1450000000e+003;4.1270512695e+003;4.1284614258e+003;4.1264101563e+003;4.1321796875e+003;4.1767949219e+003;4.1344873047e+003;4.1438461914e+003;4.1408974609e+003;4.1185898438e+003;
9.9218750000e-001;4.1517949219e+003;4.1637177734e+003;4.1557690430e+003;4.1291025391e+003;4.1675639648e+003;4.1474360352e+003;4.1483334961e+003;4.1451284180e+003;4.1526923828e+003;4.1978203125e+003;4.1573076172e+003;4.1661538086e+003;4.1589741211e+003;4.1411538086e+003;
1.0000000000e+000;4.2262822266e+003;4.2455126953e+003;4.2258974609e+003;4.2035898438e+003;4.2470512695e+003;4.2120512695e+003;4.2135898438e+003;4.1971796875e+003;4.2096152344e+003;4.2541025391e+003;4.2226923828e+003;4.2291025391e+003;4.2307690430e+003;4.2133334961e+003;
1.0078125000e+000;4.3146152344e+003;4.3357690430e+003;4.3073076172e+003;4.2869228516e+003;4.3310258789e+003;4.2933334961e+003;4.2948715820e+003;4.2753847656e+003;4.2878203125e+003;4.3373076172e+003;4.3062822266e+003;4.3123076172e+003;4.3180771484e+003;4.2976923828e+003;
1.0156250000e+000;4.3773076172e+003;4.3992309570e+003;4.3661538086e+003;4.3437177734e+003;4.3869228516e+003;4.3529487305e+003;4.3528203125e+003;4.3338461914e+003;4.3444873047e+003;4.3993588867e+003;4.3680771484e+003;4.3750000000e+003;4.3800000000e+003;4.3583334961e+003;
1.0234375000e+000;4.3797436523e+003;4.4006411133e+003;4.3692309570e+003;4.3424360352e+003;4.3829487305e+003;4.3575639648e+003;4.3555126953e+003;4.3375639648e+003;4.3446152344e+003;4.4026923828e+003;4.3720512695e+003;4.3807690430e+003;4.3823076172e+003;4.3607690430e+003;
1.0312500000e+000;4.3124360352e+003;4.3264101563e+003;4.3008974609e+003;4.2805126953e+003;4.3293588867e+003;4.2826923828e+003;4.2920512695e+003;4.2874360352e+003;4.2902563477e+003;4.3412822266e+003;4.3126923828e+003;4.3116665039e+003;4.3166665039e+003;4.2956411133e+003;
1.0390625000e+000;4.3152563477e+003;4.3358974609e+003;4.3025639648e+003;4.2889741211e+003;4.3130771484e+003;4.3116665039e+003;4.3123076172e+003;4.3129487305e+003;4.3061538086e+003;4.3557690430e+003;4.3215385742e+003;4.3225639648e+003;4.3308974609e+003;4.3042309570e+003;
1.0468750000e+000;4.3303847656e+003;4.3520512695e+003;4.3202563477e+003;4.3030771484e+003;4.3280771484e+003;4.3274360352e+003;4.3274360352e+003;4.3350000000e+003;4.3282050781e+003;4.3774360352e+003;4.3371796875e+003;4.3371796875e+003;4.3469228516e+003;4.3197436523e+003;
1.0546875000e+000;4.2462822266e+003;4.2691025391e+003;4.2406411133e+003;4.2250000000e+003;4.2696152344e+003;4.2450000000e+003;4.2447436523e+003;4.2601284180e+003;4.2571796875e+003;4.2993588867e+003;4.2561538086e+003;4.2530771484e+003;4.2587177734e+003;4.2385898438e+003;
1.0625000000e+000;4.1024360352e+003;4.1171796875e+003;4.1007690430e+003;4.0819230957e+003;4.1332050781e+003;4.1087177734e+003;4.1028203125e+003;4.1164101563e+003;4.1171796875e+003;4.1450000000e+003;4.1098715820e+003;4.1120512695e+003;4.1207690430e+003;4.0929487305e+003;
1.0703125000e+000;4.0660256348e+003;4.0815385742e+003;4.0680769043e+003;4.0515385742e+003;4.0896154785e+003;4.0774357910e+003;4.0712819824e+003;4.0815385742e+003;4.0824357910e+003;4.1098715820e+003;4.0730769043e+003;4.0780769043e+003;4.0852563477e+003;4.0569230957e+003;
1.0781250000e+000;4.1117949219e+003;4.1321796875e+003;4.1137177734e+003;4.0958974609e+003;4.1262822266e+003;4.1216665039e+003;4.1194873047e+003;4.1217949219e+003;4.1250000000e+003;4.1582050781e+003;4.1224360352e+003;4.1250000000e+003;4.1284614258e+003;4.1056411133e+003;
1.0859375000e+000;4.1605126953e+003;4.1811538086e+003;4.1592309570e+003;4.1383334961e+003;4.1706411133e+003;4.1673076172e+003;4.1641025391e+003;4.1661538086e+003;4.1708974609e+003;4.2083334961e+003;4.1741025391e+003;4.1750000000e+003;4.1755126953e+003;4.1566665039e+003;
1.0937500000e+000;4.1098715820e+003;4.1251284180e+003;4.1046152344e+003;4.0843588867e+003;4.1225639648e+003;4.1170512695e+003;4.1033334961e+003;4.0985898438e+003;4.1056411133e+003;4.1405126953e+003;4.1125639648e+003;4.1193588867e+003;4.1135898438e+003;4.0997436523e+003;
1.1015625000e+000;4.0948718262e+003;4.1058974609e+003;4.0908974609e+003;4.0666667480e+003;4.1112822266e+003;4.0961538086e+003;4.0848718262e+003;4.0778205566e+003;4.0835898438e+003;4.1162822266e+003;4.0894870605e+003;4.0980771484e+003;4.0935898438e+003;4.0789743652e+003;
1.1093750000e+000;4.0494870605e+003;4.0483332520e+003;4.0534614258e+003;4.0207692871e+003;4.0596154785e+003;4.0473076172e+003;4.0411538086e+003;4.0350000000e+003;4.0316667480e+003;4.0611538086e+003;4.0369230957e+003;4.0510256348e+003;4.0416667480e+003;4.0312819824e+003;
1.1171875000e+000;3.9996154785e+003;3.9964101563e+003;4.0058974609e+003;3.9779487305e+003;4.0028205566e+003;4.0052563477e+003;3.9979487305e+003;3.9889743652e+003;3.9811538086e+003;4.0070512695e+003;3.9864101563e+003;4.0038461914e+003;3.9891025391e+003;3.9824357910e+003;
1.1250000000e+000;3.9958974609e+003;4.0056411133e+003;3.9905129395e+003;3.9864101563e+003;4.0042307129e+003;4.0117949219e+003;4.0030769043e+003;3.9924357910e+003;3.9819230957e+003;4.0065385742e+003;3.9875642090e+003;4.0002563477e+003;3.9894870605e+003;3.9824357910e+003;
1.1328125000e+000;4.0034614258e+003;4.0157692871e+003;3.9969230957e+003;3.9929487305e+003;4.0196154785e+003;4.0203845215e+003;4.0128205566e+003;4.0080769043e+003;3.9978205566e+003;4.0239743652e+003;4.0011538086e+003;4.0116667480e+003;4.0032050781e+003;3.9969230957e+003;
1.1406250000e+000;3.9914101563e+003;4.0048718262e+003;3.9860256348e+003;3.9798718262e+003;4.0116667480e+003;4.0128205566e+003;4.0051281738e+003;4.0033332520e+003;3.9947436523e+003;4.0189743652e+003;3.9946154785e+003;4.0042307129e+003;3.9956411133e+003;3.9920512695e+003;
1.1484375000e+000;3.9853845215e+003;3.9994870605e+003;3.9814101563e+003;3.9719230957e+003;4.0037180176e+003;4.0116667480e+003;4.0020512695e+003;3.9996154785e+003;3.9944870605e+003;4.0147436523e+003;3.9915385742e+003;4.0008974609e+003;3.9905129395e+003;3.9897436523e+003;
1.1562500000e+000;3.9869230957e+003;3.9957692871e+003;3.9873076172e+003;3.9734614258e+003;3.9930769043e+003;4.0067949219e+003;3.9897436523e+003;3.9947436523e+003;3.9958974609e+003;4.0160256348e+003;3.9852563477e+003;4.0037180176e+003;3.9826923828e+003;3.9838461914e+003;
1.1640625000e+000;3.9703845215e+003;3.9823076172e+003;3.9715385742e+003;3.9625642090e+003;3.9867949219e+003;3.9879487305e+003;3.9738461914e+003;3.9791025391e+003;3.9811538086e+003;3.9989743652e+003;3.9692307129e+003;3.9856411133e+003;3.9678205566e+003;3.9678205566e+003;
1.1718750000e+000;3.9991025391e+003;4.0139743652e+003;3.9915385742e+003;3.9912819824e+003;4.0107692871e+003;4.0078205566e+003;3.9923076172e+003;4.0047436523e+003;4.0129487305e+003;4.0288461914e+003;4.0073076172e+003;4.0144870605e+003;4.0057692871e+003;4.0023076172e+003;
1.1796875000e+000;3.9458974609e+003;3.9473076172e+003;3.9400000000e+003;3.9289743652e+003;3.9550000000e+003;3.9651281738e+003;3.9451281738e+003;3.9369230957e+003;3.9447436523e+003;3.9651281738e+003;3.9439743652e+003;3.9676923828e+003;3.9500000000e+003;3.9533332520e+003;
1.1875000000e+000;3.9829487305e+003;3.9871794434e+003;3.9788461914e+003;3.9658974609e+003;3.9984614258e+003;4.0021794434e+003;3.9842307129e+003;3.9737180176e+003;3.9830769043e+003;4.0039743652e+003;3.9825642090e+003;4.0073076172e+003;3.9862819824e+003;3.9920512695e+003;
1.1953125000e+000;3.9606411133e+003;3.9667949219e+003;3.9628205566e+003;3.9502563477e+003;3.9398718262e+003;3.9889743652e+003;3.9671794434e+003;3.9561538086e+003;3.9596154785e+003;3.9807692871e+003;3.9673076172e+003;3.9878205566e+003;3.9633332520e+003;3.9648718262e+003;
1.2031250000e+000;3.9994870605e+003;3.9939743652e+003;3.9970512695e+003;3.9864101563e+003;4.0119230957e+003;4.0174357910e+003;4.0010256348e+003;3.9916667480e+003;3.9921794434e+003;4.0174357910e+003;3.9987180176e+003;4.0164101563e+003;4.0082050781e+003;4.0012819824e+003;
1.2109375000e+000;3.9835898438e+003;3.9808974609e+003;3.9817949219e+003;3.9742307129e+003;4.0146154785e+003;4.0042307129e+003;3.9882050781e+003;3.9834614258e+003;3.9817949219e+003;4.0053845215e+003;3.9857692871e+003;4.0041025391e+003;3.9948718262e+003;3.9887180176e+003;
1.2187500000e+000;4.0110256348e+003;4.0146154785e+003;4.0087180176e+003;3.9912819824e+003;4.0308974609e+003;4.0303845215e+003;4.0169230957e+003;4.0175642090e+003;4.0065385742e+003;4.0348718262e+003;4.0198718262e+003;4.0376923828e+003;4.0197436523e+003;4.0151281738e+003;
1.2265625000e+000;4.0178205566e+003;4.0189743652e+003;4.0166667480e+003;3.9967949219e+003;4.0265385742e+003;4.0360256348e+003;4.0203845215e+003;4.0237180176e+003;4.0148718262e+003;4.0448718262e+003;4.0260256348e+003;4.0453845215e+003;4.0257692871e+003;4.0215385742e+003;
1.2343750000e+000;3.9682050781e+003;3.9689743652e+003;3.9708974609e+003;3.9619230957e+003;3.9730769043e+003;3.9955129395e+003;3.9751281738e+003;3.9757692871e+003;3.9739743652e+003;3.9984614258e+003;3.9729487305e+003;3.9944870605e+003;3.9783332520e+003;3.9737180176e+003;
1.2421875000e+000;3.9814101563e+003;3.9856411133e+003;3.9825642090e+003;3.9778205566e+003;3.9897436523e+003;4.0083332520e+003;3.9892307129e+003;3.9885898438e+003;3.9879487305e+003;4.0111538086e+003;3.9852563477e+003;4.0039743652e+003;3.9926923828e+003;3.9866667480e+003;
1.2500000000e+000;4.0410256348e+003;4.0489743652e+003;4.0383332520e+003;4.0200000000e+003;4.0470512695e+003;4.0489743652e+003;4.0364101563e+003;4.0458974609e+003;4.0473076172e+003;4.0748718262e+003;4.0520512695e+003;4.0614101563e+003;4.0523076172e+003;4.0476923828e+003;
1.2578125000e+000;4.0185898438e+003;4.0232050781e+003;4.0173076172e+003;3.9979487305e+003;4.0226923828e+003;4.0246154785e+003;4.0120512695e+003;4.0192307129e+003;4.0248718262e+003;4.0501281738e+003;4.0301281738e+003;4.0391025391e+003;4.0296154785e+003;4.0258974609e+003;
1.2656250000e+000;4.0212819824e+003;4.0228205566e+003;4.0187180176e+003;4.0028205566e+003;4.0230769043e+003;4.0239743652e+003;4.0108974609e+003;4.0155129395e+003;4.0253845215e+003;4.0494870605e+003;4.0308974609e+003;4.0394870605e+003;4.0324357910e+003;4.0283332520e+003;
1.2734375000e+000;4.0502563477e+003;4.0505129395e+003;4.0439743652e+003;4.0325642090e+003;4.0493588867e+003;4.0474357910e+003;4.0328205566e+003;4.0387180176e+003;4.0510256348e+003;4.0775642090e+003;4.0571794434e+003;4.0660256348e+003;4.0619230957e+003;4.0573076172e+003;
1.2812500000e+000;4.0111538086e+003;4.0211538086e+003;4.0020512695e+003;3.9974357910e+003;4.0133332520e+003;4.0157692871e+003;3.9951281738e+003;3.9921794434e+003;4.0056411133e+003;4.0312819824e+003;4.0137180176e+003;4.0284614258e+003;4.0201281738e+003;4.0185898438e+003;
1.2890625000e+000;4.0187180176e+003;4.0328205566e+003;4.0100000000e+003;4.0062819824e+003;4.0265385742e+003;4.0321794434e+003;4.0117949219e+003;4.0037180176e+003;4.0175642090e+003;4.0411538086e+003;4.0248718262e+003;4.0350000000e+003;4.0310256348e+003;4.0262819824e+003;
1.2968750000e+000;3.9597436523e+003;3.9648718262e+003;3.9608974609e+003;3.9450000000e+003;3.9853845215e+003;4.0073076172e+003;3.9833332520e+003;3.9671794434e+003;3.9746154785e+003;3.9948718262e+003;3.9697436523e+003;3.9782050781e+003;3.9773076172e+003;3.9741025391e+003;
1.3046875000e+000;3.9860256348e+003;3.9785898438e+003;3.9807692871e+003;3.9773076172e+003;3.9834614258e+003;4.0228205566e+003;4.0042307129e+003;3.9930769043e+003;3.9908974609e+003;4.0051281738e+003;3.9834614258e+003;4.0001281738e+003;3.9905129395e+003;3.9924357910e+003;
1.3125000000e+000;3.9780769043e+003;3.9757692871e+003;3.9715385742e+003;3.9741025391e+003;3.9730769043e+003;4.0100000000e+003;3.9929487305e+003;3.9853845215e+003;3.9815385742e+003;3.9960256348e+003;3.9771794434e+003;3.9960256348e+003;3.9817949219e+003;3.9847436523e+003;
1.3203125000e+000;3.9869230957e+003;3.9923076172e+003;3.9824357910e+003;3.9732050781e+003;4.0114101563e+003;4.0030769043e+003;3.9975642090e+003;3.9867949219e+003;3.9825642090e+003;4.0073076172e+003;3.9893588867e+003;4.0060256348e+003;3.9952563477e+003;3.9980769043e+003;
1.3281250000e+000;3.9679487305e+003;3.9615385742e+003;3.9634614258e+003;3.9587180176e+003;3.9447436523e+003;3.9891025391e+003;3.9715385742e+003;3.9747436523e+003;3.9755129395e+003;3.9969230957e+003;3.9770512695e+003;3.9923076172e+003;3.9770512695e+003;3.9837180176e+003;
1.3359375000e+000;3.9839743652e+003;3.9814101563e+003;3.9782050781e+003;3.9791025391e+003;3.9551281738e+003;4.0056411133e+003;3.9878205566e+003;3.9889743652e+003;3.9929487305e+003;4.0101281738e+003;3.9916667480e+003;4.0041025391e+003;3.9933332520e+003;3.9966667480e+003;
1.3437500000e+000;4.1143588867e+003;4.1264101563e+003;4.1050000000e+003;4.1019228516e+003;4.1337177734e+003;4.1267949219e+003;4.1142309570e+003;4.1166665039e+003;4.1194873047e+003;4.1476923828e+003;4.1150000000e+003;4.1210258789e+003;4.1261538086e+003;4.1157690430e+003;
1.3515625000e+000;4.1066665039e+003;4.1174360352e+003;4.0979487305e+003;4.0912819824e+003;4.1325639648e+003;4.1203847656e+003;4.1048715820e+003;4.1078203125e+003;4.1073076172e+003;4.1398715820e+003;4.1065385742e+003;4.1133334961e+003;4.1176923828e+003;4.1057690430e+003;
1.3593750000e+000;4.1424360352e+003;4.1506411133e+003;4.1332050781e+003;4.1243588867e+003;4.1591025391e+003;4.1452563477e+003;4.1283334961e+003;4.1346152344e+003;4.1360258789e+003;4.1696152344e+003;4.1460258789e+003;4.1519228516e+003;4.1558974609e+003;4.1435898438e+003;
1.3671875000e+000;4.1737177734e+003;4.1820512695e+003;4.1652563477e+003;4.1561538086e+003;4.1851284180e+003;4.1679487305e+003;4.1538461914e+003;4.1643588867e+003;4.1700000000e+003;4.2021796875e+003;4.1814101563e+003;4.1875639648e+003;4.1910258789e+003;4.1802563477e+003;
1.3750000000e+000;4.1789741211e+003;4.1848715820e+003;4.1714101563e+003;4.1541025391e+003;4.1905126953e+003;4.1775639648e+003;4.1723076172e+003;4.1714101563e+003;4.1758974609e+003;4.2116665039e+003;4.1852563477e+003;4.1929487305e+003;4.1961538086e+003;4.1837177734e+003;
1.3828125000e+000;4.2293588867e+003;4.2329487305e+003;4.2162822266e+003;4.1947436523e+003;4.2391025391e+003;4.2276923828e+003;4.2223076172e+003;4.2192309570e+003;4.2200000000e+003;4.2601284180e+003;4.2311538086e+003;4.2376923828e+003;4.2411538086e+003;4.2265385742e+003;
1.3906250000e+000;4.2828203125e+003;4.2843588867e+003;4.2643588867e+003;4.2412822266e+003;4.2866665039e+003;4.2794873047e+003;4.2707690430e+003;4.2717949219e+003;4.2700000000e+003;4.3123076172e+003;4.2819228516e+003;4.2891025391e+003;4.2892309570e+003;4.2761538086e+003;
1.3984375000e+000;4.3012822266e+003;4.3023076172e+003;4.2808974609e+003;4.2605126953e+003;4.2974360352e+003;4.2991025391e+003;4.2855126953e+003;4.2915385742e+003;4.2883334961e+003;4.3288461914e+003;4.2998715820e+003;4.3100000000e+003;4.3035898438e+003;4.2961538086e+003;
1.4062500000e+000;4.3453847656e+003;4.3543588867e+003;4.3293588867e+003;4.3137177734e+003;4.3458974609e+003;4.3365385742e+003;4.3314101563e+003;4.3262822266e+003;4.3223076172e+003;4.3626923828e+003;4.3430771484e+003;4.3521796875e+003;4.3488461914e+003;4.3405126953e+003;
1.4140625000e+000;4.3547436523e+003;4.3637177734e+003;4.3405126953e+003;4.3180771484e+003;4.3600000000e+003;4.3416665039e+003;4.3379487305e+003;4.3342309570e+003;4.3293588867e+003;4.3738461914e+003;4.3508974609e+003;4.3608974609e+003;4.3588461914e+003;4.3478203125e+003;
1.4218750000e+000;4.4702563477e+003;4.4792309570e+003;4.4546152344e+003;4.4224360352e+003;4.4744873047e+003;4.4517949219e+003;4.4484614258e+003;4.4415385742e+003;4.4389741211e+003;4.4796152344e+003;4.4596152344e+003;4.4746152344e+003;4.4639741211e+003;4.4598715820e+003;
1.4296875000e+000;4.6461538086e+003;4.6537177734e+003;4.6283334961e+003;4.5850000000e+003;4.6411538086e+003;4.6102563477e+003;4.6117949219e+003;4.6223076172e+003;4.6260258789e+003;4.6724360352e+003;4.6365385742e+003;4.6482050781e+003;4.6443588867e+003;4.6321796875e+003;
1.4375000000e+000;4.6403847656e+003;4.6508974609e+003;4.6229487305e+003;4.5801284180e+003;4.6342309570e+003;4.6053847656e+003;4.6056411133e+003;4.6155126953e+003;4.6208974609e+003;4.6660258789e+003;4.6297436523e+003;4.6397436523e+003;4.6407690430e+003;4.6261538086e+003;
1.4453125000e+000;4.7051284180e+003;4.7224360352e+003;4.6874360352e+003;4.6432050781e+003;4.7080771484e+003;4.6678203125e+003;4.6666665039e+003;4.6792309570e+003;4.6875639648e+003;4.7314101563e+003;4.7021796875e+003;4.7074360352e+003;4.7067949219e+003;4.6974360352e+003;
1.4531250000e+000;4.7419228516e+003;4.7501284180e+003;4.7228203125e+003;4.6653847656e+003;4.7553847656e+003;4.6878203125e+003;4.6964101563e+003;4.7103847656e+003;4.7144873047e+003;4.7651284180e+003;4.7373076172e+003;4.7423076172e+003;4.7419228516e+003;4.7288461914e+003;
1.4609375000e+000;4.7712822266e+003;4.7791025391e+003;4.7501284180e+003;4.6928203125e+003;4.7785898438e+003;4.7141025391e+003;4.7223076172e+003;4.7401284180e+003;4.7447436523e+003;4.7956411133e+003;4.7651284180e+003;4.7682050781e+003;4.7726923828e+003;4.7575639648e+003;
1.4687500000e+000;4.7741025391e+003;4.7828203125e+003;4.7533334961e+003;4.6993588867e+003;4.7750000000e+003;4.7212822266e+003;4.7265385742e+003;4.7480771484e+003;4.7525639648e+003;4.8014101563e+003;4.7684614258e+003;4.7703847656e+003;4.7771796875e+003;4.7619228516e+003;
1.4765625000e+000;4.7351284180e+003;4.7476923828e+003;4.7173076172e+003;4.6707690430e+003;4.7398715820e+003;4.6976923828e+003;4.7020512695e+003;4.7173076172e+003;4.7189741211e+003;4.7611538086e+003;4.7333334961e+003;4.7325639648e+003;4.7388461914e+003;4.7233334961e+003;
1.4843750000e+000;4.7084614258e+003;4.7247436523e+003;4.6839741211e+003;4.6310258789e+003;4.7271796875e+003;4.6766665039e+003;4.6842309570e+003;4.6952563477e+003;4.6923076172e+003;4.7355126953e+003;4.7120512695e+003;4.7101284180e+003;4.7174360352e+003;4.6955126953e+003;
1.4921875000e+000;4.6232050781e+003;4.6389741211e+003;4.6006411133e+003;4.5494873047e+003;4.6320512695e+003;4.6057690430e+003;4.6075639648e+003;4.6156411133e+003;4.6097436523e+003;4.6497436523e+003;4.6271796875e+003;4.6289741211e+003;4.6344873047e+003;4.6135898438e+003;
1.5000000000e+000;4.5453847656e+003;4.5607690430e+003;4.5260258789e+003;4.4800000000e+003;4.5420512695e+003;4.5429487305e+003;4.5396152344e+003;4.5396152344e+003;4.5316665039e+003;4.5667949219e+003;4.5475639648e+003;4.5514101563e+003;4.5566665039e+003;4.5367949219e+003;
1.5078125000e+000;4.5643588867e+003;4.5778203125e+003;4.5470512695e+003;4.5085898438e+003;4.5596152344e+003;4.5628203125e+003;4.5582050781e+003;4.5502563477e+003;4.5429487305e+003;4.5758974609e+003;4.5615385742e+003;4.5607690430e+003;4.5693588867e+003;4.5484614258e+003;
1.5156250000e+000;4.6043588867e+003;4.6160258789e+003;4.5875639648e+003;4.5493588867e+003;4.6166665039e+003;4.5944873047e+003;4.5907690430e+003;4.5884614258e+003;4.5826923828e+003;4.6179487305e+003;4.6017949219e+003;4.5979487305e+003;4.6070512695e+003;4.5848715820e+003;
1.5234375000e+000;4.6097436523e+003;4.6207690430e+003;4.5938461914e+003;4.5564101563e+003;4.6447436523e+003;4.5956411133e+003;4.5924360352e+003;4.5960258789e+003;4.5916665039e+003;4.6270512695e+003;4.6088461914e+003;4.6035898438e+003;4.6125639648e+003;4.5889741211e+003;
1.5312500000e+000;4.5948715820e+003;4.6078203125e+003;4.5788461914e+003;4.5430771484e+003;4.6476923828e+003;4.5815385742e+003;4.5789741211e+003;4.5843588867e+003;4.5819228516e+003;4.6137177734e+003;4.5956411133e+003;4.5893588867e+003;4.5998715820e+003;4.5743588867e+003;
1.5390625000e+000;4.6405126953e+003;4.6566665039e+003;4.6198715820e+003;4.5684614258e+003;4.6566665039e+003;4.6250000000e+003;4.6211538086e+003;4.6339741211e+003;4.6398715820e+003;4.6587177734e+003;4.6469228516e+003;4.6391025391e+003;4.6505126953e+003;4.6250000000e+003;
1.5468750000e+000;4.6271796875e+003;4.6383334961e+003;4.6110258789e+003;4.5739741211e+003;4.6564101563e+003;4.6120512695e+003;4.6112822266e+003;4.6228203125e+003;4.6260258789e+003;4.6546152344e+003;4.6317949219e+003;4.6296152344e+003;4.6433334961e+003;4.6126923828e+003;
1.5546875000e+000;4.6148715820e+003;4.6321796875e+003;4.5984614258e+003;4.5637177734e+003;4.6387177734e+003;4.6044873047e+003;4.6001284180e+003;4.6105126953e+003;4.6164101563e+003;4.6408974609e+003;4.6212822266e+003;4.6189741211e+003;4.6321796875e+003;4.6047436523e+003;
1.5625000000e+000;4.6021796875e+003;4.6253847656e+003;4.5807690430e+003;4.5455126953e+003;4.6257690430e+003;4.5894873047e+003;4.5844873047e+003;4.5879487305e+003;4.5992309570e+003;4.6160258789e+003;4.6055126953e+003;4.5993588867e+003;4.6135898438e+003;4.5920512695e+003;
1.5703125000e+000;4.6121796875e+003;4.6211538086e+003;4.5961538086e+003;4.5519228516e+003;4.6385898438e+003;4.5917949219e+003;4.5937177734e+003;4.6002563477e+003;4.6019228516e+003;4.6283334961e+003;4.6129487305e+003;4.6124360352e+003;4.6161538086e+003;4.5961538086e+003;
1.5781250000e+000;4.6175639648e+003;4.6251284180e+003;4.6019228516e+003;4.5541025391e+003;4.6367949219e+003;4.5987177734e+003;4.6014101563e+003;4.6050000000e+003;4.6039741211e+003;4.6302563477e+003;4.6165385742e+003;4.6155126953e+003;4.6207690430e+003;4.5996152344e+003;
1.5859375000e+000;4.6633334961e+003;4.6691025391e+003;4.6446152344e+003;4.5935898438e+003;4.6771796875e+003;4.6408974609e+003;4.6466665039e+003;4.6508974609e+003;4.6453847656e+003;4.6751284180e+003;4.6620512695e+003;4.6562822266e+003;4.6646152344e+003;4.6430771484e+003;
1.5937500000e+000;4.6398715820e+003;4.6467949219e+003;4.6214101563e+003;4.5762822266e+003;4.6570512695e+003;4.6208974609e+003;4.6261538086e+003;4.6300000000e+003;4.6224360352e+003;4.6534614258e+003;4.6397436523e+003;4.6353847656e+003;4.6406411133e+003;4.6217949219e+003;
1.6015625000e+000;4.5846152344e+003;4.6026923828e+003;4.5650000000e+003;4.5329487305e+003;4.6037177734e+003;4.5770512695e+003;4.5756411133e+003;4.5682050781e+003;4.5620512695e+003;4.5880771484e+003;4.5805126953e+003;4.5794873047e+003;4.5835898438e+003;4.5689741211e+003;
1.6093750000e+000;4.6091025391e+003;4.6270512695e+003;4.5896152344e+003;4.5510258789e+003;4.6251284180e+003;4.5991025391e+003;4.5967949219e+003;4.5925639648e+003;4.5885898438e+003;4.6137177734e+003;4.6060258789e+003;4.6015385742e+003;4.6091025391e+003;4.5930771484e+003;
1.6171875000e+000;4.5967949219e+003;4.6106411133e+003;4.5821796875e+003;4.5362822266e+003;4.6151284180e+003;4.5903847656e+003;4.5880771484e+003;4.5898715820e+003;4.5888461914e+003;4.6098715820e+003;4.5997436523e+003;4.5901284180e+003;4.6021796875e+003;4.5858974609e+003;
1.6250000000e+000;4.5951284180e+003;4.6082050781e+003;4.5811538086e+003;4.5366665039e+003;4.6164101563e+003;4.5908974609e+003;4.5889741211e+003;4.5901284180e+003;4.5917949219e+003;4.6087177734e+003;4.5993588867e+003;4.5884614258e+003;4.6024360352e+003;4.5865385742e+003;
1.6328125000e+000;4.6482050781e+003;4.6546152344e+003;4.6316665039e+003;4.5870512695e+003;4.6662822266e+003;4.6293588867e+003;4.6283334961e+003;4.6358974609e+003;4.6441025391e+003;4.6551284180e+003;4.6466665039e+003;4.6407690430e+003;4.6439741211e+003;4.6323076172e+003;
1.6406250000e+000;4.6405126953e+003;4.6443588867e+003;4.6257690430e+003;4.5801284180e+003;4.6589741211e+003;4.6173076172e+003;4.6178203125e+003;4.6251284180e+003;4.6317949219e+003;4.6428203125e+003;4.6356411133e+003;4.6314101563e+003;4.6288461914e+003;4.6206411133e+003;
1.6484375000e+000;4.6569228516e+003;4.6605126953e+003;4.6423076172e+003;4.5960258789e+003;4.6773076172e+003;4.6293588867e+003;4.6321796875e+003;4.6376923828e+003;4.6420512695e+003;4.6543588867e+003;4.6489741211e+003;4.6438461914e+003;4.6415385742e+003;4.6346152344e+003;
1.6562500000e+000;4.6885898438e+003;4.7032050781e+003;4.6769228516e+003;4.6241025391e+003;4.7029487305e+003;4.6726923828e+003;4.6711538086e+003;4.6806411133e+003;4.6861538086e+003;4.7083334961e+003;4.6901284180e+003;4.6878203125e+003;4.6996152344e+003;4.6767949219e+003;
1.6640625000e+000;4.6683334961e+003;4.6847436523e+003;4.6570512695e+003;4.6075639648e+003;4.6858974609e+003;4.6538461914e+003;4.6530771484e+003;4.6624360352e+003;4.6680771484e+003;4.6874360352e+003;4.6700000000e+003;4.6662822266e+003;4.6776923828e+003;4.6558974609e+003;
1.6718750000e+000;4.5489741211e+003;4.5632050781e+003;4.5324360352e+003;4.5014101563e+003;4.5751284180e+003;4.5358974609e+003;4.5357690430e+003;4.5466665039e+003;4.5444873047e+003;4.5576923828e+003;4.5484614258e+003;4.5429487305e+003;4.5532050781e+003;4.5434614258e+003;
1.6796875000e+000;4.7402563477e+003;4.7497436523e+003;4.7200000000e+003;4.6769228516e+003;4.7302563477e+003;4.7142309570e+003;4.7234614258e+003;4.7133334961e+003;4.7111538086e+003;4.7369228516e+003;4.7319228516e+003;4.7246152344e+003;4.7370512695e+003;4.7256411133e+003;
1.6875000000e+000;4.8287177734e+003;4.8417949219e+003;4.8083334961e+003;4.7594873047e+003;4.8224360352e+003;4.7966665039e+003;4.8053847656e+003;4.8003847656e+003;4.7982050781e+003;4.8315385742e+003;4.8216665039e+003;4.8128203125e+003;4.8255126953e+003;4.8142309570e+003;
1.6953125000e+000;4.6969228516e+003;4.7123076172e+003;4.6737177734e+003;4.6324360352e+003;4.7435898438e+003;4.6720512695e+003;4.6726923828e+003;4.6782050781e+003;4.6744873047e+003;4.7074360352e+003;4.6992309570e+003;4.6893588867e+003;4.6957690430e+003;4.6910258789e+003;
1.7031250000e+000;4.6371796875e+003;4.6496152344e+003;4.6132050781e+003;4.5762822266e+003;4.6837177734e+003;4.6184614258e+003;4.6182050781e+003;4.6221796875e+003;4.6189741211e+003;4.6462822266e+003;4.6420512695e+003;4.6342309570e+003;4.6364101563e+003;4.6342309570e+003;
1.7109375000e+000;4.6400000000e+003;4.6505126953e+003;4.6183334961e+003;4.5855126953e+003;4.6585898438e+003;4.6307690430e+003;4.6297436523e+003;4.6270512695e+003;4.6255126953e+003;4.6437177734e+003;4.6444873047e+003;4.6388461914e+003;4.6398715820e+003;4.6388461914e+003;
1.7187500000e+000;4.7078203125e+003;4.7182050781e+003;4.6865385742e+003;4.6505126953e+003;4.7170512695e+003;4.6939741211e+003;4.6951284180e+003;4.6907690430e+003;4.6903847656e+003;4.7091025391e+003;4.7083334961e+003;4.7002563477e+003;4.7080771484e+003;4.7035898438e+003;
1.7265625000e+000;4.8041025391e+003;4.8106411133e+003;4.7839741211e+003;4.7293588867e+003;4.8211538086e+003;4.7711538086e+003;4.7773076172e+003;4.7929487305e+003;4.7934614258e+003;4.8178203125e+003;4.8029487305e+003;4.7903847656e+003;4.8114101563e+003;4.8038461914e+003;
1.7343750000e+000;4.7391025391e+003;4.7488461914e+003;4.7196152344e+003;4.6691025391e+003;4.7582050781e+003;4.7141025391e+003;4.7185898438e+003;4.7348715820e+003;4.7357690430e+003;4.7550000000e+003;4.7435898438e+003;4.7316665039e+003;4.7488461914e+003;4.7448715820e+003;
1.7421875000e+000;4.7133334961e+003;4.7319228516e+003;4.6897436523e+003;4.6565385742e+003;4.7333334961e+003;4.6964101563e+003;4.7016665039e+003;4.7102563477e+003;4.7143588867e+003;4.7273076172e+003;4.7276923828e+003;4.7089741211e+003;4.7250000000e+003;4.7184614258e+003;
1.7500000000e+000;4.7476923828e+003;4.7648715820e+003;4.7234614258e+003;4.6933334961e+003;4.7673076172e+003;4.7257690430e+003;4.7317949219e+003;4.7421796875e+003;4.7485898438e+003;4.7646152344e+003;4.7635898438e+003;4.7415385742e+003;4.7592309570e+003;4.7482050781e+003;
1.7578125000e+000;4.5929487305e+003;4.6001284180e+003;4.5814101563e+003;4.5467949219e+003;4.6030771484e+003;4.5802563477e+003;4.5787177734e+003;4.5883334961e+003;4.5934614258e+003;4.6107690430e+003;4.5998715820e+003;4.5893588867e+003;4.5991025391e+003;4.5950000000e+003;
1.7656250000e+000;4.5546152344e+003;4.5644873047e+003;4.5435898438e+003;4.5085898438e+003;4.5608974609e+003;4.5469228516e+003;4.5453847656e+003;4.5494873047e+003;4.5519228516e+003;4.5657690430e+003;4.5593588867e+003;4.5502563477e+003;4.5596152344e+003;4.5592309570e+003;
1.7734375000e+000;4.5617949219e+003;4.5728203125e+003;4.5500000000e+003;4.5135898438e+003;4.5641025391e+003;4.5538461914e+003;4.5537177734e+003;4.5564101563e+003;4.5567949219e+003;4.5684614258e+003;4.5665385742e+003;4.5560258789e+003;4.5665385742e+003;4.5669228516e+003;
1.7812500000e+000;4.5766665039e+003;4.5844873047e+003;4.5655126953e+003;4.5265385742e+003;4.5762822266e+003;4.5658974609e+003;4.5669228516e+003;4.5717949219e+003;4.5714101563e+003;4.5814101563e+003;4.5811538086e+003;4.5698715820e+003;4.5805126953e+003;4.5796152344e+003;
1.7890625000e+000;4.6391025391e+003;4.6420512695e+003;4.6203847656e+003;4.5956411133e+003;4.6547436523e+003;4.6117949219e+003;4.6235898438e+003;4.6233334961e+003;4.6221796875e+003;4.6317949219e+003;4.6325639648e+003;4.6264101563e+003;4.6412822266e+003;4.6346152344e+003;
1.7968750000e+000;4.6696152344e+003;4.6801284180e+003;4.6507690430e+003;4.6270512695e+003;4.6721796875e+003;4.6457690430e+003;4.6511538086e+003;4.6528203125e+003;4.6442309570e+003;4.6617949219e+003;4.6702563477e+003;4.6634614258e+003;4.6701284180e+003;4.6744873047e+003;
1.8046875000e+000;4.7133334961e+003;4.7187177734e+003;4.6953847656e+003;4.6658974609e+003;4.7150000000e+003;4.6848715820e+003;4.6906411133e+003;4.6964101563e+003;4.6879487305e+003;4.7055126953e+003;4.7105126953e+003;4.7047436523e+003;4.7119228516e+003;4.7158974609e+003;
1.8125000000e+000;4.7217949219e+003;4.7224360352e+003;4.7038461914e+003;4.6721796875e+003;4.7253847656e+003;4.6933334961e+003;4.6966665039e+003;4.7105126953e+003;4.7034614258e+003;4.7208974609e+003;4.7203847656e+003;4.7133334961e+003;4.7258974609e+003;4.7247436523e+003;
1.8203125000e+000;4.9158974609e+003;4.9200000000e+003;4.8902563477e+003;4.8473076172e+003;4.9062822266e+003;4.8724360352e+003;4.8803847656e+003;4.8884614258e+003;4.8917949219e+003;4.9079487305e+003;4.8984614258e+003;4.8919228516e+003;4.9100000000e+003;4.9105126953e+003;
1.8281250000e+000;4.9228203125e+003;4.9267949219e+003;4.8987177734e+003;4.8541025391e+003;4.9042309570e+003;4.8760258789e+003;4.8820512695e+003;4.8971796875e+003;4.9029487305e+003;4.9207690430e+003;4.9071796875e+003;4.9043588867e+003;4.9147436523e+003;4.9174360352e+003;
1.8359375000e+000;4.7701284180e+003;4.7700000000e+003;4.7492309570e+003;4.7092309570e+003;4.7530771484e+003;4.7261538086e+003;4.7269228516e+003;4.7434614258e+003;4.7515385742e+003;4.7700000000e+003;4.7624360352e+003;4.7598715820e+003;4.7637177734e+003;4.7676923828e+003;
1.8437500000e+000;4.6974360352e+003;4.6925639648e+003;4.6767949219e+003;4.6387177734e+003;4.6897436523e+003;4.6548715820e+003;4.6555126953e+003;4.6696152344e+003;4.6769228516e+003;4.6953847656e+003;4.6920512695e+003;4.6866665039e+003;4.6925639648e+003;4.6974360352e+003;
1.8515625000e+000;4.5596152344e+003;4.5482050781e+003;4.5455126953e+003;4.5152563477e+003;4.5416665039e+003;4.5357690430e+003;4.5379487305e+003;4.5453847656e+003;4.5456411133e+003;4.5550000000e+003;4.5525639648e+003;4.5514101563e+003;4.5556411133e+003;4.5610258789e+003;
1.8593750000e+000;4.5348715820e+003;4.5258974609e+003;4.5206411133e+003;4.4964101563e+003;4.5067949219e+003;4.5151284180e+003;4.5167949219e+003;4.5197436523e+003;4.5214101563e+003;4.5251284180e+003;4.5256411133e+003;4.5253847656e+003;4.5291025391e+003;4.5321796875e+003;
1.8671875000e+000;4.5002563477e+003;4.4979487305e+003;4.4847436523e+003;4.4679487305e+003;4.4879487305e+003;4.4803847656e+003;4.4807690430e+003;4.4817949219e+003;4.4844873047e+003;4.4865385742e+003;4.4923076172e+003;4.4901284180e+003;4.4932050781e+003;4.4970512695e+003;
1.8750000000e+000;4.4684614258e+003;4.4685898438e+003;4.4550000000e+003;4.4376923828e+003;4.4776923828e+003;4.4506411133e+003;4.4511538086e+003;4.4532050781e+003;4.4511538086e+003;4.4557690430e+003;4.4625639648e+003;4.4600000000e+003;4.4619228516e+003;4.4689741211e+003;
1.8828125000e+000;4.4885898438e+003;4.4880771484e+003;4.4805126953e+003;4.4538461914e+003;4.4983334961e+003;4.4714101563e+003;4.4778203125e+003;4.4798715820e+003;4.4639741211e+003;4.4737177734e+003;4.4838461914e+003;4.4775639648e+003;4.4852563477e+003;4.4905126953e+003;
1.8906250000e+000;4.5096152344e+003;4.5064101563e+003;4.5016665039e+003;4.4767949219e+003;4.5011538086e+003;4.4896152344e+003;4.4952563477e+003;4.4992309570e+003;4.4835898438e+003;4.4944873047e+003;4.5060258789e+003;4.4991025391e+003;4.5073076172e+003;4.5112822266e+003;
1.8984375000e+000;4.4932050781e+003;4.4874360352e+003;4.4861538086e+003;4.4670512695e+003;4.4764101563e+003;4.4739741211e+003;4.4773076172e+003;4.4810258789e+003;4.4660258789e+003;4.4773076172e+003;4.4906411133e+003;4.4846152344e+003;4.4908974609e+003;4.4960258789e+003;
1.9062500000e+000;4.4576923828e+003;4.4511538086e+003;4.4508974609e+003;4.4391025391e+003;4.4467949219e+003;4.4417949219e+003;4.4437177734e+003;4.4435898438e+003;4.4289741211e+003;4.4396152344e+003;4.4548715820e+003;4.4497436523e+003;4.4541025391e+003;4.4617949219e+003;
1.9140625000e+000;4.5110258789e+003;4.5138461914e+003;4.4982050781e+003;4.4871796875e+003;4.5102563477e+003;4.4932050781e+003;4.4928203125e+003;4.5019228516e+003;4.4958974609e+003;4.4978203125e+003;4.5052563477e+003;4.4991025391e+003;4.5092309570e+003;4.5178203125e+003;
1.9218750000e+000;4.4370512695e+003;4.4255126953e+003;4.4283334961e+003;4.4084614258e+003;4.4238461914e+003;4.4198715820e+003;4.4155126953e+003;4.4282050781e+003;4.4229487305e+003;4.4267949219e+003;4.4426923828e+003;4.4361538086e+003;4.4347436523e+003;4.4484614258e+003;
1.9296875000e+000;4.3865385742e+003;4.3776923828e+003;4.3779487305e+003;4.3674360352e+003;4.3779487305e+003;4.3782050781e+003;4.3708974609e+003;4.3806411133e+003;4.3770512695e+003;4.3808974609e+003;4.3915385742e+003;4.3883334961e+003;4.3858974609e+003;4.4012822266e+003;
1.9375000000e+000;4.4287177734e+003;4.4302563477e+003;4.4133334961e+003;4.4212822266e+003;4.4244873047e+003;4.4314101563e+003;4.4224360352e+003;4.4151284180e+003;4.4165385742e+003;4.4153847656e+003;4.4217949219e+003;4.4200000000e+003;4.4289741211e+003;4.4391025391e+003;
1.9453125000e+000;4.6387177734e+003;4.6355126953e+003;4.6239741211e+003;4.5944873047e+003;4.6348715820e+003;4.6093588867e+003;4.6164101563e+003;4.6269228516e+003;4.6285898438e+003;4.6429487305e+003;4.6480771484e+003;4.6320512695e+003;4.6401284180e+003;4.6474360352e+003;
1.9531250000e+000;4.5457690430e+003;4.5397436523e+003;4.5348715820e+003;4.5087177734e+003;4.5392309570e+003;4.5251284180e+003;4.5280771484e+003;4.5366665039e+003;4.5357690430e+003;4.5478203125e+003;4.5544873047e+003;4.5429487305e+003;4.5466665039e+003;4.5565385742e+003;
1.9609375000e+000;4.5619228516e+003;4.5552563477e+003;4.5479487305e+003;4.5323076172e+003;4.5478203125e+003;4.5474360352e+003;4.5448715820e+003;4.5473076172e+003;4.5397436523e+003;4.5525639648e+003;4.5605126953e+003;4.5548715820e+003;4.5629487305e+003;4.5691025391e+003;
1.9687500000e+000;4.6180771484e+003;4.6112822266e+003;4.6025639648e+003;4.5843588867e+003;4.6043588867e+003;4.5991025391e+003;4.5983334961e+003;4.6025639648e+003;4.5912822266e+003;4.6084614258e+003;4.6165385742e+003;4.6108974609e+003;4.6192309570e+003;4.6243588867e+003;
1.9765625000e+000;4.5591025391e+003;4.5589741211e+003;4.5456411133e+003;4.5289741211e+003;4.5591025391e+003;4.5339741211e+003;4.5446152344e+003;4.5503847656e+003;4.5375639648e+003;4.5512822266e+003;4.5660258789e+003;4.5600000000e+003;4.5565385742e+003;4.5689741211e+003;
1.9843750000e+000;4.5126923828e+003;4.5169228516e+003;4.4966665039e+003;4.4916665039e+003;4.5115385742e+003;4.4915385742e+003;4.5003847656e+003;4.5083334961e+003;4.4973076172e+003;4.5056411133e+003;4.5188461914e+003;4.5141025391e+003;4.5096152344e+003;4.5238461914e+003;
1.9921875000e+000;4.4033334961e+003;4.4083334961e+003;4.3867949219e+003;4.3958974609e+003;4.3973076172e+003;4.4030771484e+003;4.3992309570e+003;4.4101284180e+003;4.3975639648e+003;4.3970512695e+003;4.4074360352e+003;4.4044873047e+003;4.4012822266e+003;4.4179487305e+003;
2.0000000000e+000;4.3773076172e+003;4.3776923828e+003;4.3642309570e+003;4.3684614258e+003;4.3741025391e+003;4.3857690430e+003;4.3794873047e+003;4.3861538086e+003;4.3714101563e+003;4.3685898438e+003;4.3823076172e+003;4.3766665039e+003;4.3755126953e+003;4.3916665039e+003;
2.0078125000e+000;4.3998715820e+003;4.3948715820e+003;4.3903847656e+003;4.3843588867e+003;4.4019228516e+003;4.4101284180e+003;4.4070512695e+003;4.4091025391e+003;4.3934614258e+003;4.3907690430e+003;4.4082050781e+003;4.3976923828e+003;4.3988461914e+003;4.4137177734e+003;
2.0156250000e+000;4.4511538086e+003;4.4428203125e+003;4.4437177734e+003;4.4284614258e+003;4.4573076172e+003;4.4588461914e+003;4.4611538086e+003;4.4625639648e+003;4.4484614258e+003;4.4473076172e+003;4.4648715820e+003;4.4501284180e+003;4.4524360352e+003;4.4665385742e+003;
2.0234375000e+000;4.5485898438e+003;4.5537177734e+003;4.5334614258e+003;4.5321796875e+003;4.5566665039e+003;4.5487177734e+003;4.5480771484e+003;4.5610258789e+003;4.5619228516e+003;4.5616665039e+003;4.5616665039e+003;4.5506411133e+003;4.5583334961e+003;4.5691025391e+003;
2.0312500000e+000;4.5801284180e+003;4.5869228516e+003;4.5637177734e+003;4.5614101563e+003;4.5857690430e+003;4.5734614258e+003;4.5700000000e+003;4.5870512695e+003;4.5898715820e+003;4.5926923828e+003;4.5916665039e+003;4.5797436523e+003;4.5896152344e+003;4.5979487305e+003;
2.0390625000e+000;4.4067949219e+003;4.4082050781e+003;4.3924360352e+003;4.3891025391e+003;4.3838461914e+003;4.4126923828e+003;4.4012822266e+003;4.4100000000e+003;4.4167949219e+003;4.4164101563e+003;4.4239741211e+003;4.4064101563e+003;4.4130771484e+003;4.4276923828e+003;
2.0468750000e+000;4.4939741211e+003;4.4982050781e+003;4.4780771484e+003;4.4917949219e+003;4.5214101563e+003;4.5065385742e+003;4.5024360352e+003;4.5033334961e+003;4.5032050781e+003;4.4938461914e+003;4.5012822266e+003;4.4911538086e+003;4.4991025391e+003;4.5126923828e+003;
2.0546875000e+000;4.4978203125e+003;4.5043588867e+003;4.4838461914e+003;4.5011538086e+003;4.5347436523e+003;4.5073076172e+003;4.5069228516e+003;4.5096152344e+003;4.5058974609e+003;4.4988461914e+003;4.5047436523e+003;4.4948715820e+003;4.5034614258e+003;4.5158974609e+003;
2.0625000000e+000;4.4493588867e+003;4.4571796875e+003;4.4373076172e+003;4.4570512695e+003;4.4734614258e+003;4.4496152344e+003;4.4556411133e+003;4.4608974609e+003;4.4564101563e+003;4.4500000000e+003;4.4591025391e+003;4.4471796875e+003;4.4539741211e+003;4.4657690430e+003;
2.0703125000e+000;4.5005126953e+003;4.4964101563e+003;4.4869228516e+003;4.4970512695e+003;4.4923076172e+003;4.4888461914e+003;4.5039741211e+003;4.4898715820e+003;4.4757690430e+003;4.4665385742e+003;4.4865385742e+003;4.4888461914e+003;4.4856411133e+003;4.5025639648e+003;
2.0781250000e+000;4.6307690430e+003;4.6282050781e+003;4.6120512695e+003;4.6184614258e+003;4.6247436523e+003;4.6069228516e+003;4.6241025391e+003;4.6147436523e+003;4.5982050781e+003;4.6008974609e+003;4.6156411133e+003;4.6117949219e+003;4.6180771484e+003;4.6310258789e+003;
2.0859375000e+000;4.6811538086e+003;4.6779487305e+003;4.6621796875e+003;4.6684614258e+003;4.6753847656e+003;4.6482050781e+003;4.6571796875e+003;4.6676923828e+003;4.6529487305e+003;4.6675639648e+003;4.6714101563e+003;4.6639741211e+003;4.6698715820e+003;4.6837177734e+003;
2.0937500000e+000;4.6128203125e+003;4.6064101563e+003;4.5961538086e+003;4.6071796875e+003;4.6021796875e+003;4.5847436523e+003;4.5900000000e+003;4.5997436523e+003;4.5880771484e+003;4.5962822266e+003;4.6016665039e+003;4.5984614258e+003;4.5944873047e+003;4.6137177734e+003;
2.1015625000e+000;4.6678203125e+003;4.6664101563e+003;4.6432050781e+003;4.6582050781e+003;4.6464101563e+003;4.6414101563e+003;4.6517949219e+003;4.6491025391e+003;4.6451284180e+003;4.6464101563e+003;4.6555126953e+003;4.6489741211e+003;4.6412822266e+003;4.6605126953e+003;
2.1093750000e+000;4.7051284180e+003;4.7087177734e+003;4.6802563477e+003;4.6906411133e+003;4.6907690430e+003;4.6794873047e+003;4.6883334961e+003;4.6903847656e+003;4.6858974609e+003;4.6948715820e+003;4.7008974609e+003;4.6889741211e+003;4.6883334961e+003;4.7024360352e+003;
2.1171875000e+000;4.6800000000e+003;4.6814101563e+003;4.6596152344e+003;4.6610258789e+003;4.6815385742e+003;4.6566665039e+003;4.6612822266e+003;4.6711538086e+003;4.6662822266e+003;4.6812822266e+003;4.6876923828e+003;4.6684614258e+003;4.6784614258e+003;4.6865385742e+003;
2.1250000000e+000;4.6588461914e+003;4.6552563477e+003;4.6396152344e+003;4.6392309570e+003;4.6611538086e+003;4.6344873047e+003;4.6394873047e+003;4.6516665039e+003;4.6480771484e+003;4.6593588867e+003;4.6671796875e+003;4.6470512695e+003;4.6578203125e+003;4.6653847656e+003;
2.1328125000e+000;4.5956411133e+003;4.5882050781e+003;4.5776923828e+003;4.5862822266e+003;4.5834614258e+003;4.5844873047e+003;4.5843588867e+003;4.5982050781e+003;4.5970512695e+003;4.5973076172e+003;4.6017949219e+003;4.5850000000e+003;4.5921796875e+003;4.5939741211e+003;
2.1406250000e+000;4.5657690430e+003;4.5584614258e+003;4.5478203125e+003;4.5629487305e+003;4.5558974609e+003;4.5612822266e+003;4.5575639648e+003;4.5714101563e+003;4.5703847656e+003;4.5705126953e+003;4.5734614258e+003;4.5565385742e+003;4.5647436523e+003;4.5651284180e+003;
2.1484375000e+000;4.5148715820e+003;4.5058974609e+003;4.4969228516e+003;4.5187177734e+003;4.5102563477e+003;4.5164101563e+003;4.5092309570e+003;4.5252563477e+003;4.5233334961e+003;4.5224360352e+003;4.5247436523e+003;4.5092309570e+003;4.5148715820e+003;4.5182050781e+003;
2.1562500000e+000;4.4326923828e+003;4.4214101563e+003;4.4161538086e+003;4.4432050781e+003;4.4321796875e+003;4.4421796875e+003;4.4323076172e+003;4.4491025391e+003;4.4451284180e+003;4.4400000000e+003;4.4438461914e+003;4.4323076172e+003;4.4303847656e+003;4.4411538086e+003;
2.1640625000e+000;4.4691025391e+003;4.4588461914e+003;4.4525639648e+003;4.4615385742e+003;4.4565385742e+003;4.4687177734e+003;4.4770512695e+003;4.4697436523e+003;4.4621796875e+003;4.4434614258e+003;4.4669228516e+003;4.4530771484e+003;4.4605126953e+003;4.4678203125e+003;
2.1718750000e+000;4.5455126953e+003;4.5342309570e+003;4.5265385742e+003;4.5326923828e+003;4.5351284180e+003;4.5312822266e+003;4.5437177734e+003;4.5452563477e+003;4.5383334961e+003;4.5244873047e+003;4.5435898438e+003;4.5283334961e+003;4.5396152344e+003;4.5450000000e+003;
2.1796875000e+000;4.3884614258e+003;4.3774360352e+003;4.3810258789e+003;4.3955126953e+003;4.3807690430e+003;4.3874360352e+003;4.3955126953e+003;4.3985898438e+003;4.3874360352e+003;4.3733334961e+003;4.3916665039e+003;4.3855126953e+003;4.3735898438e+003;4.3934614258e+003;
2.1875000000e+000;4.5338461914e+003;4.5189741211e+003;4.5189741211e+003;4.5194873047e+003;4.5115385742e+003;4.5173076172e+003;4.5232050781e+003;4.5274360352e+003;4.5183334961e+003;4.5107690430e+003;4.5314101563e+003;4.5185898438e+003;4.5243588867e+003;4.5255126953e+003;
2.1953125000e+000;4.5476923828e+003;4.5324360352e+003;4.5306411133e+003;4.5338461914e+003;4.5314101563e+003;4.5276923828e+003;4.5326923828e+003;4.5411538086e+003;4.5325639648e+003;4.5266665039e+003;4.5453847656e+003;4.5337177734e+003;4.5398715820e+003;4.5411538086e+003;
2.2031250000e+000;4.4562822266e+003;4.4516665039e+003;4.4438461914e+003;4.4551284180e+003;4.4541025391e+003;4.4437177734e+003;4.4447436523e+003;4.4542309570e+003;4.4453847656e+003;4.4356411133e+003;4.4556411133e+003;4.4448715820e+003;4.4408974609e+003;4.4523076172e+003;
2.2109375000e+000;4.4201284180e+003;4.4155126953e+003;4.4144873047e+003;4.4203847656e+003;4.4196152344e+003;4.4289741211e+003;4.4203847656e+003;4.4229487305e+003;4.4114101563e+003;4.3929487305e+003;4.4192309570e+003;4.4094873047e+003;4.4084614258e+003;4.4138461914e+003;
2.2187500000e+000;4.4942309570e+003;4.4912822266e+003;4.4848715820e+003;4.4951284180e+003;4.4998715820e+003;4.4971796875e+003;4.4907690430e+003;4.4952563477e+003;4.4858974609e+003;4.4678203125e+003;4.4925639648e+003;4.4817949219e+003;4.4826923828e+003;4.4856411133e+003;
2.2265625000e+000;4.4653847656e+003;4.4608974609e+003;4.4564101563e+003;4.4616665039e+003;4.4605126953e+003;4.4619228516e+003;4.4565385742e+003;4.4752563477e+003;4.4729487305e+003;4.4542309570e+003;4.4652563477e+003;4.4608974609e+003;4.4534614258e+003;4.4637177734e+003;
2.2343750000e+000;4.3887177734e+003;4.3791025391e+003;4.3819228516e+003;4.3824360352e+003;4.3794873047e+003;4.3943588867e+003;4.3871796875e+003;4.3989741211e+003;4.3941025391e+003;4.3714101563e+003;4.3857690430e+003;4.3842309570e+003;4.3744873047e+003;4.3874360352e+003;
2.2421875000e+000;4.4437177734e+003;4.4293588867e+003;4.4355126953e+003;4.4361538086e+003;4.4442309570e+003;4.4528203125e+003;4.4484614258e+003;4.4488461914e+003;4.4408974609e+003;4.4156411133e+003;4.4401284180e+003;4.4337177734e+003;4.4269228516e+003;4.4371796875e+003;
2.2500000000e+000;4.5138461914e+003;4.5005126953e+003;4.5050000000e+003;4.5100000000e+003;4.5167949219e+003;4.5175639648e+003;4.5161538086e+003;4.5191025391e+003;4.5129487305e+003;4.4893588867e+003;4.5144873047e+003;4.5034614258e+003;4.4993588867e+003;4.5060258789e+003;
2.2578125000e+000;4.5360258789e+003;4.5239741211e+003;4.5270512695e+003;4.5365385742e+003;4.5314101563e+003;4.5355126953e+003;4.5358974609e+003;4.5433334961e+003;4.5393588867e+003;4.5165385742e+003;4.5398715820e+003;4.5269228516e+003;4.5252563477e+003;4.5291025391e+003;
2.2656250000e+000;4.4487177734e+003;4.4365385742e+003;4.4358974609e+003;4.4451284180e+003;4.4124360352e+003;4.4498715820e+003;4.4508974609e+003;4.4578203125e+003;4.4517949219e+003;4.4269228516e+003;4.4476923828e+003;4.4425639648e+003;4.4410258789e+003;4.4478203125e+003;
2.2734375000e+000;4.4008974609e+003;4.3862822266e+003;4.3860258789e+003;4.3914101563e+003;4.3598715820e+003;4.4057690430e+003;4.4061538086e+003;4.4087177734e+003;4.3989741211e+003;4.3737177734e+003;4.3961538086e+003;4.3966665039e+003;4.3915385742e+003;4.4033334961e+003;
2.2812500000e+000;4.3719228516e+003;4.3534614258e+003;4.3575639648e+003;4.3616665039e+003;4.3415385742e+003;4.3801284180e+003;4.3789741211e+003;4.3778203125e+003;4.3641025391e+003;4.3398715820e+003;4.3660258789e+003;4.3694873047e+003;4.3602563477e+003;4.3760258789e+003;
2.2890625000e+000;4.2497436523e+003;4.2306411133e+003;4.2398715820e+003;4.2497436523e+003;4.2428203125e+003;4.2438461914e+003;4.2434614258e+003;4.2498715820e+003;4.2397436523e+003;4.2180771484e+003;4.2514101563e+003;4.2546152344e+003;4.2384614258e+003;4.2552563477e+003;
2.2968750000e+000;4.2366665039e+003;4.2179487305e+003;4.2280771484e+003;4.2346152344e+003;4.2180771484e+003;4.2317949219e+003;4.2314101563e+003;4.2325639648e+003;4.2207690430e+003;4.1975639648e+003;4.2347436523e+003;4.2398715820e+003;4.2228203125e+003;4.2419228516e+003;
2.3046875000e+000;4.5821796875e+003;4.5658974609e+003;4.5656411133e+003;4.5720512695e+003;4.5667949219e+003;4.5461538086e+003;4.5502563477e+003;4.5575639648e+003;4.5482050781e+003;4.5388461914e+003;4.5717949219e+003;4.5648715820e+003;4.5584614258e+003;4.5707690430e+003;
2.3125000000e+000;4.5093588867e+003;4.4950000000e+003;4.4985898438e+003;4.4933334961e+003;4.4961538086e+003;4.4862822266e+003;4.4812822266e+003;4.4994873047e+003;4.4987177734e+003;4.4814101563e+003;4.5024360352e+003;4.4982050781e+003;4.4910258789e+003;4.4989741211e+003;
2.3203125000e+000;4.5005126953e+003;4.4858974609e+003;4.4911538086e+003;4.4851284180e+003;4.4905126953e+003;4.4825639648e+003;4.4778203125e+003;4.4897436523e+003;4.4894873047e+003;4.4688461914e+003;4.4925639648e+003;4.4876923828e+003;4.4839741211e+003;4.4896152344e+003;
2.3281250000e+000;4.5642309570e+003;4.5467949219e+003;4.5528203125e+003;4.5447436523e+003;4.5502563477e+003;4.5491025391e+003;4.5432050781e+003;4.5614101563e+003;4.5617949219e+003;4.5467949219e+003;4.5623076172e+003;4.5537177734e+003;4.5510258789e+003;4.5552563477e+003;
2.3359375000e+000;4.4761538086e+003;4.4602563477e+003;4.4669228516e+003;4.4638461914e+003;4.4792309570e+003;4.4766665039e+003;4.4751284180e+003;4.4803847656e+003;4.4837177734e+003;4.4561538086e+003;4.4778203125e+003;4.4685898438e+003;4.4684614258e+003;4.4728203125e+003;
2.3437500000e+000;4.4974360352e+003;4.4830771484e+003;4.4873076172e+003;4.4896152344e+003;4.5046152344e+003;4.4978203125e+003;4.4978203125e+003;4.5032050781e+003;4.5050000000e+003;4.4780771484e+003;4.5021796875e+003;4.4915385742e+003;4.4925639648e+003;4.4955126953e+003;
2.3515625000e+000;4.5038461914e+003;4.4915385742e+003;4.4932050781e+003;4.5001284180e+003;4.5083334961e+003;4.5069228516e+003;4.5069228516e+003;4.5119228516e+003;4.5120512695e+003;4.4870512695e+003;4.5115385742e+003;4.5008974609e+003;4.5011538086e+003;4.5033334961e+003;
2.3593750000e+000;4.5160258789e+003;4.5037177734e+003;4.5061538086e+003;4.5091025391e+003;4.5058974609e+003;4.5201284180e+003;4.5237177734e+003;4.5207690430e+003;4.5202563477e+003;4.4984614258e+003;4.5214101563e+003;4.5110258789e+003;4.5124360352e+003;4.5143588867e+003;
2.3671875000e+000;4.5510258789e+003;4.5350000000e+003;4.5433334961e+003;4.5376923828e+003;4.5382050781e+003;4.5462822266e+003;4.5539741211e+003;4.5507690430e+003;4.5506411133e+003;4.5307690430e+003;4.5533334961e+003;4.5419228516e+003;4.5446152344e+003;4.5476923828e+003;
2.3750000000e+000;4.5835898438e+003;4.5625639648e+003;4.5819228516e+003;4.5644873047e+003;4.5784614258e+003;4.5602563477e+003;4.5719228516e+003;4.5761538086e+003;4.5741025391e+003;4.5580771484e+003;4.5848715820e+003;4.5725639648e+003;4.5729487305e+003;4.5796152344e+003;
2.3828125000e+000;4.5820512695e+003;4.5639741211e+003;4.5788461914e+003;4.5629487305e+003;4.5779487305e+003;4.5544873047e+003;4.5658974609e+003;4.5702563477e+003;4.5662822266e+003;4.5523076172e+003;4.5829487305e+003;4.5701284180e+003;4.5710258789e+003;4.5773076172e+003;
2.3906250000e+000;4.6862822266e+003;4.6726923828e+003;4.6716665039e+003;4.6512822266e+003;4.6511538086e+003;4.6430771484e+003;4.6556411133e+003;4.6650000000e+003;4.6570512695e+003;4.6555126953e+003;4.6800000000e+003;4.6669228516e+003;4.6742309570e+003;4.6789741211e+003;
2.3984375000e+000;4.6842309570e+003;4.6653847656e+003;4.6732050781e+003;4.6446152344e+003;4.6433334961e+003;4.6374360352e+003;4.6503847656e+003;4.6637177734e+003;4.6548715820e+003;4.6552563477e+003;4.6756411133e+003;4.6658974609e+003;4.6679487305e+003;4.6769228516e+003;
2.4062500000e+000;4.6637177734e+003;4.6403847656e+003;4.6567949219e+003;4.6228203125e+003;4.6250000000e+003;4.6144873047e+003;4.6282050781e+003;4.6420512695e+003;4.6333334961e+003;4.6326923828e+003;4.6529487305e+003;4.6455126953e+003;4.6421796875e+003;4.6543588867e+003;
2.4140625000e+000;4.6262822266e+003;4.6078203125e+003;4.6170512695e+003;4.6023076172e+003;4.6079487305e+003;4.5888461914e+003;4.5885898438e+003;4.6146152344e+003;4.6176923828e+003;4.6020512695e+003;4.6205126953e+003;4.6096152344e+003;4.6174360352e+003;4.6214101563e+003;
2.4218750000e+000;4.6124360352e+003;4.5965385742e+003;4.6032050781e+003;4.5907690430e+003;4.5942309570e+003;4.5824360352e+003;4.5828203125e+003;4.6033334961e+003;4.6062822266e+003;4.5889741211e+003;4.6066665039e+003;4.5957690430e+003;4.6021796875e+003;4.6087177734e+003;
2.4296875000e+000;4.6507690430e+003;4.6475639648e+003;4.6329487305e+003;4.6310258789e+003;4.6223076172e+003;4.6347436523e+003;4.6362822266e+003;4.6511538086e+003;4.6552563477e+003;4.6358974609e+003;4.6529487305e+003;4.6351284180e+003;4.6391025391e+003;4.6491025391e+003;
2.4375000000e+000;4.7101284180e+003;4.6935898438e+003;4.7001284180e+003;4.6823076172e+003;4.7110258789e+003;4.7061538086e+003;4.7076923828e+003;4.7073076172e+003;4.7110258789e+003;4.6912822266e+003;4.7097436523e+003;4.6883334961e+003;4.6988461914e+003;4.7057690430e+003;
2.4453125000e+000;4.7676923828e+003;4.7497436523e+003;4.7573076172e+003;4.7325639648e+003;4.7807690430e+003;4.7566665039e+003;4.7619228516e+003;4.7643588867e+003;4.7682050781e+003;4.7528203125e+003;4.7676923828e+003;4.7433334961e+003;4.7562822266e+003;4.7620512695e+003;
2.4531250000e+000;4.6838461914e+003;4.6770512695e+003;4.6625639648e+003;4.6573076172e+003;4.6884614258e+003;4.6647436523e+003;4.6751284180e+003;4.6833334961e+003;4.6832050781e+003;4.6692309570e+003;4.6838461914e+003;4.6603847656e+003;4.6708974609e+003;4.6752563477e+003;
2.4609375000e+000;4.6652563477e+003;4.6569228516e+003;4.6420512695e+003;4.6397436523e+003;4.6607690430e+003;4.6450000000e+003;4.6557690430e+003;4.6601284180e+003;4.6593588867e+003;4.6456411133e+003;4.6619228516e+003;4.6417949219e+003;4.6519228516e+003;4.6550000000e+003;
2.4687500000e+000;4.6774360352e+003;4.6601284180e+003;4.6587177734e+003;4.6484614258e+003;4.6625639648e+003;4.6533334961e+003;4.6629487305e+003;4.6643588867e+003;4.6623076172e+003;4.6544873047e+003;4.6691025391e+003;4.6565385742e+003;4.6655126953e+003;4.6676923828e+003;
2.4765625000e+000;4.6658974609e+003;4.6474360352e+003;4.6500000000e+003;4.6358974609e+003;4.6484614258e+003;4.6397436523e+003;4.6487177734e+003;4.6498715820e+003;4.6466665039e+003;4.6396152344e+003;4.6565385742e+003;4.6444873047e+003;4.6537177734e+003;4.6555126953e+003;
2.4843750000e+000;4.6544873047e+003;4.6393588867e+003;4.6330771484e+003;4.6173076172e+003;4.6308974609e+003;4.6153847656e+003;4.6233334961e+003;4.6364101563e+003;4.6300000000e+003;4.6193588867e+003;4.6458974609e+003;4.6275639648e+003;4.6384614258e+003;4.6371796875e+003;
2.4921875000e+000;4.5471796875e+003;4.5273076172e+003;4.5311538086e+003;4.5200000000e+003;4.5192309570e+003;4.5210258789e+003;4.5244873047e+003;4.5400000000e+003;4.5312822266e+003;4.5180771484e+003;4.5383334961e+003;4.5317949219e+003;4.5306411133e+003;4.5378203125e+003;
2.5000000000e+000;4.5424360352e+003;4.5253847656e+003;4.5280771484e+003;4.5157690430e+003;4.5173076172e+003;4.5180771484e+003;4.5219228516e+003;4.5350000000e+003;4.5285898438e+003;4.5128203125e+003;4.5375639648e+003;4.5276923828e+003;4.5292309570e+003;4.5343588867e+003;
2.5078125000e+000;4.5473076172e+003;4.5337177734e+003;4.5348715820e+003;4.5208974609e+003;4.5282050781e+003;4.5239741211e+003;4.5267949219e+003;4.5421796875e+003;4.5385898438e+003;4.5201284180e+003;4.5496152344e+003;4.5347436523e+003;4.5383334961e+003;4.5411538086e+003;
2.5156250000e+000;4.4829487305e+003;4.4732050781e+003;4.4770512695e+003;4.4684614258e+003;4.4801284180e+003;4.4723076172e+003;4.4683334961e+003;4.4889741211e+003;4.4892309570e+003;4.4630771484e+003;4.4948715820e+003;4.4782050781e+003;4.4785898438e+003;4.4846152344e+003;
2.5234375000e+000;4.4432050781e+003;4.4337177734e+003;4.4383334961e+003;4.4364101563e+003;4.4452563477e+003;4.4412822266e+003;4.4352563477e+003;4.4520512695e+003;4.4529487305e+003;4.4229487305e+003;4.4523076172e+003;4.4376923828e+003;4.4385898438e+003;4.4471796875e+003;
2.5312500000e+000;4.4351284180e+003;4.4251284180e+003;4.4280771484e+003;4.4315385742e+003;4.4364101563e+003;4.4392309570e+003;4.4328203125e+003;4.4442309570e+003;4.4453847656e+003;4.4138461914e+003;4.4392309570e+003;4.4253847656e+003;4.4297436523e+003;4.4388461914e+003;
2.5390625000e+000;4.4465385742e+003;4.4423076172e+003;4.4447436523e+003;4.4470512695e+003;4.4574360352e+003;4.4606411133e+003;4.4625639648e+003;4.4576923828e+003;4.4621796875e+003;4.4275639648e+003;4.4558974609e+003;4.4405126953e+003;4.4437177734e+003;4.4534614258e+003;
2.5468750000e+000;4.4829487305e+003;4.4783334961e+003;4.4808974609e+003;4.4816665039e+003;4.4946152344e+003;4.4901284180e+003;4.4962822266e+003;4.4929487305e+003;4.4960258789e+003;4.4643588867e+003;4.4901284180e+003;4.4748715820e+003;4.4796152344e+003;4.4920512695e+003;
2.5546875000e+000;4.4014101563e+003;4.3891025391e+003;4.4060258789e+003;4.3917949219e+003;4.3898715820e+003;4.4211538086e+003;4.4233334961e+003;4.4187177734e+003;4.4142309570e+003;4.3857690430e+003;4.4091025391e+003;4.3973076172e+003;4.3924360352e+003;4.4124360352e+003;
2.5625000000e+000;4.3747436523e+003;4.3689741211e+003;4.3747436523e+003;4.3805126953e+003;4.3767949219e+003;4.3869228516e+003;4.3944873047e+003;4.3876923828e+003;4.3883334961e+003;4.3514101563e+003;4.3824360352e+003;4.3723076172e+003;4.3670512695e+003;4.3843588867e+003;
2.5703125000e+000;4.3533334961e+003;4.3484614258e+003;4.3515385742e+003;4.3650000000e+003;4.3492309570e+003;4.3643588867e+003;4.3711538086e+003;4.3661538086e+003;4.3639741211e+003;4.3279487305e+003;4.3591025391e+003;4.3517949219e+003;4.3480771484e+003;4.3637177734e+003;
2.5781250000e+000;4.3841025391e+003;4.3726923828e+003;4.3784614258e+003;4.3887177734e+003;4.3514101563e+003;4.3953847656e+003;4.3952563477e+003;4.3903847656e+003;4.3803847656e+003;4.3528203125e+003;4.3844873047e+003;4.3757690430e+003;4.3714101563e+003;4.3870512695e+003;
2.5859375000e+000;4.4044873047e+003;4.3930771484e+003;4.3991025391e+003;4.4055126953e+003;4.3806411133e+003;4.4133334961e+003;4.4123076172e+003;4.4117949219e+003;4.4017949219e+003;4.3762822266e+003;4.4065385742e+003;4.3956411133e+003;4.3906411133e+003;4.4083334961e+003;
2.5937500000e+000;4.3616665039e+003;4.3508974609e+003;4.3585898438e+003;4.3592309570e+003;4.3657690430e+003;4.3641025391e+003;4.3671796875e+003;4.3711538086e+003;4.3605126953e+003;4.3333334961e+003;4.3638461914e+003;4.3526923828e+003;4.3517949219e+003;4.3712822266e+003;
2.6015625000e+000;4.3498715820e+003;4.3378203125e+003;4.3457690430e+003;4.3421796875e+003;4.3557690430e+003;4.3443588867e+003;4.3515385742e+003;4.3570512695e+003;4.3466665039e+003;4.3175639648e+003;4.3497436523e+003;4.3392309570e+003;4.3412822266e+003;4.3596152344e+003;
2.6093750000e+000;4.3312822266e+003;4.3171796875e+003;4.3255126953e+003;4.3251284180e+003;4.3116665039e+003;4.3161538086e+003;4.3246152344e+003;4.3425639648e+003;4.3335898438e+003;4.3015385742e+003;4.3344873047e+003;4.3257690430e+003;4.3184614258e+003;4.3378203125e+003;
2.6171875000e+000;4.2792309570e+003;4.2706411133e+003;4.2732050781e+003;4.2982050781e+003;4.2808974609e+003;4.2924360352e+003;4.2892309570e+003;4.3042309570e+003;4.3017949219e+003;4.2656411133e+003;4.2898715820e+003;4.2741025391e+003;4.2803847656e+003;4.2920512695e+003;
2.6250000000e+000;4.2696152344e+003;4.2625639648e+003;4.2643588867e+003;4.2852563477e+003;4.2735898438e+003;4.2891025391e+003;4.2829487305e+003;4.2969228516e+003;4.2984614258e+003;4.2583334961e+003;4.2801284180e+003;4.2646152344e+003;4.2765385742e+003;4.2855126953e+003;
2.6328125000e+000;4.2483334961e+003;4.2420512695e+003;4.2461538086e+003;4.2591025391e+003;4.2503847656e+003;4.2726923828e+003;4.2662822266e+003;4.2747436523e+003;4.2782050781e+003;4.2328203125e+003;4.2566665039e+003;4.2432050781e+003;4.2555126953e+003;4.2644873047e+003;
2.6406250000e+000;4.2853847656e+003;4.2796152344e+003;4.2850000000e+003;4.2894873047e+003;4.2837177734e+003;4.3078203125e+003;4.3084614258e+003;4.2992309570e+003;4.3008974609e+003;4.2534614258e+003;4.2875639648e+003;4.2735898438e+003;4.2801284180e+003;4.2930771484e+003;
2.6484375000e+000;4.3547436523e+003;4.3498715820e+003;4.3510258789e+003;4.3579487305e+003;4.3529487305e+003;4.3700000000e+003;4.3738461914e+003;4.3635898438e+003;4.3641025391e+003;4.3229487305e+003;4.3570512695e+003;4.3405126953e+003;4.3456411133e+003;4.3596152344e+003;
2.6562500000e+000;4.4035898438e+003;4.3991025391e+003;4.3965385742e+003;4.4080771484e+003;4.4010258789e+003;4.4130771484e+003;4.4167949219e+003;4.4116665039e+003;4.4119228516e+003;4.3775639648e+003;4.4076923828e+003;4.3906411133e+003;4.3953847656e+003;4.4091025391e+003;
2.6640625000e+000;4.4129487305e+003;4.4065385742e+003;4.4092309570e+003;4.4092309570e+003;4.3988461914e+003;4.4219228516e+003;4.4247436523e+003;4.4148715820e+003;4.4167949219e+003;4.3843588867e+003;4.4119228516e+003;4.3988461914e+003;4.4067949219e+003;4.4238461914e+003;
2.6718750000e+000;4.3908974609e+003;4.3850000000e+003;4.3914101563e+003;4.3905126953e+003;4.3771796875e+003;4.4044873047e+003;4.4044873047e+003;4.3973076172e+003;4.3980771484e+003;4.3691025391e+003;4.3946152344e+003;4.3829487305e+003;4.3867949219e+003;4.4070512695e+003;
2.6796875000e+000;4.3762822266e+003;4.3685898438e+003;4.3767949219e+003;4.3817949219e+003;4.3717949219e+003;4.3703847656e+003;4.3803847656e+003;4.3802563477e+003;4.3717949219e+003;4.3469228516e+003;4.3800000000e+003;4.3714101563e+003;4.3783334961e+003;4.3892309570e+003;
2.6875000000e+000;4.3743588867e+003;4.3684614258e+003;4.3700000000e+003;4.3685898438e+003;4.3324360352e+003;4.3510258789e+003;4.3648715820e+003;4.3783334961e+003;4.3639741211e+003;4.3407690430e+003;4.3800000000e+003;4.3729487305e+003;4.3673076172e+003;4.3884614258e+003;
2.6953125000e+000;4.3417949219e+003;4.3355126953e+003;4.3355126953e+003;4.3370512695e+003;4.2971796875e+003;4.3237177734e+003;4.3334614258e+003;4.3441025391e+003;4.3323076172e+003;4.3075639648e+003;4.3487177734e+003;4.3412822266e+003;4.3319228516e+003;4.3580771484e+003;
2.7031250000e+000;4.3685898438e+003;4.3566665039e+003;4.3676923828e+003;4.3626923828e+003;4.3705126953e+003;4.3525639648e+003;4.3597436523e+003;4.3743588867e+003;4.3706411133e+003;4.3412822266e+003;4.3728203125e+003;4.3688461914e+003;4.3678203125e+003;4.3819228516e+003;
2.7109375000e+000;4.3626923828e+003;4.3491025391e+003;4.3661538086e+003;4.3558974609e+003;4.3675639648e+003;4.3515385742e+003;4.3578203125e+003;4.3720512695e+003;4.3683334961e+003;4.3376923828e+003;4.3646152344e+003;4.3630771484e+003;4.3612822266e+003;4.3732050781e+003;
2.7187500000e+000;4.3407690430e+003;4.3284614258e+003;4.3465385742e+003;4.3388461914e+003;4.3297436523e+003;4.3462822266e+003;4.3507690430e+003;4.3587177734e+003;4.3547436523e+003;4.3225639648e+003;4.3452563477e+003;4.3408974609e+003;4.3350000000e+003;4.3511538086e+003;
2.7265625000e+000;4.3137177734e+003;4.3033334961e+003;4.3201284180e+003;4.3194873047e+003;4.3033334961e+003;4.3297436523e+003;4.3343588867e+003;4.3412822266e+003;4.3374360352e+003;4.3029487305e+003;4.3241025391e+003;4.3174360352e+003;4.3112822266e+003;4.3291025391e+003;
2.7343750000e+000;4.2321796875e+003;4.2282050781e+003;4.2428203125e+003;4.2562822266e+003;4.2494873047e+003;4.2737177734e+003;4.2832050781e+003;4.2755126953e+003;4.2712822266e+003;4.2279487305e+003;4.2503847656e+003;4.2414101563e+003;4.2433334961e+003;4.2552563477e+003;
2.7421875000e+000;4.2887177734e+003;4.2853847656e+003;4.2962822266e+003;4.3060258789e+003;4.2979487305e+003;4.3256411133e+003;4.3342309570e+003;4.3235898438e+003;4.3196152344e+003;4.2800000000e+003;4.3051284180e+003;4.2925639648e+003;4.2970512695e+003;4.3078203125e+003;
2.7500000000e+000;4.3603847656e+003;4.3555126953e+003;4.3644873047e+003;4.3651284180e+003;4.3487177734e+003;4.3853847656e+003;4.3874360352e+003;4.3838461914e+003;4.3823076172e+003;4.3512822266e+003;4.3775639648e+003;4.3629487305e+003;4.3664101563e+003;4.3788461914e+003;
2.7578125000e+000;4.3285898438e+003;4.3234614258e+003;4.3333334961e+003;4.3347436523e+003;4.3201284180e+003;4.3523076172e+003;4.3543588867e+003;4.3512822266e+003;4.3514101563e+003;4.3198715820e+003;4.3460258789e+003;4.3343588867e+003;4.3378203125e+003;4.3500000000e+003;
2.7656250000e+000;4.3376923828e+003;4.3337177734e+003;4.3339741211e+003;4.3406411133e+003;4.3434614258e+003;4.3466665039e+003;4.3571796875e+003;4.3510258789e+003;4.3516665039e+003;4.3214101563e+003;4.3453847656e+003;4.3347436523e+003;4.3470512695e+003;4.3600000000e+003;
2.7734375000e+000;4.3453847656e+003;4.3417949219e+003;4.3411538086e+003;4.3482050781e+003;4.3451284180e+003;4.3538461914e+003;4.3610258789e+003;4.3580771484e+003;4.3566665039e+003;4.3289741211e+003;4.3530771484e+003;4.3424360352e+003;4.3501284180e+003;4.3685898438e+003;
2.7812500000e+000;4.3198715820e+003;4.3178203125e+003;4.3178203125e+003;4.3283334961e+003;4.3143588867e+003;4.3337177734e+003;4.3361538086e+003;4.3335898438e+003;4.3301284180e+003;4.3025639648e+003;4.3292309570e+003;4.3205126953e+003;4.3212822266e+003;4.3446152344e+003;
2.7890625000e+000;4.2911538086e+003;4.2914101563e+003;4.2908974609e+003;4.3071796875e+003;4.2838461914e+003;4.3108974609e+003;4.3105126953e+003;4.3058974609e+003;4.3012822266e+003;4.2715385742e+003;4.3021796875e+003;4.2958974609e+003;4.2920512695e+003;4.3167949219e+003;
2.7968750000e+000;4.2411538086e+003;4.2332050781e+003;4.2396152344e+003;4.2494873047e+003;4.2391025391e+003;4.2420512695e+003;4.2426923828e+003;4.2560258789e+003;4.2479487305e+003;4.2142309570e+003;4.2447436523e+003;4.2421796875e+003;4.2401284180e+003;4.2601284180e+003;
2.8046875000e+000;4.1688461914e+003;4.1607690430e+003;4.1648715820e+003;4.1794873047e+003;4.1189741211e+003;4.1750000000e+003;4.1710258789e+003;4.1817949219e+003;4.1735898438e+003;4.1341025391e+003;4.1693588867e+003;4.1651284180e+003;4.1569228516e+003;4.1847436523e+003;
2.8125000000e+000;4.1524360352e+003;4.1432050781e+003;4.1478203125e+003;4.1628203125e+003;4.1089741211e+003;4.1615385742e+003;4.1564101563e+003;4.1684614258e+003;4.1603847656e+003;4.1210258789e+003;4.1533334961e+003;4.1492309570e+003;4.1411538086e+003;4.1703847656e+003;
2.8203125000e+000;4.1741025391e+003;4.1610258789e+003;4.1720512695e+003;4.1867949219e+003;4.1761538086e+003;4.1770512695e+003;4.1746152344e+003;4.1848715820e+003;4.1791025391e+003;4.1388461914e+003;4.1674360352e+003;4.1650000000e+003;4.1629487305e+003;4.1905126953e+003;
2.8281250000e+000;4.2247436523e+003;4.2180771484e+003;4.2232050781e+003;4.2341025391e+003;4.2051284180e+003;4.2342309570e+003;4.2287177734e+003;4.2200000000e+003;4.2139741211e+003;4.1801284180e+003;4.2079487305e+003;4.2174360352e+003;4.2015385742e+003;4.2341025391e+003;
2.8359375000e+000;4.2484614258e+003;4.2441025391e+003;4.2432050781e+003;4.2519228516e+003;4.2288461914e+003;4.2579487305e+003;4.2543588867e+003;4.2388461914e+003;4.2343588867e+003;4.2014101563e+003;4.2293588867e+003;4.2366665039e+003;4.2241025391e+003;4.2557690430e+003;
2.8437500000e+000;4.3085898438e+003;4.3066665039e+003;4.3003847656e+003;4.3094873047e+003;4.3096152344e+003;4.3130771484e+003;4.3150000000e+003;4.3023076172e+003;4.3010258789e+003;4.2702563477e+003;4.2939741211e+003;4.2967949219e+003;4.2894873047e+003;4.3169228516e+003;
2.8515625000e+000;4.2870512695e+003;4.2837177734e+003;4.2821796875e+003;4.2911538086e+003;4.2906411133e+003;4.2956411133e+003;4.2970512695e+003;4.2879487305e+003;4.2847436523e+003;4.2532050781e+003;4.2771796875e+003;4.2796152344e+003;4.2714101563e+003;4.2970512695e+003;
2.8593750000e+000;4.2441025391e+003;4.2284614258e+003;4.2469228516e+003;4.2410258789e+003;4.2289741211e+003;4.2596152344e+003;4.2571796875e+003;4.2532050781e+003;4.2394873047e+003;4.2080771484e+003;4.2373076172e+003;4.2338461914e+003;4.2305126953e+003;4.2497436523e+003;
2.8671875000e+000;4.2408974609e+003;4.2225639648e+003;4.2433334961e+003;4.2400000000e+003;4.2261538086e+003;4.2538461914e+003;4.2514101563e+003;4.2505126953e+003;4.2342309570e+003;4.2047436523e+003;4.2334614258e+003;4.2300000000e+003;4.2239741211e+003;4.2451284180e+003;
2.8750000000e+000;4.1838461914e+003;4.1719228516e+003;4.1837177734e+003;4.2029487305e+003;4.1719228516e+003;4.1974360352e+003;4.1971796875e+003;4.1934614258e+003;4.1741025391e+003;4.1416665039e+003;4.1746152344e+003;4.1780771484e+003;4.1607690430e+003;4.1893588867e+003;
2.8828125000e+000;4.1852563477e+003;4.1806411133e+003;4.1826923828e+003;4.2078203125e+003;4.1724360352e+003;4.1969228516e+003;4.1987177734e+003;4.1937177734e+003;4.1746152344e+003;4.1401284180e+003;4.1761538086e+003;4.1820512695e+003;4.1629487305e+003;4.1924360352e+003;
2.8906250000e+000;4.2134614258e+003;4.2125639648e+003;4.2108974609e+003;4.2197436523e+003;4.1983334961e+003;4.2091025391e+003;4.2107690430e+003;4.2198715820e+003;4.2016665039e+003;4.1732050781e+003;4.2119228516e+003;4.2155126953e+003;4.1991025391e+003;4.2257690430e+003;
2.8984375000e+000;4.1869228516e+003;4.1812822266e+003;4.1855126953e+003;4.1943588867e+003;4.1702563477e+003;4.1784614258e+003;4.1807690430e+003;4.1866665039e+003;4.1694873047e+003;4.1417949219e+003;4.1843588867e+003;4.1865385742e+003;4.1730771484e+003;4.1976923828e+003;
2.9062500000e+000;4.1865385742e+003;4.1760258789e+003;4.1843588867e+003;4.1950000000e+003;4.1687177734e+003;4.1714101563e+003;4.1766665039e+003;4.1773076172e+003;4.1623076172e+003;4.1343588867e+003;4.1807690430e+003;4.1826923828e+003;4.1730771484e+003;4.1942309570e+003;
2.9140625000e+000;4.2156411133e+003;4.2003847656e+003;4.2117949219e+003;4.2211538086e+003;4.1974360352e+003;4.1924360352e+003;4.2005126953e+003;4.2003847656e+003;4.1876923828e+003;4.1603847656e+003;4.2073076172e+003;4.2110258789e+003;4.2024360352e+003;4.2206411133e+003;
2.9218750000e+000;4.1635898438e+003;4.1453847656e+003;4.1635898438e+003;4.1711538086e+003;4.1197436523e+003;4.1529487305e+003;4.1517949219e+003;4.1558974609e+003;4.1465385742e+003;4.1150000000e+003;4.1612822266e+003;4.1629487305e+003;4.1460258789e+003;4.1667949219e+003;
2.9296875000e+000;4.1373076172e+003;4.1328203125e+003;4.1352563477e+003;4.1556411133e+003;4.1462822266e+003;4.1500000000e+003;4.1473076172e+003;4.1442309570e+003;4.1380771484e+003;4.1003847656e+003;4.1351284180e+003;4.1373076172e+003;4.1324360352e+003;4.1420512695e+003;
2.9375000000e+000;4.1426923828e+003;4.1358974609e+003;4.1400000000e+003;4.1544873047e+003;4.1642309570e+003;4.1615385742e+003;4.1585898438e+003;4.1505126953e+003;4.1421796875e+003;4.1058974609e+003;4.1392309570e+003;4.1405126953e+003;4.1356411133e+003;4.1466665039e+003;
2.9453125000e+000;4.2279487305e+003;4.2198715820e+003;4.2224360352e+003;4.2307690430e+003;4.2339741211e+003;4.2484614258e+003;4.2470512695e+003;4.2350000000e+003;4.2226923828e+003;4.1885898438e+003;4.2233334961e+003;4.2178203125e+003;4.2176923828e+003;4.2316665039e+003;
2.9531250000e+000;4.2425639648e+003;4.2353847656e+003;4.2383334961e+003;4.2493588867e+003;4.2378203125e+003;4.2633334961e+003;4.2626923828e+003;4.2525639648e+003;4.2400000000e+003;4.2050000000e+003;4.2389741211e+003;4.2330771484e+003;4.2347436523e+003;4.2482050781e+003;
2.9609375000e+000;4.2100000000e+003;4.2039741211e+003;4.2101284180e+003;4.2256411133e+003;4.2267949219e+003;4.2316665039e+003;4.2379487305e+003;4.2335898438e+003;4.2220512695e+003;4.1891025391e+003;4.2160258789e+003;4.2126923828e+003;4.2125639648e+003;4.2167949219e+003;
2.9687500000e+000;4.1256411133e+003;4.1215385742e+003;4.1247436523e+003;4.1455126953e+003;4.1347436523e+003;4.1543588867e+003;4.1567949219e+003;4.1514101563e+003;4.1339741211e+003;4.0951281738e+003;4.1275639648e+003;4.1319228516e+003;4.1138461914e+003;4.1321796875e+003;
2.9765625000e+000;4.1291025391e+003;4.1253847656e+003;4.1269228516e+003;4.1457690430e+003;4.1305126953e+003;4.1516665039e+003;4.1557690430e+003;4.1469228516e+003;4.1288461914e+003;4.0871794434e+003;4.1250000000e+003;4.1296152344e+003;4.1141025391e+003;4.1321796875e+003;
2.9843750000e+000;4.2198715820e+003;4.2069228516e+003;4.2182050781e+003;4.2241025391e+003;4.2074360352e+003;4.2144873047e+003;4.2237177734e+003;4.2284614258e+003;4.2143588867e+003;4.1875639648e+003;4.2200000000e+003;4.2211538086e+003;4.2147436523e+003;4.2244873047e+003;
2.9921875000e+000;4.1865385742e+003;4.1715385742e+003;4.1866665039e+003;4.1971796875e+003;4.1703847656e+003;4.1841025391e+003;4.1907690430e+003;4.1956411133e+003;4.1814101563e+003;4.1579487305e+003;4.1878203125e+003;4.1911538086e+003;4.1800000000e+003;4.1930771484e+003;
3.0000000000e+000;4.1824360352e+003;4.1721796875e+003;4.1807690430e+003;4.1961538086e+003;4.1653847656e+003;4.1794873047e+003;4.1855126953e+003;4.1851284180e+003;4.1717949219e+003;4.1462822266e+003;4.1783334961e+003;4.1824360352e+003;4.1662822266e+003;4.1864101563e+003;
3.0078125000e+000;4.2183334961e+003;4.2112822266e+003;4.2155126953e+003;4.2256411133e+003;4.2011538086e+003;4.2087177734e+003;4.2160258789e+003;4.2194873047e+003;4.2075639648e+003;4.1806411133e+003;4.2133334961e+003;4.2162822266e+003;4.2008974609e+003;4.2214101563e+003;
3.0156250000e+000;4.2328203125e+003;4.2273076172e+003;4.2314101563e+003;4.2351284180e+003;4.2165385742e+003;4.2183334961e+003;4.2267949219e+003;4.2360258789e+003;4.2247436523e+003;4.1967949219e+003;4.2293588867e+003;4.2325639648e+003;4.2174360352e+003;4.2365385742e+003;
3.0234375000e+000;4.1165385742e+003;4.1132050781e+003;4.1270512695e+003;4.1333334961e+003;4.0941025391e+003;4.1285898438e+003;4.1250000000e+003;4.1262822266e+003;4.1229487305e+003;4.0933332520e+003;4.1152563477e+003;4.1171796875e+003;4.1085898438e+003;4.1208974609e+003;
3.0312500000e+000;4.0889743652e+003;4.0844870605e+003;4.1010258789e+003;4.1078203125e+003;4.0576923828e+003;4.1066665039e+003;4.1006411133e+003;4.0975639648e+003;4.0924357910e+003;4.0612819824e+003;4.0858974609e+003;4.0898718262e+003;4.0815385742e+003;4.0948718262e+003;
3.0390625000e+000;4.2126923828e+003;4.2047436523e+003;4.2115385742e+003;4.2260258789e+003;4.2161538086e+003;4.2164101563e+003;4.2242309570e+003;4.2132050781e+003;4.2062822266e+003;4.1732050781e+003;4.2084614258e+003;4.2124360352e+003;4.2020512695e+003;4.2137177734e+003;
3.0468750000e+000;4.2206411133e+003;4.2148715820e+003;4.2189741211e+003;4.2339741211e+003;4.2392309570e+003;4.2282050781e+003;4.2351284180e+003;4.2280771484e+003;4.2230771484e+003;4.1901284180e+003;4.2206411133e+003;4.2224360352e+003;4.2134614258e+003;4.2232050781e+003;
3.0546875000e+000;4.0900000000e+003;4.0917949219e+003;4.0952563477e+003;4.1076923828e+003;4.0994873047e+003;4.1217949219e+003;4.1180771484e+003;4.1082050781e+003;4.1043588867e+003;4.0664101563e+003;4.0876923828e+003;4.0878205566e+003;4.0885898438e+003;4.0953845215e+003;
3.0625000000e+000;4.0889743652e+003;4.0891025391e+003;4.0932050781e+003;4.1048715820e+003;4.0919230957e+003;4.1165385742e+003;4.1142309570e+003;4.1058974609e+003;4.0997436523e+003;4.0620512695e+003;4.0841025391e+003;4.0861538086e+003;4.0851281738e+003;4.0932050781e+003;
3.0703125000e+000;4.0600000000e+003;4.0544870605e+003;4.0666667480e+003;4.0819230957e+003;4.0687180176e+003;4.0864101563e+003;4.0865385742e+003;4.0832050781e+003;4.0729487305e+003;4.0329487305e+003;4.0578205566e+003;4.0635898438e+003;4.0535898438e+003;4.0657692871e+003;
3.0781250000e+000;4.0435898438e+003;4.0378205566e+003;4.0514101563e+003;4.0720512695e+003;4.0575642090e+003;4.0742307129e+003;4.0743588867e+003;4.0710256348e+003;4.0602563477e+003;4.0178205566e+003;4.0432050781e+003;4.0470512695e+003;4.0378205566e+003;4.0491025391e+003;
3.0859375000e+000;4.0688461914e+003;4.0692307129e+003;4.0708974609e+003;4.0967949219e+003;4.0682050781e+003;4.0943588867e+003;4.0944870605e+003;4.1035898438e+003;4.0894870605e+003;4.0538461914e+003;4.0708974609e+003;4.0660256348e+003;4.0717949219e+003;4.0734614258e+003;
3.0937500000e+000;4.0310256348e+003;4.0311538086e+003;4.0341025391e+003;4.0566667480e+003;4.0250000000e+003;4.0569230957e+003;4.0583332520e+003;4.0666667480e+003;4.0529487305e+003;4.0191025391e+003;4.0351281738e+003;4.0324357910e+003;4.0380769043e+003;4.0398718262e+003;
3.1015625000e+000;3.9966667480e+003;3.9971794434e+003;4.0023076172e+003;4.0253845215e+003;3.9944870605e+003;4.0273076172e+003;4.0310256348e+003;4.0271794434e+003;4.0201281738e+003;3.9852563477e+003;4.0060256348e+003;4.0061538086e+003;4.0103845215e+003;4.0144870605e+003;
3.1093750000e+000;4.0302563477e+003;4.0307692871e+003;4.0351281738e+003;4.0600000000e+003;4.0332050781e+003;4.0579487305e+003;4.0600000000e+003;4.0565385742e+003;4.0529487305e+003;4.0193588867e+003;4.0407692871e+003;4.0412819824e+003;4.0434614258e+003;4.0497436523e+003;
3.1171875000e+000;4.0148718262e+003;4.0039743652e+003;4.0216667480e+003;4.0362819824e+003;4.0134614258e+003;4.0267949219e+003;4.0269230957e+003;4.0312819824e+003;4.0276923828e+003;3.9976923828e+003;4.0180769043e+003;4.0233332520e+003;4.0137180176e+003;4.0303845215e+003;
3.1250000000e+000;4.0071794434e+003;3.9947436523e+003;4.0155129395e+003;4.0280769043e+003;4.0028205566e+003;4.0153845215e+003;4.0212819824e+003;4.0216667480e+003;4.0176923828e+003;3.9878205566e+003;4.0087180176e+003;4.0129487305e+003;4.0073076172e+003;4.0211538086e+003;
3.1328125000e+000;4.0220512695e+003;4.0170512695e+003;4.0319230957e+003;4.0524357910e+003;4.0257692871e+003;4.0348718262e+003;4.0438461914e+003;4.0446154785e+003;4.0405129395e+003;4.0108974609e+003;4.0288461914e+003;4.0308974609e+003;4.0355129395e+003;4.0389743652e+003;
3.1406250000e+000;3.9914101563e+003;3.9907692871e+003;4.0030769043e+003;4.0285898438e+003;3.9978205566e+003;4.0156411133e+003;4.0178205566e+003;4.0201281738e+003;4.0153845215e+003;3.9837180176e+003;4.0008974609e+003;4.0048718262e+003;4.0084614258e+003;4.0115385742e+003;
3.1484375000e+000;3.9374357910e+003;3.9332050781e+003;3.9483332520e+003;3.9674357910e+003;3.9194870605e+003;3.9770512695e+003;3.9698718262e+003;3.9612819824e+003;3.9573076172e+003;3.9212819824e+003;3.9461538086e+003;3.9520512695e+003;3.9464101563e+003;3.9606411133e+003;
3.1562500000e+000;3.9451281738e+003;3.9397436523e+003;3.9555129395e+003;3.9726923828e+003;3.9292307129e+003;3.9814101563e+003;3.9798718262e+003;3.9692307129e+003;3.9666667480e+003;3.9321794434e+003;3.9564101563e+003;3.9619230957e+003;3.9548718262e+003;3.9707692871e+003;
3.1640625000e+000;3.9325642090e+003;3.9265385742e+003;3.9443588867e+003;3.9623076172e+003;3.9279487305e+003;3.9680769043e+003;3.9724357910e+003;3.9603845215e+003;3.9575642090e+003;3.9238461914e+003;3.9458974609e+003;3.9526923828e+003;3.9441025391e+003;3.9603845215e+003;
3.1718750000e+000;3.9793588867e+003;3.9657692871e+003;3.9866667480e+003;3.9962819824e+003;3.9767949219e+003;4.0129487305e+003;4.0124357910e+003;4.0106411133e+003;4.0033332520e+003;3.9652563477e+003;3.9867949219e+003;3.9873076172e+003;3.9748718262e+003;3.9964101563e+003;
3.1796875000e+000;3.9420512695e+003;3.9344870605e+003;3.9497436523e+003;3.9660256348e+003;3.9446154785e+003;3.9783332520e+003;3.9784614258e+003;3.9774357910e+003;3.9700000000e+003;3.9317949219e+003;3.9547436523e+003;3.9534614258e+003;3.9435898438e+003;3.9620512695e+003;
3.1875000000e+000;3.8917949219e+003;3.8830769043e+003;3.9032050781e+003;3.9206411133e+003;3.8991025391e+003;3.9219230957e+003;3.9289743652e+003;3.9288461914e+003;3.9191025391e+003;3.8873076172e+003;3.9014101563e+003;3.9073076172e+003;3.9042307129e+003;3.9179487305e+003;
3.1953125000e+000;3.8837180176e+003;3.8670512695e+003;3.8906411133e+003;3.9102563477e+003;3.8739743652e+003;3.9125642090e+003;3.9143588867e+003;3.9079487305e+003;3.9001281738e+003;3.8617949219e+003;3.8839743652e+003;3.8935898438e+003;3.8864101563e+003;3.9075642090e+003;
3.2031250000e+000;3.9280769043e+003;3.9119230957e+003;3.9319230957e+003;3.9523076172e+003;3.9157692871e+003;3.9479487305e+003;3.9502563477e+003;3.9465385742e+003;3.9428205566e+003;3.9035898438e+003;3.9273076172e+003;3.9374357910e+003;3.9307692871e+003;3.9498718262e+003;
3.2109375000e+000;3.8988461914e+003;3.8824357910e+003;3.9132050781e+003;3.9212819824e+003;3.8756411133e+003;3.9062819824e+003;3.9103845215e+003;3.9135898438e+003;3.9143588867e+003;3.8764101563e+003;3.8948718262e+003;3.9166667480e+003;3.8938461914e+003;3.9207692871e+003;
3.2187500000e+000;3.8800000000e+003;3.8660256348e+003;3.8964101563e+003;3.9026923828e+003;3.8635898438e+003;3.8889743652e+003;3.8948718262e+003;3.8926923828e+003;3.8929487305e+003;3.8546154785e+003;3.8766667480e+003;3.8955129395e+003;3.8730769043e+003;3.9001281738e+003;
3.2265625000e+000;3.9129487305e+003;3.9015385742e+003;3.9258974609e+003;3.9357692871e+003;3.9076923828e+003;3.9251281738e+003;3.9276923828e+003;3.9246154785e+003;3.9251281738e+003;3.8878205566e+003;3.9148718262e+003;3.9210256348e+003;3.9116667480e+003;3.9280769043e+003;
3.2343750000e+000;3.9089743652e+003;3.8962819824e+003;3.9208974609e+003;3.9357692871e+003;3.8991025391e+003;3.9267949219e+003;3.9238461914e+003;3.9214101563e+003;3.9233332520e+003;3.8856411133e+003;3.9111538086e+003;3.9153845215e+003;3.9102563477e+003;3.9225642090e+003;
3.2421875000e+000;3.9719230957e+003;3.9667949219e+003;3.9792307129e+003;4.0107692871e+003;3.9691025391e+003;3.9930769043e+003;3.9910256348e+003;3.9767949219e+003;3.9816667480e+003;3.9465385742e+003;3.9643588867e+003;3.9684614258e+003;3.9683332520e+003;3.9792307129e+003;
3.2500000000e+000;4.0288461914e+003;4.0287180176e+003;4.0346154785e+003;4.0647436523e+003;4.0421794434e+003;4.0447436523e+003;4.0466667480e+003;4.0360256348e+003;4.0378205566e+003;4.0067949219e+003;4.0221794434e+003;4.0255129395e+003;4.0264101563e+003;4.0374357910e+003;
3.2578125000e+000;4.0383332520e+003;4.0362819824e+003;4.0450000000e+003;4.0600000000e+003;4.0516667480e+003;4.0558974609e+003;4.0605129395e+003;4.0541025391e+003;4.0476923828e+003;4.0188461914e+003;4.0337180176e+003;4.0421794434e+003;4.0385898438e+003;4.0494870605e+003;
3.2656250000e+000;4.0385898438e+003;4.0321794434e+003;4.0448718262e+003;4.0523076172e+003;4.0330769043e+003;4.0593588867e+003;4.0643588867e+003;4.0544870605e+003;4.0474357910e+003;4.0171794434e+003;4.0328205566e+003;4.0429487305e+003;4.0376923828e+003;4.0478205566e+003;
3.2734375000e+000;4.0951281738e+003;4.0971796875e+003;4.1029487305e+003;4.1147436523e+003;4.0916667480e+003;4.1189741211e+003;4.1216665039e+003;4.1180771484e+003;4.1167949219e+003;4.0874357910e+003;4.1007690430e+003;4.1023076172e+003;4.1017949219e+003;4.1080771484e+003;
3.2812500000e+000;4.0755129395e+003;4.0839743652e+003;4.0848718262e+003;4.1030771484e+003;4.0970512695e+003;4.0998715820e+003;4.1023076172e+003;4.1016665039e+003;4.0994873047e+003;4.0696154785e+003;4.0856411133e+003;4.0843588867e+003;4.0862819824e+003;4.0912819824e+003;
3.2890625000e+000;4.0805129395e+003;4.0910256348e+003;4.0882050781e+003;4.1075639648e+003;4.1184614258e+003;4.1001284180e+003;4.1052563477e+003;4.1056411133e+003;4.1020512695e+003;4.0717949219e+003;4.0905129395e+003;4.0867949219e+003;4.0915385742e+003;4.0947436523e+003;
3.2968750000e+000;4.1260258789e+003;4.1326923828e+003;4.1296152344e+003;4.1424360352e+003;4.1628203125e+003;4.1355126953e+003;4.1452563477e+003;4.1480771484e+003;4.1441025391e+003;4.1152563477e+003;4.1328203125e+003;4.1270512695e+003;4.1335898438e+003;4.1353847656e+003;
3.3046875000e+000;4.0651281738e+003;4.0647436523e+003;4.0753845215e+003;4.0780769043e+003;4.0621794434e+003;4.0874357910e+003;4.0846154785e+003;4.0857692871e+003;4.0882050781e+003;4.0583332520e+003;4.0702563477e+003;4.0680769043e+003;4.0608974609e+003;4.0735898438e+003;
3.3125000000e+000;4.1365385742e+003;4.1296152344e+003;4.1420512695e+003;4.1384614258e+003;4.1306411133e+003;4.1225639648e+003;4.1370512695e+003;4.1439741211e+003;4.1470512695e+003;4.1217949219e+003;4.1332050781e+003;4.1314101563e+003;4.1384614258e+003;4.1419228516e+003;
3.3203125000e+000;4.1374360352e+003;4.1264101563e+003;4.1435898438e+003;4.1402563477e+003;4.1308974609e+003;4.1207690430e+003;4.1375639648e+003;4.1452563477e+003;4.1461538086e+003;4.1247436523e+003;4.1323076172e+003;4.1312822266e+003;4.1393588867e+003;4.1423076172e+003;
3.3281250000e+000;4.1564101563e+003;4.1475639648e+003;4.1605126953e+003;4.1639741211e+003;4.1560258789e+003;4.1450000000e+003;4.1565385742e+003;4.1601284180e+003;4.1620512695e+003;4.1420512695e+003;4.1516665039e+003;4.1523076172e+003;4.1538461914e+003;4.1589741211e+003;
3.3359375000e+000;4.1493588867e+003;4.1462822266e+003;4.1528203125e+003;4.1417949219e+003;4.1396152344e+003;4.1412822266e+003;4.1552563477e+003;4.1450000000e+003;4.1500000000e+003;4.1248715820e+003;4.1412822266e+003;4.1376923828e+003;4.1406411133e+003;4.1474360352e+003;
3.3437500000e+000;4.1837177734e+003;4.1789741211e+003;4.1851284180e+003;4.1711538086e+003;4.1760258789e+003;4.1721796875e+003;4.1875639648e+003;4.1793588867e+003;4.1823076172e+003;4.1602563477e+003;4.1733334961e+003;4.1691025391e+003;4.1733334961e+003;4.1806411133e+003;
3.3515625000e+000;4.1744873047e+003;4.1651284180e+003;4.1751284180e+003;4.1621796875e+003;4.1637177734e+003;4.1671796875e+003;4.1803847656e+003;4.1748715820e+003;4.1760258789e+003;4.1497436523e+003;4.1623076172e+003;4.1653847656e+003;4.1594873047e+003;4.1671796875e+003;
3.3593750000e+000;4.1593588867e+003;4.1501284180e+003;4.1600000000e+003;4.1500000000e+003;4.1397436523e+003;4.1564101563e+003;4.1701284180e+003;4.1612822266e+003;4.1633334961e+003;4.1307690430e+003;4.1479487305e+003;4.1526923828e+003;4.1437177734e+003;4.1505126953e+003;
3.3671875000e+000;4.2065385742e+003;4.2011538086e+003;4.2074360352e+003;4.2000000000e+003;4.1738461914e+003;4.2056411133e+003;4.2232050781e+003;4.2187177734e+003;4.2192309570e+003;4.1875639648e+003;4.2050000000e+003;4.2055126953e+003;4.1973076172e+003;4.2074360352e+003;
3.3750000000e+000;4.1838461914e+003;4.1766665039e+003;4.1869228516e+003;4.1756411133e+003;4.1660258789e+003;4.1850000000e+003;4.2005126953e+003;4.1988461914e+003;4.1988461914e+003;4.1682050781e+003;4.1825639648e+003;4.1837177734e+003;4.1744873047e+003;4.1857690430e+003;
3.3828125000e+000;4.1730771484e+003;4.1657690430e+003;4.1752563477e+003;4.1547436523e+003;4.1901284180e+003;4.1706411133e+003;4.1858974609e+003;4.1829487305e+003;4.1878203125e+003;4.1539741211e+003;4.1671796875e+003;4.1633334961e+003;4.1617949219e+003;4.1680771484e+003;
3.3906250000e+000;4.2029487305e+003;4.1993588867e+003;4.2029487305e+003;4.1820512695e+003;4.2229487305e+003;4.1953847656e+003;4.2121796875e+003;4.2107690430e+003;4.2184614258e+003;4.1856411133e+003;4.1983334961e+003;4.1889741211e+003;4.1928203125e+003;4.1974360352e+003;
3.3984375000e+000;4.1661538086e+003;4.1703847656e+003;4.1676923828e+003;4.1643588867e+003;4.1594873047e+003;4.1639741211e+003;4.1771796875e+003;4.1801284180e+003;4.1814101563e+003;4.1564101563e+003;4.1706411133e+003;4.1612822266e+003;4.1646152344e+003;4.1725639648e+003;
3.4062500000e+000;4.1698715820e+003;4.1721796875e+003;4.1692309570e+003;4.1653847656e+003;4.1617949219e+003;4.1650000000e+003;4.1784614258e+003;4.1811538086e+003;4.1806411133e+003;4.1570512695e+003;4.1706411133e+003;4.1653847656e+003;4.1691025391e+003;4.1747436523e+003;
3.4140625000e+000;4.1971796875e+003;4.1965385742e+003;4.1939741211e+003;4.1830771484e+003;4.1898715820e+003;4.1851284180e+003;4.2000000000e+003;4.2060258789e+003;4.2061538086e+003;4.1850000000e+003;4.1943588867e+003;4.1920512695e+003;4.1965385742e+003;4.2001284180e+003;
3.4218750000e+000;4.2080771484e+003;4.2050000000e+003;4.2053847656e+003;4.1852563477e+003;4.1992309570e+003;4.1911538086e+003;4.2065385742e+003;4.2173076172e+003;4.2192309570e+003;4.2005126953e+003;4.2048715820e+003;4.2039741211e+003;4.2082050781e+003;4.2117949219e+003;
3.4296875000e+000;4.1391025391e+003;4.1357690430e+003;4.1444873047e+003;4.1269228516e+003;4.1284614258e+003;4.1288461914e+003;4.1388461914e+003;4.1374360352e+003;4.1400000000e+003;4.1220512695e+003;4.1358974609e+003;4.1320512695e+003;4.1420512695e+003;4.1471796875e+003;
