Time (s);AF3;F7;F3;FC5;T7;P7;O1;O2;P8;T8;FC6;F4;F8;AF4;Sampling Rate
0.0000000000e+000;4.2319228516e+003;4.1976923828e+003;4.2079487305e+003;4.2176923828e+003;4.1919228516e+003;4.2117949219e+003;4.2003847656e+003;4.2100000000e+003;4.1912822266e+003;4.1678203125e+003;4.1869228516e+003;4.1875639648e+003;4.1771796875e+003;4.2016665039e+003;128
7.8125000000e-003;4.2315385742e+003;4.2005126953e+003;4.2076923828e+003;4.2239741211e+003;4.1952563477e+003;4.2116665039e+003;4.2012822266e+003;4.2007690430e+003;4.1929487305e+003;4.1696152344e+003;4.1908974609e+003;4.1871796875e+003;4.1824360352e+003;4.2041025391e+003;
1.5625000000e-002;4.2483334961e+003;4.2200000000e+003;4.2275639648e+003;4.2423076172e+003;4.2146152344e+003;4.2261538086e+003;4.2161538086e+003;4.2174360352e+003;4.2120512695e+003;4.1921796875e+003;4.2138461914e+003;4.2087177734e+003;4.2048715820e+003;4.2273076172e+003;
2.3437500000e-002;4.2242309570e+003;4.1925639648e+003;4.2076923828e+003;4.2142309570e+003;4.1773076172e+003;4.1888461914e+003;4.1776923828e+003;4.1824360352e+003;4.1714101563e+003;4.1612822266e+003;4.1901284180e+003;4.1880771484e+003;4.1852563477e+003;4.2070512695e+003;
3.1250000000e-002;4.3739741211e+003;4.3446152344e+003;4.3546152344e+003;4.3553847656e+003;4.3217949219e+003;4.3326923828e+003;4.3301284180e+003;4.3223076172e+003;4.3084614258e+003;4.3087177734e+003;4.3355126953e+003;4.3297436523e+003;4.3343588867e+003;4.3479487305e+003;
3.9062500000e-002;4.4215385742e+003;4.3932050781e+003;4.4050000000e+003;4.4029487305e+003;4.3723076172e+003;4.3837177734e+003;4.3860258789e+003;4.3733334961e+003;4.3569228516e+003;4.3602563477e+003;4.3846152344e+003;4.3801284180e+003;4.3828203125e+003;4.3958974609e+003;
4.6875000000e-002;4.5829487305e+003;4.5611538086e+003;4.5665385742e+003;4.5521796875e+003;4.5421796875e+003;4.5451284180e+003;4.5583334961e+003;4.5470512695e+003;4.5261538086e+003;4.5329487305e+003;4.5502563477e+003;4.5448715820e+003;4.5488461914e+003;4.5597436523e+003;
5.4687500000e-002;4.5982050781e+003;4.5826923828e+003;4.5830771484e+003;4.5687177734e+003;4.5641025391e+003;4.5660258789e+003;4.5761538086e+003;4.5732050781e+003;4.5516665039e+003;4.5557690430e+003;4.5701284180e+003;4.5633334961e+003;4.5689741211e+003;4.5800000000e+003;
6.2500000000e-002;4.5973076172e+003;4.5944873047e+003;4.5897436523e+003;4.5817949219e+003;4.5834614258e+003;4.5838461914e+003;4.5906411133e+003;4.5952563477e+003;4.5717949219e+003;4.5680771484e+003;4.5776923828e+003;4.5687177734e+003;4.5780771484e+003;4.5885898438e+003;
7.0312500000e-002;4.6358974609e+003;4.6379487305e+003;4.6321796875e+003;4.6248715820e+003;4.6321796875e+003;4.6269228516e+003;4.6369228516e+003;4.6430771484e+003;4.6191025391e+003;4.6142309570e+003;4.6215385742e+003;4.6105126953e+003;4.6217949219e+003;4.6307690430e+003;
7.8125000000e-002;4.6901284180e+003;4.7069228516e+003;4.7015385742e+003;4.6851284180e+003;4.7016665039e+003;4.6917949219e+003;4.7017949219e+003;4.7224360352e+003;4.6960258789e+003;4.6932050781e+003;4.6982050781e+003;4.6851284180e+003;4.6967949219e+003;4.7010258789e+003;
8.5937500000e-002;4.6720512695e+003;4.6944873047e+003;4.6874360352e+003;4.6705126953e+003;4.6862822266e+003;4.6779487305e+003;4.6857690430e+003;4.7074360352e+003;4.6803847656e+003;4.6767949219e+003;4.6828203125e+003;4.6693588867e+003;4.6833334961e+003;4.6862822266e+003;
9.3750000000e-002;4.6773076172e+003;4.7046152344e+003;4.6947436523e+003;4.6782050781e+003;4.6951284180e+003;4.6841025391e+003;4.6925639648e+003;4.7141025391e+003;4.6882050781e+003;4.6844873047e+003;4.6896152344e+003;4.6739741211e+003;4.6921796875e+003;4.6941025391e+003;
1.0156250000e-001;4.6980771484e+003;4.7282050781e+003;4.7170512695e+003;4.7000000000e+003;4.7196152344e+003;4.7041025391e+003;4.7147436523e+003;4.7369228516e+003;4.7139741211e+003;4.7119228516e+003;4.7135898438e+003;4.6950000000e+003;4.7169228516e+003;4.7184614258e+003;
1.0937500000e-001;4.7161538086e+003;4.7535898438e+003;4.7405126953e+003;4.7194873047e+003;4.7329487305e+003;4.7242309570e+003;4.7317949219e+003;4.7506411133e+003;4.7334614258e+003;4.7433334961e+003;4.7439741211e+003;4.7180771484e+003;4.7517949219e+003;4.7453847656e+003;
1.1718750000e-001;4.7584614258e+003;4.8032050781e+003;4.7851284180e+003;4.7625639648e+003;4.7756411133e+003;4.7606411133e+003;4.7682050781e+003;4.7869228516e+003;4.7733334961e+003;4.7867949219e+003;4.7869228516e+003;4.7606411133e+003;4.7988461914e+003;4.7894873047e+003;
1.2500000000e-001;4.7852563477e+003;4.8361538086e+003;4.8230771484e+003;4.7887177734e+003;4.8103847656e+003;4.7815385742e+003;4.7910258789e+003;4.7993588867e+003;4.7917949219e+003;4.8132050781e+003;4.8138461914e+003;4.7947436523e+003;4.8237177734e+003;4.8243588867e+003;
1.3281250000e-001;4.8512822266e+003;4.9056411133e+003;4.8961538086e+003;4.8562822266e+003;4.8851284180e+003;4.8543588867e+003;4.8623076172e+003;4.8729487305e+003;4.8597436523e+003;4.8906411133e+003;4.8955126953e+003;4.8771796875e+003;4.8974360352e+003;4.9017949219e+003;
1.4062500000e-001;4.8297436523e+003;4.8866665039e+003;4.8789741211e+003;4.8419228516e+003;4.8657690430e+003;4.8382050781e+003;4.8452563477e+003;4.8567949219e+003;4.8444873047e+003;4.8760258789e+003;4.8796152344e+003;4.8628203125e+003;4.8805126953e+003;4.8857690430e+003;
1.4843750000e-001;4.8166665039e+003;4.8832050781e+003;4.8703847656e+003;4.8367949219e+003;4.8630771484e+003;4.8305126953e+003;4.8452563477e+003;4.8461538086e+003;4.8269228516e+003;4.8615385742e+003;4.8739741211e+003;4.8516665039e+003;4.8693588867e+003;4.8756411133e+003;
1.5625000000e-001;4.8603847656e+003;4.9357690430e+003;4.9269228516e+003;4.8855126953e+003;4.9105126953e+003;4.8906411133e+003;4.9093588867e+003;4.9098715820e+003;4.8846152344e+003;4.9155126953e+003;4.9284614258e+003;4.9028203125e+003;4.9239741211e+003;4.9264101563e+003;
1.6406250000e-001;4.8815385742e+003;4.9601284180e+003;4.9496152344e+003;4.9080771484e+003;4.9346152344e+003;4.9166665039e+003;4.9387177734e+003;4.9402563477e+003;4.9165385742e+003;4.9410258789e+003;4.9520512695e+003;4.9250000000e+003;4.9498715820e+003;4.9483334961e+003;
1.7187500000e-001;4.9189741211e+003;5.0028203125e+003;4.9870512695e+003;4.9456411133e+003;4.9778203125e+003;4.9571796875e+003;4.9811538086e+003;4.9893588867e+003;4.9669228516e+003;4.9864101563e+003;4.9935898438e+003;4.9637177734e+003;4.9920512695e+003;4.9862822266e+003;
1.7968750000e-001;4.9265385742e+003;5.0224360352e+003;4.9998715820e+003;4.9591025391e+003;5.0012822266e+003;4.9774360352e+003;4.9970512695e+003;5.0239741211e+003;4.9994873047e+003;5.0144873047e+003;5.0111538086e+003;4.9766665039e+003;5.0074360352e+003;4.9965385742e+003;
1.8750000000e-001;4.8752563477e+003;4.9794873047e+003;4.9629487305e+003;4.9193588867e+003;4.9648715820e+003;4.9456411133e+003;4.9610258789e+003;4.9812822266e+003;4.9587177734e+003;4.9646152344e+003;4.9585898438e+003;4.9250000000e+003;4.9617949219e+003;4.9506411133e+003;
1.9531250000e-001;4.8843588867e+003;4.9905126953e+003;4.9756411133e+003;4.9292309570e+003;4.9739741211e+003;4.9547436523e+003;4.9703847656e+003;4.9902563477e+003;4.9693588867e+003;4.9735898438e+003;4.9678203125e+003;4.9380771484e+003;4.9714101563e+003;4.9632050781e+003;
2.0312500000e-001;4.8785898438e+003;4.9866665039e+003;4.9726923828e+003;4.9246152344e+003;4.9674360352e+003;4.9489741211e+003;4.9632050781e+003;4.9846152344e+003;4.9647436523e+003;4.9676923828e+003;4.9626923828e+003;4.9378203125e+003;4.9653847656e+003;4.9615385742e+003;
2.1093750000e-001;4.8765385742e+003;4.9902563477e+003;4.9729487305e+003;4.9252563477e+003;4.9666665039e+003;4.9480771484e+003;4.9566665039e+003;4.9769228516e+003;4.9623076172e+003;4.9653847656e+003;4.9610258789e+003;4.9391025391e+003;4.9657690430e+003;4.9664101563e+003;
2.1875000000e-001;4.9061538086e+003;5.0242309570e+003;5.0039741211e+003;4.9564101563e+003;4.9985898438e+003;4.9773076172e+003;4.9835898438e+003;5.0037177734e+003;4.9933334961e+003;4.9987177734e+003;4.9930771484e+003;4.9674360352e+003;5.0000000000e+003;4.9987177734e+003;
2.2656250000e-001;4.9325639648e+003;5.0544873047e+003;5.0329487305e+003;4.9856411133e+003;5.0270512695e+003;5.0028203125e+003;5.0087177734e+003;5.0296152344e+003;5.0229487305e+003;5.0307690430e+003;5.0237177734e+003;4.9942309570e+003;5.0314101563e+003;5.0270512695e+003;
2.3437500000e-001;5.0548715820e+003;5.1966665039e+003;5.1674360352e+003;5.1125639648e+003;5.1660258789e+003;5.1108974609e+003;5.1255126953e+003;5.1478203125e+003;5.1408974609e+003;5.1637177734e+003;5.1642309570e+003;5.1326923828e+003;5.1756411133e+003;5.1639741211e+003;
2.4218750000e-001;5.0451284180e+003;5.1917949219e+003;5.1641025391e+003;5.1058974609e+003;5.1592309570e+003;5.1044873047e+003;5.1160258789e+003;5.1407690430e+003;5.1348715820e+003;5.1601284180e+003;5.1619228516e+003;5.1315385742e+003;5.1735898438e+003;5.1642309570e+003;
2.5000000000e-001;4.9044873047e+003;5.0544873047e+003;5.0329487305e+003;4.9783334961e+003;5.0234614258e+003;4.9778203125e+003;4.9835898438e+003;5.0007690430e+003;4.9888461914e+003;5.0173076172e+003;5.0297436523e+003;5.0003847656e+003;5.0378203125e+003;5.0343588867e+003;
2.5781250000e-001;4.8021796875e+003;4.9492309570e+003;4.9323076172e+003;4.8848715820e+003;4.9228203125e+003;4.8915385742e+003;4.8971796875e+003;4.9129487305e+003;4.8856411133e+003;4.9078203125e+003;4.9261538086e+003;4.8980771484e+003;4.9306411133e+003;4.9287177734e+003;
2.6562500000e-001;4.7820512695e+003;4.9256411133e+003;4.9096152344e+003;4.8656411133e+003;4.9016665039e+003;4.8757690430e+003;4.8833334961e+003;4.8943588867e+003;4.8666665039e+003;4.8807690430e+003;4.9038461914e+003;4.8747436523e+003;4.9056411133e+003;4.9051284180e+003;
2.7343750000e-001;4.7797436523e+003;4.9187177734e+003;4.9001284180e+003;4.8621796875e+003;4.9000000000e+003;4.8838461914e+003;4.8916665039e+003;4.9089741211e+003;4.8832050781e+003;4.8853847656e+003;4.9016665039e+003;4.8728203125e+003;4.9010258789e+003;4.9042309570e+003;
2.8125000000e-001;4.7115385742e+003;4.8474360352e+003;4.8307690430e+003;4.7997436523e+003;4.8353847656e+003;4.8302563477e+003;4.8393588867e+003;4.8566665039e+003;4.8308974609e+003;4.8216665039e+003;4.8300000000e+003;4.8044873047e+003;4.8274360352e+003;4.8302563477e+003;
2.8906250000e-001;4.7088461914e+003;4.8441025391e+003;4.8285898438e+003;4.7993588867e+003;4.8362822266e+003;4.8317949219e+003;4.8405126953e+003;4.8598715820e+003;4.8355126953e+003;4.8212822266e+003;4.8300000000e+003;4.8008974609e+003;4.8255126953e+003;4.8270512695e+003;
2.9687500000e-001;4.6951284180e+003;4.8291025391e+003;4.8160258789e+003;4.7882050781e+003;4.8256411133e+003;4.8243588867e+003;4.8296152344e+003;4.8512822266e+003;4.8280771484e+003;4.8100000000e+003;4.8183334961e+003;4.7862822266e+003;4.8138461914e+003;4.8143588867e+003;
3.0468750000e-001;4.6948715820e+003;4.8247436523e+003;4.8139741211e+003;4.7865385742e+003;4.8264101563e+003;4.8282050781e+003;4.8275639648e+003;4.8424360352e+003;4.8210258789e+003;4.8012822266e+003;4.8093588867e+003;4.7770512695e+003;4.8123076172e+003;4.8083334961e+003;
3.1250000000e-001;4.8583334961e+003;4.9891025391e+003;4.9743588867e+003;4.9362822266e+003;4.9853847656e+003;4.9646152344e+003;4.9671796875e+003;4.9778203125e+003;4.9652563477e+003;4.9539741211e+003;4.9632050781e+003;4.9315385742e+003;4.9670512695e+003;4.9594873047e+003;
3.2031250000e-001;4.8565385742e+003;4.9891025391e+003;4.9758974609e+003;4.9348715820e+003;4.9832050781e+003;4.9603847656e+003;4.9611538086e+003;4.9757690430e+003;4.9646152344e+003;4.9547436523e+003;4.9641025391e+003;4.9311538086e+003;4.9657690430e+003;4.9603847656e+003;
3.2812500000e-001;4.8405126953e+003;4.9747436523e+003;4.9621796875e+003;4.9193588867e+003;4.9670512695e+003;4.9441025391e+003;4.9432050781e+003;4.9600000000e+003;4.9497436523e+003;4.9406411133e+003;4.9498715820e+003;4.9144873047e+003;4.9523076172e+003;4.9474360352e+003;
3.3593750000e-001;4.8493588867e+003;4.9869228516e+003;4.9717949219e+003;4.9266665039e+003;4.9753847656e+003;4.9494873047e+003;4.9478203125e+003;4.9639741211e+003;4.9576923828e+003;4.9514101563e+003;4.9588461914e+003;4.9234614258e+003;4.9693588867e+003;4.9597436523e+003;
3.4375000000e-001;4.8470512695e+003;4.9852563477e+003;4.9708974609e+003;4.9255126953e+003;4.9715385742e+003;4.9444873047e+003;4.9424360352e+003;4.9582050781e+003;4.9521796875e+003;4.9475639648e+003;4.9562822266e+003;4.9265385742e+003;4.9687177734e+003;4.9583334961e+003;
3.5156250000e-001;4.8220512695e+003;4.9600000000e+003;4.9484614258e+003;4.9033334961e+003;4.9441025391e+003;4.9169228516e+003;4.9150000000e+003;4.9298715820e+003;4.9212822266e+003;4.9175639648e+003;4.9311538086e+003;4.9084614258e+003;4.9424360352e+003;4.9344873047e+003;
3.5937500000e-001;4.6706411133e+003;4.7866665039e+003;4.7874360352e+003;4.7426923828e+003;4.7705126953e+003;4.7556411133e+003;4.7520512695e+003;4.7716665039e+003;4.7464101563e+003;4.7470512695e+003;4.7751284180e+003;4.7547436523e+003;4.7802563477e+003;4.7830771484e+003;
3.6718750000e-001;4.6325639648e+003;4.7447436523e+003;4.7496152344e+003;4.7056411133e+003;4.7311538086e+003;4.7215385742e+003;4.7198715820e+003;4.7325639648e+003;4.7078203125e+003;4.7038461914e+003;4.7333334961e+003;4.7165385742e+003;4.7400000000e+003;4.7416665039e+003;
3.7500000000e-001;4.6797436523e+003;4.7892309570e+003;4.7929487305e+003;4.7538461914e+003;4.7802563477e+003;4.7661538086e+003;4.7753847656e+003;4.7907690430e+003;4.7650000000e+003;4.7508974609e+003;4.7800000000e+003;4.7667949219e+003;4.7803847656e+003;4.7839741211e+003;
3.8281250000e-001;4.6314101563e+003;4.7335898438e+003;4.7419228516e+003;4.7041025391e+003;4.7300000000e+003;4.7333334961e+003;4.7352563477e+003;4.7519228516e+003;4.7206411133e+003;4.6967949219e+003;4.7274360352e+003;4.7134614258e+003;4.7221796875e+003;4.7311538086e+003;
3.9062500000e-001;4.6400000000e+003;4.7433334961e+003;4.7469228516e+003;4.7123076172e+003;4.7392309570e+003;4.7452563477e+003;4.7460258789e+003;4.7612822266e+003;4.7300000000e+003;4.7062822266e+003;4.7367949219e+003;4.7205126953e+003;4.7341025391e+003;4.7389741211e+003;
3.9843750000e-001;4.5587177734e+003;4.6583334961e+003;4.6552563477e+003;4.6350000000e+003;4.6591025391e+003;4.6771796875e+003;4.6746152344e+003;4.6875639648e+003;4.6596152344e+003;4.6316665039e+003;4.6611538086e+003;4.6362822266e+003;4.6615385742e+003;4.6633334961e+003;
4.0625000000e-001;4.5873076172e+003;4.6838461914e+003;4.6820512695e+003;4.6620512695e+003;4.6853847656e+003;4.7010258789e+003;4.6942309570e+003;4.7032050781e+003;4.6784614258e+003;4.6485898438e+003;4.6802563477e+003;4.6500000000e+003;4.6767949219e+003;4.6815385742e+003;
4.1406250000e-001;4.5967949219e+003;4.6941025391e+003;4.6919228516e+003;4.6726923828e+003;4.6920512695e+003;4.7070512695e+003;4.6991025391e+003;4.7098715820e+003;4.6870512695e+003;4.6569228516e+003;4.6870512695e+003;4.6587177734e+003;4.6847436523e+003;4.6887177734e+003;
4.2187500000e-001;4.5947436523e+003;4.6903847656e+003;4.6874360352e+003;4.6694873047e+003;4.6862822266e+003;4.7014101563e+003;4.6933334961e+003;4.7037177734e+003;4.6837177734e+003;4.6523076172e+003;4.6820512695e+003;4.6546152344e+003;4.6815385742e+003;4.6853847656e+003;
4.2968750000e-001;4.6251284180e+003;4.7148715820e+003;4.7119228516e+003;4.6905126953e+003;4.7121796875e+003;4.7225639648e+003;4.7161538086e+003;4.7261538086e+003;4.7101284180e+003;4.6807690430e+003;4.7107690430e+003;4.6807690430e+003;4.7106411133e+003;4.7170512695e+003;
4.3750000000e-001;4.6438461914e+003;4.7382050781e+003;4.7376923828e+003;4.7100000000e+003;4.7296152344e+003;4.7302563477e+003;4.7284614258e+003;4.7414101563e+003;4.7201284180e+003;4.7005126953e+003;4.7317949219e+003;4.7069228516e+003;4.7324360352e+003;4.7393588867e+003;
4.4531250000e-001;4.6612822266e+003;4.7575639648e+003;4.7535898438e+003;4.7269228516e+003;4.7457690430e+003;4.7393588867e+003;4.7415385742e+003;4.7529487305e+003;4.7312822266e+003;4.7130771484e+003;4.7479487305e+003;4.7225639648e+003;4.7498715820e+003;4.7552563477e+003;
4.5312500000e-001;4.6935898438e+003;4.7900000000e+003;4.7832050781e+003;4.7561538086e+003;4.7762822266e+003;4.7625639648e+003;4.7674360352e+003;4.7801284180e+003;4.7583334961e+003;4.7428203125e+003;4.7803847656e+003;4.7521796875e+003;4.7819228516e+003;4.7875639648e+003;
4.6093750000e-001;4.6983334961e+003;4.7897436523e+003;4.7875639648e+003;4.7583334961e+003;4.7760258789e+003;4.7629487305e+003;4.7641025391e+003;4.7837177734e+003;4.7575639648e+003;4.7494873047e+003;4.7889741211e+003;4.7565385742e+003;4.7856411133e+003;4.7969228516e+003;
4.6875000000e-001;4.6676923828e+003;4.7567949219e+003;4.7585898438e+003;4.7301284180e+003;4.7444873047e+003;4.7364101563e+003;4.7344873047e+003;4.7535898438e+003;4.7242309570e+003;4.7171796875e+003;4.7585898438e+003;4.7270512695e+003;4.7538461914e+003;4.7664101563e+003;
4.7656250000e-001;4.6500000000e+003;4.7389741211e+003;4.7420512695e+003;4.7142309570e+003;4.7278203125e+003;4.7217949219e+003;4.7187177734e+003;4.7357690430e+003;4.7047436523e+003;4.6960258789e+003;4.7396152344e+003;4.7105126953e+003;4.7353847656e+003;4.7466665039e+003;
4.8437500000e-001;4.5670512695e+003;4.6406411133e+003;4.6610258789e+003;4.6302563477e+003;4.6403847656e+003;4.6479487305e+003;4.6460258789e+003;4.6608974609e+003;4.6237177734e+003;4.6003847656e+003;4.6451284180e+003;4.6260258789e+003;4.6398715820e+003;4.6560258789e+003;
4.9218750000e-001;4.5950000000e+003;4.6671796875e+003;4.6871796875e+003;4.6588461914e+003;4.6721796875e+003;4.6789741211e+003;4.6774360352e+003;4.6906411133e+003;4.6517949219e+003;4.6283334961e+003;4.6720512695e+003;4.6497436523e+003;4.6684614258e+003;4.6832050781e+003;
5.0000000000e-001;4.6335898438e+003;4.7166665039e+003;4.7238461914e+003;4.7010258789e+003;4.7238461914e+003;4.7342309570e+003;4.7283334961e+003;4.7391025391e+003;4.7047436523e+003;4.6757690430e+003;4.7123076172e+003;4.6920512695e+003;4.7102563477e+003;4.7266665039e+003;
5.0781250000e-001;4.6893588867e+003;4.7823076172e+003;4.7788461914e+003;4.7562822266e+003;4.7806411133e+003;4.7871796875e+003;4.7811538086e+003;4.7934614258e+003;4.7589741211e+003;4.7362822266e+003;4.7651284180e+003;4.7421796875e+003;4.7644873047e+003;4.7773076172e+003;
5.1562500000e-001;4.6852563477e+003;4.7758974609e+003;4.7750000000e+003;4.7514101563e+003;4.7767949219e+003;4.7830771484e+003;4.7743588867e+003;4.7892309570e+003;4.7566665039e+003;4.7348715820e+003;4.7619228516e+003;4.7357690430e+003;4.7588461914e+003;4.7732050781e+003;
5.2343750000e-001;4.5847436523e+003;4.6674360352e+003;4.6720512695e+003;4.6502563477e+003;4.6726923828e+003;4.6860258789e+003;4.6739741211e+003;4.6817949219e+003;4.6552563477e+003;4.6273076172e+003;4.6602563477e+003;4.6306411133e+003;4.6544873047e+003;4.6694873047e+003;
5.3125000000e-001;4.5433334961e+003;4.6232050781e+003;4.6229487305e+003;4.6066665039e+003;4.6200000000e+003;4.6362822266e+003;4.6212822266e+003;4.6341025391e+003;4.6052563477e+003;4.5830771484e+003;4.6170512695e+003;4.5894873047e+003;4.6132050781e+003;4.6291025391e+003;
5.3906250000e-001;4.5438461914e+003;4.6203847656e+003;4.6200000000e+003;4.6051284180e+003;4.6171796875e+003;4.6308974609e+003;4.6157690430e+003;4.6270512695e+003;4.6002563477e+003;4.5784614258e+003;4.6142309570e+003;4.5873076172e+003;4.6110258789e+003;4.6297436523e+003;
5.4687500000e-001;4.5625639648e+003;4.6373076172e+003;4.6362822266e+003;4.6221796875e+003;4.6330771484e+003;4.6420512695e+003;4.6282050781e+003;4.6396152344e+003;4.6156411133e+003;4.5956411133e+003;4.6324360352e+003;4.6048715820e+003;4.6291025391e+003;4.6491025391e+003;
5.5468750000e-001;4.5528203125e+003;4.6248715820e+003;4.6262822266e+003;4.6135898438e+003;4.6155126953e+003;4.6217949219e+003;4.6102563477e+003;4.6292309570e+003;4.6048715820e+003;4.5920512695e+003;4.6288461914e+003;4.6003847656e+003;4.6205126953e+003;4.6406411133e+003;
5.6250000000e-001;4.5074360352e+003;4.5753847656e+003;4.5803847656e+003;4.5685898438e+003;4.5643588867e+003;4.5739741211e+003;4.5623076172e+003;4.5825639648e+003;4.5543588867e+003;4.5426923828e+003;4.5821796875e+003;4.5539741211e+003;4.5707690430e+003;4.5923076172e+003;
5.7031250000e-001;4.4793588867e+003;4.5365385742e+003;4.5453847656e+003;4.5321796875e+003;4.5226923828e+003;4.5338461914e+003;4.5214101563e+003;4.5375639648e+003;4.5067949219e+003;4.4910258789e+003;4.5375639648e+003;4.5087177734e+003;4.5266665039e+003;4.5512822266e+003;
5.7812500000e-001;4.5029487305e+003;4.5566665039e+003;4.5660258789e+003;4.5503847656e+003;4.5398715820e+003;4.5501284180e+003;4.5371796875e+003;4.5534614258e+003;4.5264101563e+003;4.5085898438e+003;4.5537177734e+003;4.5258974609e+003;4.5456411133e+003;4.5703847656e+003;
5.8593750000e-001;4.4450000000e+003;4.4915385742e+003;4.5043588867e+003;4.4912822266e+003;4.4741025391e+003;4.4971796875e+003;4.4862822266e+003;4.5008974609e+003;4.4778203125e+003;4.4557690430e+003;4.4921796875e+003;4.4707690430e+003;4.4832050781e+003;4.5091025391e+003;
5.9375000000e-001;4.4266665039e+003;4.4701284180e+003;4.4810258789e+003;4.4712822266e+003;4.4571796875e+003;4.4829487305e+003;4.4729487305e+003;4.4864101563e+003;4.4591025391e+003;4.4344873047e+003;4.4732050781e+003;4.4500000000e+003;4.4616665039e+003;4.4876923828e+003;
6.0156250000e-001;4.4253847656e+003;4.4664101563e+003;4.4746152344e+003;4.4676923828e+003;4.4580771484e+003;4.4851284180e+003;4.4737177734e+003;4.4887177734e+003;4.4570512695e+003;4.4298715820e+003;4.4712822266e+003;4.4460258789e+003;4.4580771484e+003;4.4838461914e+003;
6.0937500000e-001;4.4689741211e+003;4.5100000000e+003;4.5157690430e+003;4.5103847656e+003;4.5098715820e+003;4.5489741211e+003;4.5303847656e+003;4.5434614258e+003;4.5182050781e+003;4.4788461914e+003;4.5108974609e+003;4.4816665039e+003;4.4994873047e+003;4.5206411133e+003;
6.1718750000e-001;4.4741025391e+003;4.5129487305e+003;4.5215385742e+003;4.5137177734e+003;4.5151284180e+003;4.5541025391e+003;4.5357690430e+003;4.5521796875e+003;4.5278203125e+003;4.4873076172e+003;4.5153847656e+003;4.4873076172e+003;4.5055126953e+003;4.5255126953e+003;
6.2500000000e-001;4.4167949219e+003;4.4489741211e+003;4.4583334961e+003;4.4523076172e+003;4.4546152344e+003;4.4984614258e+003;4.4775639648e+003;4.4907690430e+003;4.4617949219e+003;4.4161538086e+003;4.4496152344e+003;4.4306411133e+003;4.4458974609e+003;4.4630771484e+003;
6.3281250000e-001;4.4552563477e+003;4.4910258789e+003;4.4974360352e+003;4.4951284180e+003;4.4948715820e+003;4.5415385742e+003;4.5178203125e+003;4.5303847656e+003;4.5061538086e+003;4.4676923828e+003;4.4974360352e+003;4.4750000000e+003;4.4885898438e+003;4.5103847656e+003;
6.4062500000e-001;4.4447436523e+003;4.4773076172e+003;4.4857690430e+003;4.4852563477e+003;4.4816665039e+003;4.5291025391e+003;4.5069228516e+003;4.5160258789e+003;4.4934614258e+003;4.4557690430e+003;4.4869228516e+003;4.4624360352e+003;4.4770512695e+003;4.4988461914e+003;
6.4843750000e-001;4.5692309570e+003;4.5947436523e+003;4.6030771484e+003;4.5935898438e+003;4.6008974609e+003;4.6228203125e+003;4.6098715820e+003;4.6174360352e+003;4.5960258789e+003;4.5675639648e+003;4.6057690430e+003;4.5783334961e+003;4.5928203125e+003;4.6088461914e+003;
6.5625000000e-001;4.6032050781e+003;4.6300000000e+003;4.6408974609e+003;4.6253847656e+003;4.6338461914e+003;4.6510258789e+003;4.6389741211e+003;4.6480771484e+003;4.6241025391e+003;4.6019228516e+003;4.6392309570e+003;4.6150000000e+003;4.6265385742e+003;4.6434614258e+003;
6.6406250000e-001;4.6448715820e+003;4.6752563477e+003;4.6896152344e+003;4.6671796875e+003;4.6705126953e+003;4.6832050781e+003;4.6757690430e+003;4.6835898438e+003;4.6564101563e+003;4.6455126953e+003;4.6828203125e+003;4.6617949219e+003;4.6733334961e+003;4.6932050781e+003;
6.7187500000e-001;4.6678203125e+003;4.6994873047e+003;4.7125639648e+003;4.6894873047e+003;4.6900000000e+003;4.6992309570e+003;4.6937177734e+003;4.7041025391e+003;4.6780771484e+003;4.6708974609e+003;4.7097436523e+003;4.6876923828e+003;4.6998715820e+003;4.7215385742e+003;
6.7968750000e-001;4.6705126953e+003;4.7026923828e+003;4.7151284180e+003;4.6923076172e+003;4.6892309570e+003;4.6967949219e+003;4.6905126953e+003;4.7061538086e+003;4.6816665039e+003;4.6761538086e+003;4.7174360352e+003;4.6943588867e+003;4.7043588867e+003;4.7287177734e+003;
6.8750000000e-001;4.6483334961e+003;4.6800000000e+003;4.6942309570e+003;4.6712822266e+003;4.6641025391e+003;4.6728203125e+003;4.6643588867e+003;4.6835898438e+003;4.6594873047e+003;4.6538461914e+003;4.6988461914e+003;4.6755126953e+003;4.6819228516e+003;4.7084614258e+003;
6.9531250000e-001;4.7111538086e+003;4.7456411133e+003;4.7653847656e+003;4.7284614258e+003;4.7366665039e+003;4.7388461914e+003;4.7364101563e+003;4.7580771484e+003;4.7339741211e+003;4.7302563477e+003;4.7676923828e+003;4.7412822266e+003;4.7566665039e+003;4.7734614258e+003;
7.0312500000e-001;4.7042309570e+003;4.7405126953e+003;4.7605126953e+003;4.7230771484e+003;4.7357690430e+003;4.7435898438e+003;4.7385898438e+003;4.7625639648e+003;4.7402563477e+003;4.7326923828e+003;4.7646152344e+003;4.7371796875e+003;4.7538461914e+003;4.7688461914e+003;
7.1093750000e-001;4.6932050781e+003;4.7435898438e+003;4.7460258789e+003;4.7180771484e+003;4.7405126953e+003;4.7561538086e+003;4.7487177734e+003;4.7651284180e+003;4.7408974609e+003;4.7200000000e+003;4.7538461914e+003;4.7165385742e+003;4.7391025391e+003;4.7517949219e+003;
7.1875000000e-001;4.6680771484e+003;4.7230771484e+003;4.7347436523e+003;4.7033334961e+003;4.7260258789e+003;4.7496152344e+003;4.7423076172e+003;4.7587177734e+003;4.7307690430e+003;4.7065385742e+003;4.7311538086e+003;4.6967949219e+003;4.7242309570e+003;4.7325639648e+003;
7.2656250000e-001;4.6597436523e+003;4.7151284180e+003;4.7282050781e+003;4.6991025391e+003;4.7223076172e+003;4.7476923828e+003;4.7402563477e+003;4.7529487305e+003;4.7265385742e+003;4.7000000000e+003;4.7221796875e+003;4.6864101563e+003;4.7166665039e+003;4.7243588867e+003;
7.3437500000e-001;4.7423076172e+003;4.8007690430e+003;4.7985898438e+003;4.7791025391e+003;4.8060258789e+003;4.8202563477e+003;4.8161538086e+003;4.8310258789e+003;4.8061538086e+003;4.7838461914e+003;4.8008974609e+003;4.7603847656e+003;4.7948715820e+003;4.8024360352e+003;
7.4218750000e-001;4.7470512695e+003;4.8034614258e+003;4.8016665039e+003;4.7830771484e+003;4.8083334961e+003;4.8230771484e+003;4.8179487305e+003;4.8323076172e+003;4.8082050781e+003;4.7856411133e+003;4.8038461914e+003;4.7667949219e+003;4.7987177734e+003;4.8066665039e+003;
7.5000000000e-001;4.8087177734e+003;4.8725639648e+003;4.8746152344e+003;4.8466665039e+003;4.8787177734e+003;4.8888461914e+003;4.8794873047e+003;4.8880771484e+003;4.8744873047e+003;4.8534614258e+003;4.8721796875e+003;4.8408974609e+003;4.8669228516e+003;4.8816665039e+003;
7.5781250000e-001;4.8083334961e+003;4.8774360352e+003;4.8803847656e+003;4.8496152344e+003;4.8808974609e+003;4.8884614258e+003;4.8784614258e+003;4.8870512695e+003;4.8739741211e+003;4.8580771484e+003;4.8760258789e+003;4.8457690430e+003;4.8691025391e+003;4.8875639648e+003;
7.6562500000e-001;4.8044873047e+003;4.8771796875e+003;4.8808974609e+003;4.8480771484e+003;4.8724360352e+003;4.8732050781e+003;4.8675639648e+003;4.8707690430e+003;4.8530771484e+003;4.8485898438e+003;4.8697436523e+003;4.8402563477e+003;4.8647436523e+003;4.8823076172e+003;
7.7343750000e-001;4.8371796875e+003;4.9105126953e+003;4.9138461914e+003;4.8793588867e+003;4.9024360352e+003;4.8974360352e+003;4.8950000000e+003;4.8975639648e+003;4.8783334961e+003;4.8784614258e+003;4.9016665039e+003;4.8703847656e+003;4.8984614258e+003;4.9116665039e+003;
7.8125000000e-001;4.8575639648e+003;4.9341025391e+003;4.9425639648e+003;4.9039741211e+003;4.9265385742e+003;4.9119228516e+003;4.9137177734e+003;4.9251284180e+003;4.9012822266e+003;4.9098715820e+003;4.9350000000e+003;4.9053847656e+003;4.9311538086e+003;4.9434614258e+003;
7.8906250000e-001;4.8719228516e+003;4.9564101563e+003;4.9615385742e+003;4.9157690430e+003;4.9442309570e+003;4.9223076172e+003;4.9312822266e+003;4.9506411133e+003;4.9212822266e+003;4.9326923828e+003;4.9565385742e+003;4.9302563477e+003;4.9530771484e+003;4.9687177734e+003;
7.9687500000e-001;4.8546152344e+003;4.9429487305e+003;4.9484614258e+003;4.9006411133e+003;4.9275639648e+003;4.9098715820e+003;4.9176923828e+003;4.9425639648e+003;4.9129487305e+003;4.9193588867e+003;4.9423076172e+003;4.9167949219e+003;4.9361538086e+003;4.9542309570e+003;
8.0468750000e-001;4.8134614258e+003;4.9037177734e+003;4.9110258789e+003;4.8637177734e+003;4.8883334961e+003;4.8765385742e+003;4.8824360352e+003;4.9096152344e+003;4.8798715820e+003;4.8782050781e+003;4.9023076172e+003;4.8785898438e+003;4.8943588867e+003;4.9146152344e+003;
8.1250000000e-001;4.7815385742e+003;4.8720512695e+003;4.8801284180e+003;4.8360258789e+003;4.8598715820e+003;4.8514101563e+003;4.8565385742e+003;4.8824360352e+003;4.8533334961e+003;4.8435898438e+003;4.8701284180e+003;4.8473076172e+003;4.8624360352e+003;4.8828203125e+003;
8.2031250000e-001;4.7894873047e+003;4.8832050781e+003;4.8865385742e+003;4.8544873047e+003;4.8815385742e+003;4.8883334961e+003;4.8855126953e+003;4.9041025391e+003;4.8838461914e+003;4.8617949219e+003;4.8841025391e+003;4.8487177734e+003;4.8725639648e+003;4.8942309570e+003;
8.2812500000e-001;4.7828203125e+003;4.8783334961e+003;4.8778203125e+003;4.8491025391e+003;4.8773076172e+003;4.8876923828e+003;4.8842309570e+003;4.8965385742e+003;4.8761538086e+003;4.8520512695e+003;4.8739741211e+003;4.8374360352e+003;4.8617949219e+003;4.8844873047e+003;
8.3593750000e-001;4.8500000000e+003;4.9560258789e+003;4.9438461914e+003;4.9216665039e+003;4.9565385742e+003;4.9565385742e+003;4.9566665039e+003;4.9655126953e+003;4.9426923828e+003;4.9250000000e+003;4.9429487305e+003;4.9044873047e+003;4.9367949219e+003;4.9491025391e+003;
8.4375000000e-001;4.8479487305e+003;4.9589741211e+003;4.9489741211e+003;4.9255126953e+003;4.9610258789e+003;4.9642309570e+003;4.9608974609e+003;4.9643588867e+003;4.9503847656e+003;4.9357690430e+003;4.9494873047e+003;4.9061538086e+003;4.9457690430e+003;4.9544873047e+003;
8.5156250000e-001;4.8569228516e+003;4.9670512695e+003;4.9566665039e+003;4.9328203125e+003;4.9687177734e+003;4.9715385742e+003;4.9669228516e+003;4.9708974609e+003;4.9598715820e+003;4.9461538086e+003;4.9579487305e+003;4.9164101563e+003;4.9539741211e+003;4.9629487305e+003;
8.5937500000e-001;4.8593588867e+003;4.9684614258e+003;4.9592309570e+003;4.9391025391e+003;4.9738461914e+003;4.9705126953e+003;4.9689741211e+003;4.9730771484e+003;4.9607690430e+003;4.9460258789e+003;4.9605126953e+003;4.9221796875e+003;4.9489741211e+003;4.9602563477e+003;
8.6718750000e-001;4.9078203125e+003;5.0217949219e+003;5.0091025391e+003;4.9891025391e+003;5.0279487305e+003;5.0169228516e+003;5.0182050781e+003;5.0247436523e+003;5.0100000000e+003;4.9973076172e+003;5.0130771484e+003;4.9707690430e+003;5.0006411133e+003;5.0107690430e+003;
8.7500000000e-001;4.9592309570e+003;5.0771796875e+003;5.0667949219e+003;5.0389741211e+003;5.0726923828e+003;5.0615385742e+003;5.0662822266e+003;5.0896152344e+003;5.0700000000e+003;5.0665385742e+003;5.0805126953e+003;5.0365385742e+003;5.0688461914e+003;5.0780771484e+003;
8.8281250000e-001;4.9257690430e+003;5.0385898438e+003;5.0320512695e+003;5.0034614258e+003;5.0301284180e+003;5.0229487305e+003;5.0317949219e+003;5.0516665039e+003;5.0321796875e+003;5.0278203125e+003;5.0470512695e+003;5.0023076172e+003;5.0328203125e+003;5.0438461914e+003;
8.9062500000e-001;4.9514101563e+003;5.0635898438e+003;5.0570512695e+003;5.0278203125e+003;5.0512822266e+003;5.0338461914e+003;5.0525639648e+003;5.0691025391e+003;5.0473076172e+003;5.0442309570e+003;5.0766665039e+003;5.0241025391e+003;5.0532050781e+003;5.0696152344e+003;
8.9843750000e-001;4.9808974609e+003;5.0967949219e+003;5.0906411133e+003;5.0597436523e+003;5.0841025391e+003;5.0598715820e+003;5.0792309570e+003;5.1008974609e+003;5.0758974609e+003;5.0752563477e+003;5.1101284180e+003;5.0576923828e+003;5.0857690430e+003;5.1039741211e+003;
9.0625000000e-001;4.9934614258e+003;5.1141025391e+003;5.1102563477e+003;5.0771796875e+003;5.1014101563e+003;5.0773076172e+003;5.0932050781e+003;5.1207690430e+003;5.0937177734e+003;5.0902563477e+003;5.1202563477e+003;5.0793588867e+003;5.1106411133e+003;5.1226923828e+003;
9.1406250000e-001;5.0147436523e+003;5.1379487305e+003;5.1314101563e+003;5.0982050781e+003;5.1258974609e+003;5.1003847656e+003;5.1191025391e+003;5.1451284180e+003;5.1216665039e+003;5.1160258789e+003;5.1426923828e+003;5.1002563477e+003;5.1321796875e+003;5.1438461914e+003;
9.2187500000e-001;5.0106411133e+003;5.1439741211e+003;5.1334614258e+003;5.1024360352e+003;5.1350000000e+003;5.1102563477e+003;5.1311538086e+003;5.1542309570e+003;5.1333334961e+003;5.1233334961e+003;5.1467949219e+003;5.0992309570e+003;5.1267949219e+003;5.1450000000e+003;
9.2968750000e-001;4.9888461914e+003;5.1260258789e+003;5.1148715820e+003;5.0864101563e+003;5.1192309570e+003;5.0984614258e+003;5.1161538086e+003;5.1365385742e+003;5.1132050781e+003;5.1008974609e+003;5.1258974609e+003;5.0765385742e+003;5.1046152344e+003;5.1238461914e+003;
9.3750000000e-001;4.9858974609e+003;5.1247436523e+003;5.1132050781e+003;5.0867949219e+003;5.1200000000e+003;5.1026923828e+003;5.1161538086e+003;5.1346152344e+003;5.1084614258e+003;5.0950000000e+003;5.1210258789e+003;5.0698715820e+003;5.1020512695e+003;5.1185898438e+003;
9.4531250000e-001;4.9326923828e+003;5.0738461914e+003;5.0665385742e+003;5.0364101563e+003;5.0691025391e+003;5.0670512695e+003;5.0687177734e+003;5.0846152344e+003;5.0698715820e+003;5.0543588867e+003;5.0776923828e+003;5.0220512695e+003;5.0621796875e+003;5.0705126953e+003;
9.5312500000e-001;4.8896152344e+003;5.0315385742e+003;5.0203847656e+003;4.9938461914e+003;5.0262822266e+003;5.0257690430e+003;5.0253847656e+003;5.0389741211e+003;5.0282050781e+003;5.0121796875e+003;5.0380771484e+003;4.9793588867e+003;5.0219228516e+003;5.0292309570e+003;
9.6093750000e-001;4.6202563477e+003;4.7479487305e+003;4.7473076172e+003;4.7344873047e+003;4.7470512695e+003;4.7692309570e+003;4.7562822266e+003;4.7638461914e+003;4.7574360352e+003;4.7306411133e+003;4.7574360352e+003;4.7021796875e+003;4.7387177734e+003;4.7538461914e+003;
9.6875000000e-001;4.5642309570e+003;4.6838461914e+003;4.6892309570e+003;4.6771796875e+003;4.6853847656e+003;4.7111538086e+003;4.6984614258e+003;4.7002563477e+003;4.6943588867e+003;4.6619228516e+003;4.6921796875e+003;4.6397436523e+003;4.6724360352e+003;4.6920512695e+003;
9.7656250000e-001;4.5625639648e+003;4.6691025391e+003;4.6791025391e+003;4.6660258789e+003;4.6692309570e+003;4.6916665039e+003;4.6803847656e+003;4.6817949219e+003;4.6774360352e+003;4.6428203125e+003;4.6802563477e+003;4.6312822266e+003;4.6605126953e+003;4.6857690430e+003;
9.8437500000e-001;4.3934614258e+003;4.4717949219e+003;4.4947436523e+003;4.4892309570e+003;4.4691025391e+003;4.4958974609e+003;4.4852563477e+003;4.4883334961e+003;4.4758974609e+003;4.4442309570e+003;4.4971796875e+003;4.4506411133e+003;4.4735898438e+003;4.5041025391e+003;
9.9218750000e-001;4.3753847656e+003;4.4464101563e+003;4.4738461914e+003;4.4664101563e+003;4.4461538086e+003;4.4744873047e+003;4.4653847656e+003;4.4698715820e+003;4.4533334961e+003;4.4198715820e+003;4.4744873047e+003;4.4298715820e+003;4.4521796875e+003;4.4812822266e+003;
1.0000000000e+000;4.3171796875e+003;4.3665385742e+003;4.3996152344e+003;4.3958974609e+003;4.3694873047e+003;4.4030771484e+003;4.3984614258e+003;4.4079487305e+003;4.3807690430e+003;4.3441025391e+003;4.3973076172e+003;4.3593588867e+003;4.3801284180e+003;4.4089741211e+003;
1.0078125000e+000;4.3258974609e+003;4.3716665039e+003;4.4012822266e+003;4.4003847656e+003;4.3734614258e+003;4.4032050781e+003;4.4006411133e+003;4.4128203125e+003;4.3871796875e+003;4.3497436523e+003;4.4011538086e+003;4.3614101563e+003;4.3837177734e+003;4.4141025391e+003;
1.0156250000e+000;4.3024360352e+003;4.3423076172e+003;4.3710258789e+003;4.3757690430e+003;4.3458974609e+003;4.3770512695e+003;4.3719228516e+003;4.3898715820e+003;4.3688461914e+003;4.3283334961e+003;4.3723076172e+003;4.3311538086e+003;4.3547436523e+003;4.3870512695e+003;
1.0234375000e+000;4.2538461914e+003;4.2888461914e+003;4.3211538086e+003;4.3301284180e+003;4.2965385742e+003;4.3348715820e+003;4.3269228516e+003;4.3415385742e+003;4.3201284180e+003;4.2774360352e+003;4.3176923828e+003;4.2793588867e+003;4.3029487305e+003;4.3337177734e+003;
1.0312500000e+000;4.2282050781e+003;4.2521796875e+003;4.2833334961e+003;4.3002563477e+003;4.2656411133e+003;4.3126923828e+003;4.3024360352e+003;4.3069228516e+003;4.2832050781e+003;4.2398715820e+003;4.2741025391e+003;4.2393588867e+003;4.2633334961e+003;4.2905126953e+003;
1.0390625000e+000;4.2307690430e+003;4.2512822266e+003;4.2807690430e+003;4.2985898438e+003;4.2643588867e+003;4.3128203125e+003;4.3000000000e+003;4.3055126953e+003;4.2839741211e+003;4.2403847656e+003;4.2750000000e+003;4.2384614258e+003;4.2600000000e+003;4.2901284180e+003;
1.0468750000e+000;4.2115385742e+003;4.2212822266e+003;4.2492309570e+003;4.2725639648e+003;4.2400000000e+003;4.2914101563e+003;4.2698715820e+003;4.2697436523e+003;4.2569228516e+003;4.2076923828e+003;4.2458974609e+003;4.2065385742e+003;4.2274360352e+003;4.2579487305e+003;
1.0546875000e+000;4.2247436523e+003;4.2300000000e+003;4.2566665039e+003;4.2816665039e+003;4.2525639648e+003;4.3012822266e+003;4.2778203125e+003;4.2735898438e+003;4.2653847656e+003;4.2142309570e+003;4.2525639648e+003;4.2129487305e+003;4.2362822266e+003;4.2624360352e+003;
1.0625000000e+000;4.2432050781e+003;4.2446152344e+003;4.2715385742e+003;4.2956411133e+003;4.2691025391e+003;4.3148715820e+003;4.2916665039e+003;4.2853847656e+003;4.2802563477e+003;4.2292309570e+003;4.2664101563e+003;4.2283334961e+003;4.2520512695e+003;4.2739741211e+003;
1.0703125000e+000;4.2439741211e+003;4.2407690430e+003;4.2711538086e+003;4.2920512695e+003;4.2650000000e+003;4.3108974609e+003;4.2892309570e+003;4.2810258789e+003;4.2767949219e+003;4.2271796875e+003;4.2641025391e+003;4.2291025391e+003;4.2501284180e+003;4.2702563477e+003;
1.0781250000e+000;4.1996152344e+003;4.1765385742e+003;4.2174360352e+003;4.2371796875e+003;4.2039741211e+003;4.2537177734e+003;4.2284614258e+003;4.2107690430e+003;4.2041025391e+003;4.1650000000e+003;4.2083334961e+003;4.1742309570e+003;4.1906411133e+003;4.2171796875e+003;
1.0859375000e+000;4.1173076172e+003;4.0770512695e+003;4.1187177734e+003;4.1441025391e+003;4.0917949219e+003;4.1412822266e+003;4.1242309570e+003;4.1042309570e+003;4.0980771484e+003;4.0524357910e+003;4.1078203125e+003;4.0783332520e+003;4.0889743652e+003;4.1161538086e+003;
1.0937500000e+000;4.1505126953e+003;4.1062822266e+003;4.1469228516e+003;4.1692309570e+003;4.1182050781e+003;4.1628203125e+003;4.1476923828e+003;4.1316665039e+003;4.1237177734e+003;4.0821794434e+003;4.1391025391e+003;4.1087177734e+003;4.1206411133e+003;4.1475639648e+003;
1.1015625000e+000;4.1157690430e+003;4.0594870605e+003;4.1061538086e+003;4.1252563477e+003;4.0716667480e+003;4.1178203125e+003;4.1010258789e+003;4.0957692871e+003;4.0791025391e+003;4.0412819824e+003;4.1005126953e+003;4.0716667480e+003;4.0791025391e+003;4.1117949219e+003;
1.1093750000e+000;4.0638461914e+003;4.0007692871e+003;4.0503845215e+003;4.0715385742e+003;4.0128205566e+003;4.0625642090e+003;4.0470512695e+003;4.0439743652e+003;4.0221794434e+003;3.9793588867e+003;4.0433332520e+003;4.0160256348e+003;4.0208974609e+003;4.0562819824e+003;
1.1171875000e+000;4.0219230957e+003;3.9435898438e+003;3.9935898438e+003;4.0233332520e+003;3.9524357910e+003;4.0065385742e+003;3.9967949219e+003;4.0051281738e+003;3.9776923828e+003;3.9202563477e+003;3.9885898438e+003;3.9638461914e+003;3.9670512695e+003;3.9994870605e+003;
1.1250000000e+000;4.0035898438e+003;3.9205129395e+003;3.9712819824e+003;4.0029487305e+003;3.9319230957e+003;3.9894870605e+003;3.9782050781e+003;3.9871794434e+003;3.9615385742e+003;3.9023076172e+003;3.9687180176e+003;3.9434614258e+003;3.9450000000e+003;3.9767949219e+003;
1.1328125000e+000;4.0064101563e+003;3.9143588867e+003;3.9585898438e+003;3.9964101563e+003;3.9343588867e+003;3.9912819824e+003;3.9733332520e+003;3.9805129395e+003;3.9573076172e+003;3.8976923828e+003;3.9594870605e+003;3.9273076172e+003;3.9361538086e+003;3.9661538086e+003;
1.1406250000e+000;3.9382050781e+003;3.8376923828e+003;3.8806411133e+003;3.9292307129e+003;3.8546154785e+003;3.9226923828e+003;3.9042307129e+003;3.9042307129e+003;3.8876923828e+003;3.8229487305e+003;3.8741025391e+003;3.8460256348e+003;3.8639743652e+003;3.8914101563e+003;
1.1484375000e+000;3.9392307129e+003;3.8366667480e+003;3.8762819824e+003;3.9252563477e+003;3.8521794434e+003;3.9217949219e+003;3.9066667480e+003;3.8989743652e+003;3.8874357910e+003;3.8210256348e+003;3.8710256348e+003;3.8419230957e+003;3.8610256348e+003;3.8871794434e+003;
1.1562500000e+000;3.9694870605e+003;3.8647436523e+003;3.9005129395e+003;3.9473076172e+003;3.8801281738e+003;3.9475642090e+003;3.9339743652e+003;3.9243588867e+003;3.9166667480e+003;3.8503845215e+003;3.8993588867e+003;3.8684614258e+003;3.8870512695e+003;3.9123076172e+003;
1.1640625000e+000;3.9932050781e+003;3.8801281738e+003;3.9178205566e+003;3.9616667480e+003;3.8997436523e+003;3.9652563477e+003;3.9450000000e+003;3.9435898438e+003;3.9366667480e+003;3.8726923828e+003;3.9223076172e+003;3.8912819824e+003;3.9037180176e+003;3.9314101563e+003;
1.1718750000e+000;3.9851281738e+003;3.8620512695e+003;3.9066667480e+003;3.9506411133e+003;3.8806411133e+003;3.9447436523e+003;3.9215385742e+003;3.9073076172e+003;3.9048718262e+003;3.8466667480e+003;3.9038461914e+003;3.8742307129e+003;3.8883332520e+003;3.9157692871e+003;
1.1796875000e+000;3.9929487305e+003;3.8679487305e+003;3.9121794434e+003;3.9548718262e+003;3.8844870605e+003;3.9462819824e+003;3.9238461914e+003;3.9073076172e+003;3.9048718262e+003;3.8521794434e+003;3.9082050781e+003;3.8805129395e+003;3.8939743652e+003;3.9220512695e+003;
1.1875000000e+000;3.9839743652e+003;3.8547436523e+003;3.8993588867e+003;3.9420512695e+003;3.8708974609e+003;3.9321794434e+003;3.9088461914e+003;3.8926923828e+003;3.8878205566e+003;3.8397436523e+003;3.8957692871e+003;3.8706411133e+003;3.8815385742e+003;3.9111538086e+003;
1.1953125000e+000;3.9741025391e+003;3.8388461914e+003;3.8847436523e+003;3.9282050781e+003;3.8562819824e+003;3.9171794434e+003;3.8923076172e+003;3.8770512695e+003;3.8692307129e+003;3.8235898438e+003;3.8828205566e+003;3.8588461914e+003;3.8675642090e+003;3.8978205566e+003;
1.2031250000e+000;4.0008974609e+003;3.8600000000e+003;3.9147436523e+003;3.9510256348e+003;3.8685898438e+003;3.9211538086e+003;3.8996154785e+003;3.8897436523e+003;3.8800000000e+003;3.8365385742e+003;3.9050000000e+003;3.8862819824e+003;3.8866667480e+003;3.9155129395e+003;
1.2109375000e+000;3.9653845215e+003;3.8235898438e+003;3.8793588867e+003;3.9157692871e+003;3.8279487305e+003;3.8816667480e+003;3.8629487305e+003;3.8533332520e+003;3.8408974609e+003;3.7956411133e+003;3.8642307129e+003;3.8496154785e+003;3.8467949219e+003;3.8778205566e+003;
1.2187500000e+000;3.9683332520e+003;3.8115385742e+003;3.8661538086e+003;3.9038461914e+003;3.8165385742e+003;3.8652563477e+003;3.8535898438e+003;3.8587180176e+003;3.8423076172e+003;3.7902563477e+003;3.8594870605e+003;3.8432050781e+003;3.8393588867e+003;3.8755129395e+003;
1.2265625000e+000;3.8917949219e+003;3.7267949219e+003;3.7829487305e+003;3.8321794434e+003;3.7378205566e+003;3.7965385742e+003;3.7884614258e+003;3.7858974609e+003;3.7680769043e+003;3.7142307129e+003;3.7776923828e+003;3.7667949219e+003;3.7621794434e+003;3.7970512695e+003;
1.2343750000e+000;3.8965385742e+003;3.7332050781e+003;3.7856411133e+003;3.8374357910e+003;3.7464101563e+003;3.8032050781e+003;3.7975642090e+003;3.7891025391e+003;3.7707692871e+003;3.7182050781e+003;3.7805129395e+003;3.7676923828e+003;3.7664101563e+003;3.7974357910e+003;
1.2421875000e+000;3.8842307129e+003;3.7193588867e+003;3.7674357910e+003;3.8235898438e+003;3.7420512695e+003;3.8030769043e+003;3.7893588867e+003;3.7821794434e+003;3.7664101563e+003;3.7082050781e+003;3.7653845215e+003;3.7483332520e+003;3.7489743652e+003;3.7788461914e+003;
1.2500000000e+000;3.8774357910e+003;3.7076923828e+003;3.7533332520e+003;3.8124357910e+003;3.7326923828e+003;3.7962819824e+003;3.7788461914e+003;3.7715385742e+003;3.7584614258e+003;3.6983332520e+003;3.7526923828e+003;3.7348718262e+003;3.7382050781e+003;3.7688461914e+003;
1.2578125000e+000;3.8611538086e+003;3.6823076172e+003;3.7234614258e+003;3.7842307129e+003;3.7044870605e+003;3.7735898438e+003;3.7515385742e+003;3.7365385742e+003;3.7311538086e+003;3.6794870605e+003;3.7261538086e+003;3.7066667480e+003;3.7176923828e+003;3.7466667480e+003;
1.2656250000e+000;3.8966667480e+003;3.7185898438e+003;3.7614101563e+003;3.8224357910e+003;3.7426923828e+003;3.8084614258e+003;3.7847436523e+003;3.7571794434e+003;3.7539743652e+003;3.7067949219e+003;3.7546154785e+003;3.7369230957e+003;3.7503845215e+003;3.7770512695e+003;
1.2734375000e+000;3.9451281738e+003;3.7641025391e+003;3.8055129395e+003;3.8657692871e+003;3.7874357910e+003;3.8470512695e+003;3.8229487305e+003;3.8006411133e+003;3.7988461914e+003;3.7537180176e+003;3.8008974609e+003;3.7832050781e+003;3.7958974609e+003;3.8219230957e+003;
1.2812500000e+000;3.9515385742e+003;3.7657692871e+003;3.8085898438e+003;3.8667949219e+003;3.7869230957e+003;3.8447436523e+003;3.8200000000e+003;3.8023076172e+003;3.8019230957e+003;3.7578205566e+003;3.8057692871e+003;3.7891025391e+003;3.7988461914e+003;3.8261538086e+003;
1.2890625000e+000;3.8788461914e+003;3.6856411133e+003;3.7348718262e+003;3.7893588867e+003;3.7026923828e+003;3.7635898438e+003;3.7406411133e+003;3.7170512695e+003;3.7184614258e+003;3.6733332520e+003;3.7279487305e+003;3.7134614258e+003;3.7189743652e+003;3.7511538086e+003;
1.2968750000e+000;3.8934614258e+003;3.7014101563e+003;3.7458974609e+003;3.8050000000e+003;3.7101281738e+003;3.7657692871e+003;3.7455129395e+003;3.7230769043e+003;3.7258974609e+003;3.6811538086e+003;3.7391025391e+003;3.7211538086e+003;3.7256411133e+003;3.7573076172e+003;
1.3046875000e+000;3.8970512695e+003;3.7041025391e+003;3.7464101563e+003;3.8066667480e+003;3.7103845215e+003;3.7656411133e+003;3.7453845215e+003;3.7258974609e+003;3.7284614258e+003;3.6825642090e+003;3.7412819824e+003;3.7232050781e+003;3.7270512695e+003;3.7574357910e+003;
1.3125000000e+000;3.9107692871e+003;3.7166667480e+003;3.7567949219e+003;3.8165385742e+003;3.7225642090e+003;3.7750000000e+003;3.7567949219e+003;3.7393588867e+003;3.7397436523e+003;3.6941025391e+003;3.7533332520e+003;3.7356411133e+003;3.7407692871e+003;3.7694870605e+003;
1.3203125000e+000;3.9430769043e+003;3.7487180176e+003;3.7873076172e+003;3.8447436523e+003;3.7561538086e+003;3.8024357910e+003;3.7887180176e+003;3.7746154785e+003;3.7701281738e+003;3.7279487305e+003;3.7860256348e+003;3.7692307129e+003;3.7756411133e+003;3.8029487305e+003;
1.3281250000e+000;3.9307692871e+003;3.7369230957e+003;3.7832050781e+003;3.8362819824e+003;3.7529487305e+003;3.7997436523e+003;3.7908974609e+003;3.7871794434e+003;3.7676923828e+003;3.7320512695e+003;3.7816667480e+003;3.7683332520e+003;3.7693588867e+003;3.7933332520e+003;
1.3359375000e+000;3.9356411133e+003;3.7446154785e+003;3.7869230957e+003;3.8406411133e+003;3.7614101563e+003;3.8073076172e+003;3.7983332520e+003;3.7946154785e+003;3.7794870605e+003;3.7375642090e+003;3.7838461914e+003;3.7698718262e+003;3.7741025391e+003;3.7958974609e+003;
1.3437500000e+000;3.9243588867e+003;3.7382050781e+003;3.7734614258e+003;3.8320512695e+003;3.7596154785e+003;3.8044870605e+003;3.7948718262e+003;3.7965385742e+003;3.7873076172e+003;3.7362819824e+003;3.7703845215e+003;3.7578205566e+003;3.7639743652e+003;3.7883332520e+003;
1.3515625000e+000;3.9928205566e+003;3.8017949219e+003;3.8274357910e+003;3.8925642090e+003;3.8247436523e+003;3.8680769043e+003;3.8567949219e+003;3.8441025391e+003;3.8391025391e+003;3.7879487305e+003;3.8320512695e+003;3.8133332520e+003;3.8255129395e+003;3.8423076172e+003;
1.3593750000e+000;4.0383332520e+003;3.8501281738e+003;3.8738461914e+003;3.9376923828e+003;3.8708974609e+003;3.9151281738e+003;3.9012819824e+003;3.8898718262e+003;3.8889743652e+003;3.8374357910e+003;3.8791025391e+003;3.8589743652e+003;3.8755129395e+003;3.8888461914e+003;
1.3671875000e+000;4.0441025391e+003;3.8633332520e+003;3.8891025391e+003;3.9493588867e+003;3.8834614258e+003;3.9279487305e+003;3.9112819824e+003;3.8966667480e+003;3.9028205566e+003;3.8546154785e+003;3.8893588867e+003;3.8680769043e+003;3.8856411133e+003;3.8984614258e+003;
1.3750000000e+000;4.0324357910e+003;3.8530769043e+003;3.8770512695e+003;3.9371794434e+003;3.8730769043e+003;3.9137180176e+003;3.8979487305e+003;3.8816667480e+003;3.8870512695e+003;3.8423076172e+003;3.8780769043e+003;3.8571794434e+003;3.8717949219e+003;3.8860256348e+003;
1.3828125000e+000;3.9483332520e+003;3.7662819824e+003;3.7942307129e+003;3.8539743652e+003;3.7844870605e+003;3.8256411133e+003;3.8101281738e+003;3.7912819824e+003;3.7898718262e+003;3.7470512695e+003;3.7897436523e+003;3.7785898438e+003;3.7864101563e+003;3.8020512695e+003;
1.3906250000e+000;3.9688461914e+003;3.7911538086e+003;3.8241025391e+003;3.8723076172e+003;3.7994870605e+003;3.8383332520e+003;3.8215385742e+003;3.8152563477e+003;3.8141025391e+003;3.7793588867e+003;3.8189743652e+003;3.8101281738e+003;3.8201281738e+003;3.8384614258e+003;
1.3984375000e+000;3.9143588867e+003;3.7332050781e+003;3.7702563477e+003;3.8193588867e+003;3.7408974609e+003;3.7842307129e+003;3.7664101563e+003;3.7602563477e+003;3.7578205566e+003;3.7235898438e+003;3.7639743652e+003;3.7594870605e+003;3.7643588867e+003;3.7855129395e+003;
1.4062500000e+000;3.8369230957e+003;3.6370512695e+003;3.6803845215e+003;3.7335898438e+003;3.6507692871e+003;3.6961538086e+003;3.6846154785e+003;3.6683332520e+003;3.6610256348e+003;3.6212819824e+003;3.6716667480e+003;3.6725642090e+003;3.6720512695e+003;3.6917949219e+003;
1.4140625000e+000;3.8370512695e+003;3.6346154785e+003;3.6789743652e+003;3.7315385742e+003;3.6497436523e+003;3.6948718262e+003;3.6829487305e+003;3.6707692871e+003;3.6625642090e+003;3.6229487305e+003;3.6715385742e+003;3.6714101563e+003;3.6702563477e+003;3.6911538086e+003;
1.4218750000e+000;3.7708974609e+003;3.5642307129e+003;3.6124357910e+003;3.6675642090e+003;3.5793588867e+003;3.6321794434e+003;3.6175642090e+003;3.6111538086e+003;3.6010256348e+003;3.5580769043e+003;3.6019230957e+003;3.6032050781e+003;3.5966667480e+003;3.6225642090e+003;
1.4296875000e+000;3.7583332520e+003;3.5489743652e+003;3.5964101563e+003;3.6535898438e+003;3.5624357910e+003;3.6165385742e+003;3.6043588867e+003;3.5980769043e+003;3.5880769043e+003;3.5412819824e+003;3.5846154785e+003;3.5861538086e+003;3.5793588867e+003;3.6048718262e+003;
1.4375000000e+000;3.7757692871e+003;3.5641025391e+003;3.6091025391e+003;3.6670512695e+003;3.5752563477e+003;3.6276923828e+003;3.6191025391e+003;3.6151281738e+003;3.6058974609e+003;3.5553845215e+003;3.5985898438e+003;3.5993588867e+003;3.5941025391e+003;3.6176923828e+003;
1.4453125000e+000;3.7953845215e+003;3.5816667480e+003;3.6248718262e+003;3.6828205566e+003;3.5912819824e+003;3.6423076172e+003;3.6356411133e+003;3.6364101563e+003;3.6276923828e+003;3.5739743652e+003;3.6170512695e+003;3.6173076172e+003;3.6126923828e+003;3.6350000000e+003;
1.4531250000e+000;3.7965385742e+003;3.5819230957e+003;3.6207692871e+003;3.6810256348e+003;3.5960256348e+003;3.6493588867e+003;3.6408974609e+003;3.6362819824e+003;3.6275642090e+003;3.5661538086e+003;3.6101281738e+003;3.6129487305e+003;3.6071794434e+003;3.6320512695e+003;
1.4609375000e+000;3.8143588867e+003;3.5997436523e+003;3.6383332520e+003;3.6965385742e+003;3.6151281738e+003;3.6683332520e+003;3.6593588867e+003;3.6525642090e+003;3.6460256348e+003;3.5843588867e+003;3.6251281738e+003;3.6285898438e+003;3.6257692871e+003;3.6478205566e+003;
1.4687500000e+000;3.8110256348e+003;3.5930769043e+003;3.6274357910e+003;3.6910256348e+003;3.6091025391e+003;3.6673076172e+003;3.6558974609e+003;3.6376923828e+003;3.6341025391e+003;3.5764101563e+003;3.6143588867e+003;3.6156411133e+003;3.6194870605e+003;3.6389743652e+003;
1.4765625000e+000;3.7989743652e+003;3.5789743652e+003;3.6153845215e+003;3.6779487305e+003;3.5984614258e+003;3.6521794434e+003;3.6397436523e+003;3.6197436523e+003;3.6175642090e+003;3.5643588867e+003;3.6000000000e+003;3.5996154785e+003;3.5989743652e+003;3.6276923828e+003;
1.4843750000e+000;3.7762819824e+003;3.5552563477e+003;3.5944870605e+003;3.6532050781e+003;3.5734614258e+003;3.6273076172e+003;3.6153845215e+003;3.5938461914e+003;3.5919230957e+003;3.5364101563e+003;3.5739743652e+003;3.5767949219e+003;3.5758974609e+003;3.6037180176e+003;
1.4921875000e+000;3.8406411133e+003;3.6164101563e+003;3.6526923828e+003;3.7042307129e+003;3.6274357910e+003;3.6723076172e+003;3.6652563477e+003;3.6406411133e+003;3.6396154785e+003;3.5920512695e+003;3.6401281738e+003;3.6450000000e+003;3.6383332520e+003;3.6653845215e+003;
1.5000000000e+000;3.8416667480e+003;3.6156411133e+003;3.6538461914e+003;3.7028205566e+003;3.6257692871e+003;3.6707692871e+003;3.6624357910e+003;3.6380769043e+003;3.6358974609e+003;3.5946154785e+003;3.6425642090e+003;3.6478205566e+003;3.6378205566e+003;3.6670512695e+003;
1.5078125000e+000;3.8611538086e+003;3.6382050781e+003;3.6780769043e+003;3.7233332520e+003;3.6505129395e+003;3.6835898438e+003;3.6747436523e+003;3.6484614258e+003;3.6430769043e+003;3.6147436523e+003;3.6585898438e+003;3.6612819824e+003;3.6634614258e+003;3.6882050781e+003;
1.5156250000e+000;3.8171794434e+003;3.5987180176e+003;3.6391025391e+003;3.6851281738e+003;3.6093588867e+003;3.6457692871e+003;3.6394870605e+003;3.6228205566e+003;3.6165385742e+003;3.5865385742e+003;3.6308974609e+003;3.6332050781e+003;3.6266667480e+003;3.6557692871e+003;
1.5234375000e+000;3.7770512695e+003;3.5591025391e+003;3.5982050781e+003;3.6450000000e+003;3.5703845215e+003;3.6106411133e+003;3.6057692871e+003;3.5879487305e+003;3.5803845215e+003;3.5465385742e+003;3.5912819824e+003;3.5948718262e+003;3.5847436523e+003;3.6157692871e+003;
1.5312500000e+000;3.7682050781e+003;3.5514101563e+003;3.5869230957e+003;3.6351281738e+003;3.5628205566e+003;3.6032050781e+003;3.5993588867e+003;3.5830769043e+003;3.5733332520e+003;3.5379487305e+003;3.5800000000e+003;3.5851281738e+003;3.5748718262e+003;3.6057692871e+003;
1.5390625000e+000;3.7728205566e+003;3.5553845215e+003;3.5882050781e+003;3.6406411133e+003;3.5637180176e+003;3.6042307129e+003;3.6006411133e+003;3.5947436523e+003;3.5793588867e+003;3.5447436523e+003;3.5794870605e+003;3.5878205566e+003;3.5776923828e+003;3.6087180176e+003;
1.5468750000e+000;3.7401281738e+003;3.5170512695e+003;3.5507692871e+003;3.6085898438e+003;3.5264101563e+003;3.5700000000e+003;3.5673076172e+003;3.5611538086e+003;3.5457692871e+003;3.5023076172e+003;3.5407692871e+003;3.5441025391e+003;3.5352563477e+003;3.5693588867e+003;
1.5546875000e+000;3.7476923828e+003;3.5274357910e+003;3.5571794434e+003;3.6155129395e+003;3.5373076172e+003;3.5796154785e+003;3.5744870605e+003;3.5692307129e+003;3.5561538086e+003;3.5128205566e+003;3.5466667480e+003;3.5498718262e+003;3.5448718262e+003;3.5756411133e+003;
1.5625000000e+000;3.7410256348e+003;3.5237180176e+003;3.5503845215e+003;3.6100000000e+003;3.5338461914e+003;3.5771794434e+003;3.5680769043e+003;3.5625642090e+003;3.5523076172e+003;3.5101281738e+003;3.5376923828e+003;3.5426923828e+003;3.5407692871e+003;3.5680769043e+003;
1.5703125000e+000;3.7244870605e+003;3.5091025391e+003;3.5341025391e+003;3.5957692871e+003;3.5200000000e+003;3.5652563477e+003;3.5533332520e+003;3.5437180176e+003;3.5367949219e+003;3.4946154785e+003;3.5188461914e+003;3.5252563477e+003;3.5252563477e+003;3.5505129395e+003;
1.5781250000e+000;3.7811538086e+003;3.5647436523e+003;3.5847436523e+003;3.6487180176e+003;3.5785898438e+003;3.6188461914e+003;3.6106411133e+003;3.5887180176e+003;3.5878205566e+003;3.5517949219e+003;3.5776923828e+003;3.5825642090e+003;3.5779487305e+003;3.6056411133e+003;
1.5859375000e+000;3.7561538086e+003;3.5385898438e+003;3.5575642090e+003;3.6237180176e+003;3.5526923828e+003;3.5938461914e+003;3.5852563477e+003;3.5603845215e+003;3.5585898438e+003;3.5274357910e+003;3.5506411133e+003;3.5574357910e+003;3.5526923828e+003;3.5792307129e+003;
1.5937500000e+000;3.7712819824e+003;3.5538461914e+003;3.5685898438e+003;3.6352563477e+003;3.5661538086e+003;3.5937180176e+003;3.5910256348e+003;3.5584614258e+003;3.5597436523e+003;3.5328205566e+003;3.5560256348e+003;3.5588461914e+003;3.5655129395e+003;3.5857692871e+003;
1.6015625000e+000;3.7188461914e+003;3.5014101563e+003;3.5307692871e+003;3.5908974609e+003;3.5151281738e+003;3.5482050781e+003;3.5414101563e+003;3.5124357910e+003;3.5124357910e+003;3.4843588867e+003;3.5111538086e+003;3.5207692871e+003;3.5160256348e+003;3.5432050781e+003;
1.6093750000e+000;3.7191025391e+003;3.4991025391e+003;3.5300000000e+003;3.5871794434e+003;3.5137180176e+003;3.5479487305e+003;3.5397436523e+003;3.5091025391e+003;3.5106411133e+003;3.4846154785e+003;3.5091025391e+003;3.5211538086e+003;3.5156411133e+003;3.5441025391e+003;
1.6171875000e+000;3.7389743652e+003;3.5051281738e+003;3.5428205566e+003;3.5960256348e+003;3.5238461914e+003;3.5597436523e+003;3.5532050781e+003;3.5347436523e+003;3.5402563477e+003;3.5114101563e+003;3.5242307129e+003;3.5421794434e+003;3.5306411133e+003;3.5597436523e+003;
1.6250000000e+000;3.7382050781e+003;3.5021794434e+003;3.5425642090e+003;3.5974357910e+003;3.5216667480e+003;3.5587180176e+003;3.5557692871e+003;3.5407692871e+003;3.5452563477e+003;3.5117949219e+003;3.5266667480e+003;3.5439743652e+003;3.5307692871e+003;3.5574357910e+003;
1.6328125000e+000;3.8508974609e+003;3.6230769043e+003;3.6658974609e+003;3.7070512695e+003;3.6388461914e+003;3.6644870605e+003;3.6758974609e+003;3.6748718262e+003;3.6734614258e+003;3.6430769043e+003;3.6598718262e+003;3.6700000000e+003;3.6607692871e+003;3.6806411133e+003;
1.6406250000e+000;3.8532050781e+003;3.6271794434e+003;3.6721794434e+003;3.7067949219e+003;3.6430769043e+003;3.6682050781e+003;3.6815385742e+003;3.6826923828e+003;3.6766667480e+003;3.6483332520e+003;3.6637180176e+003;3.6760256348e+003;3.6642307129e+003;3.6865385742e+003;
1.6484375000e+000;3.8473076172e+003;3.6201281738e+003;3.6648718262e+003;3.6969230957e+003;3.6387180176e+003;3.6657692871e+003;3.6820512695e+003;3.6766667480e+003;3.6651281738e+003;3.6344870605e+003;3.6508974609e+003;3.6657692871e+003;3.6523076172e+003;3.6764101563e+003;
1.6562500000e+000;3.8579487305e+003;3.6306411133e+003;3.6730769043e+003;3.7073076172e+003;3.6502563477e+003;3.6775642090e+003;3.6934614258e+003;3.6862819824e+003;3.6752563477e+003;3.6443588867e+003;3.6606411133e+003;3.6733332520e+003;3.6630769043e+003;3.6851281738e+003;
1.6640625000e+000;3.8507692871e+003;3.6244870605e+003;3.6651281738e+003;3.7020512695e+003;3.6443588867e+003;3.6734614258e+003;3.6862819824e+003;3.6796154785e+003;3.6694870605e+003;3.6397436523e+003;3.6551281738e+003;3.6650000000e+003;3.6588461914e+003;3.6785898438e+003;
1.6718750000e+000;3.8191025391e+003;3.5944870605e+003;3.6342307129e+003;3.6733332520e+003;3.6143588867e+003;3.6470512695e+003;3.6555129395e+003;3.6478205566e+003;3.6376923828e+003;3.6098718262e+003;3.6241025391e+003;3.6321794434e+003;3.6296154785e+003;3.6475642090e+003;
1.6796875000e+000;3.8470512695e+003;3.6342307129e+003;3.6650000000e+003;3.7057692871e+003;3.6580769043e+003;3.6910256348e+003;3.6916667480e+003;3.6685898438e+003;3.6669230957e+003;3.6428205566e+003;3.6469230957e+003;3.6557692871e+003;3.6573076172e+003;3.6679487305e+003;
1.6875000000e+000;3.8407692871e+003;3.6355129395e+003;3.6574357910e+003;3.7012819824e+003;3.6557692871e+003;3.6837180176e+003;3.6839743652e+003;3.6565385742e+003;3.6646154785e+003;3.6435898438e+003;3.6484614258e+003;3.6484614258e+003;3.6560256348e+003;3.6738461914e+003;
1.6953125000e+000;3.8425642090e+003;3.6392307129e+003;3.6593588867e+003;3.7026923828e+003;3.6574357910e+003;3.6834614258e+003;3.6821794434e+003;3.6576923828e+003;3.6657692871e+003;3.6469230957e+003;3.6493588867e+003;3.6508974609e+003;3.6567949219e+003;3.6750000000e+003;
1.7031250000e+000;3.8124357910e+003;3.6058974609e+003;3.6326923828e+003;3.6748718262e+003;3.6228205566e+003;3.6505129395e+003;3.6470512695e+003;3.6198718262e+003;3.6292307129e+003;3.6105129395e+003;3.6133332520e+003;3.6256411133e+003;3.6194870605e+003;3.6397436523e+003;
1.7109375000e+000;3.8216667480e+003;3.6107692871e+003;3.6414101563e+003;3.6815385742e+003;3.6274357910e+003;3.6511538086e+003;3.6501281738e+003;3.6197436523e+003;3.6308974609e+003;3.6133332520e+003;3.6196154785e+003;3.6344870605e+003;3.6264101563e+003;3.6466667480e+003;
1.7187500000e+000;3.8465385742e+003;3.6270512695e+003;3.6656411133e+003;3.6928205566e+003;3.6348718262e+003;3.6469230957e+003;3.6501281738e+003;3.6330769043e+003;3.6452563477e+003;3.6337180176e+003;3.6506411133e+003;3.6608974609e+003;3.6593588867e+003;3.6797436523e+003;
1.7265625000e+000;3.8261538086e+003;3.6062819824e+003;3.6478205566e+003;3.6707692871e+003;3.6070512695e+003;3.6194870605e+003;3.6291025391e+003;3.6270512695e+003;3.6261538086e+003;3.6101281738e+003;3.6328205566e+003;3.6438461914e+003;3.6397436523e+003;3.6564101563e+003;
1.7343750000e+000;3.8307692871e+003;3.6129487305e+003;3.6533332520e+003;3.6773076172e+003;3.6129487305e+003;3.6237180176e+003;3.6371794434e+003;3.6402563477e+003;3.6364101563e+003;3.6201281738e+003;3.6389743652e+003;3.6516667480e+003;3.6439743652e+003;3.6607692871e+003;
1.7421875000e+000;3.8051281738e+003;3.5871794434e+003;3.6284614258e+003;3.6548718262e+003;3.5876923828e+003;3.6001281738e+003;3.6161538086e+003;3.6210256348e+003;3.6151281738e+003;3.5971794434e+003;3.6128205566e+003;3.6283332520e+003;3.6162819824e+003;3.6353845215e+003;
1.7500000000e+000;3.7507692871e+003;3.5296154785e+003;3.5715385742e+003;3.6035898438e+003;3.5320512695e+003;3.5503845215e+003;3.5691025391e+003;3.5642307129e+003;3.5548718262e+003;3.5321794434e+003;3.5497436523e+003;3.5685898438e+003;3.5529487305e+003;3.5779487305e+003;
1.7578125000e+000;3.7680769043e+003;3.5485898438e+003;3.5869230957e+003;3.6202563477e+003;3.5502563477e+003;3.5694870605e+003;3.5882050781e+003;3.5787180176e+003;3.5678205566e+003;3.5452563477e+003;3.5638461914e+003;3.5823076172e+003;3.5676923828e+003;3.5932050781e+003;
1.7656250000e+000;3.7888461914e+003;3.5724357910e+003;3.6071794434e+003;3.6417949219e+003;3.5726923828e+003;3.5944870605e+003;3.6116667480e+003;3.6003845215e+003;3.5893588867e+003;3.5675642090e+003;3.5842307129e+003;3.6024357910e+003;3.5884614258e+003;3.6130769043e+003;
1.7734375000e+000;3.7470512695e+003;3.5344870605e+003;3.5629487305e+003;3.6080769043e+003;3.5453845215e+003;3.5789743652e+003;3.5832050781e+003;3.5612819824e+003;3.5570512695e+003;3.5257692871e+003;3.5383332520e+003;3.5543588867e+003;3.5433332520e+003;3.5697436523e+003;
1.7812500000e+000;3.7520512695e+003;3.5414101563e+003;3.5711538086e+003;3.6162819824e+003;3.5565385742e+003;3.5885898438e+003;3.5894870605e+003;3.5676923828e+003;3.5642307129e+003;3.5332050781e+003;3.5458974609e+003;3.5612819824e+003;3.5508974609e+003;3.5766667480e+003;
1.7890625000e+000;3.7361538086e+003;3.5292307129e+003;3.5528205566e+003;3.6056411133e+003;3.5546154785e+003;3.5848718262e+003;3.5792307129e+003;3.5471794434e+003;3.5521794434e+003;3.5198718262e+003;3.5287180176e+003;3.5410256348e+003;3.5415385742e+003;3.5521794434e+003;
1.7968750000e+000;3.7911538086e+003;3.5870512695e+003;3.6026923828e+003;3.6534614258e+003;3.6057692871e+003;3.6311538086e+003;3.6247436523e+003;3.5958974609e+003;3.5997436523e+003;3.5761538086e+003;3.5841025391e+003;3.5987180176e+003;3.5978205566e+003;3.6061538086e+003;
1.8046875000e+000;3.8219230957e+003;3.6180769043e+003;3.6343588867e+003;3.6810256348e+003;3.6343588867e+003;3.6535898438e+003;3.6525642090e+003;3.6228205566e+003;3.6271794434e+003;3.6058974609e+003;3.6160256348e+003;3.6298718262e+003;3.6297436523e+003;3.6367949219e+003;
1.8125000000e+000;3.8802563477e+003;3.6762819824e+003;3.6960256348e+003;3.7342307129e+003;3.6834614258e+003;3.6867949219e+003;3.6966667480e+003;3.6816667480e+003;3.6851281738e+003;3.6737180176e+003;3.6807692871e+003;3.6980769043e+003;3.6920512695e+003;3.6985898438e+003;
1.8203125000e+000;3.8648718262e+003;3.6594870605e+003;3.6858974609e+003;3.7189743652e+003;3.6550000000e+003;3.6671794434e+003;3.6776923828e+003;3.6676923828e+003;3.6569230957e+003;3.6458974609e+003;3.6635898438e+003;3.6896154785e+003;3.6696154785e+003;3.6843588867e+003;
1.8281250000e+000;3.8960256348e+003;3.6926923828e+003;3.7196154785e+003;3.7505129395e+003;3.6878205566e+003;3.6969230957e+003;3.7106411133e+003;3.7042307129e+003;3.6924357910e+003;3.6801281738e+003;3.7000000000e+003;3.7230769043e+003;3.7043588867e+003;3.7171794434e+003;
1.8359375000e+000;3.9032050781e+003;3.7024357910e+003;3.7305129395e+003;3.7598718262e+003;3.6993588867e+003;3.7053845215e+003;3.7226923828e+003;3.7200000000e+003;3.7082050781e+003;3.6944870605e+003;3.7134614258e+003;3.7341025391e+003;3.7161538086e+003;3.7273076172e+003;
1.8437500000e+000;3.8983332520e+003;3.7042307129e+003;3.7297436523e+003;3.7569230957e+003;3.7041025391e+003;3.7050000000e+003;3.7307692871e+003;3.7242307129e+003;3.7132050781e+003;3.6974357910e+003;3.7115385742e+003;3.7329487305e+003;3.7153845215e+003;3.7244870605e+003;
1.8515625000e+000;3.9456411133e+003;3.7560256348e+003;3.7770512695e+003;3.8016667480e+003;3.7547436523e+003;3.7514101563e+003;3.7812819824e+003;3.7721794434e+003;3.7617949219e+003;3.7458974609e+003;3.7583332520e+003;3.7801281738e+003;3.7642307129e+003;3.7711538086e+003;
1.8593750000e+000;4.0357692871e+003;3.8543588867e+003;3.8697436523e+003;3.8921794434e+003;3.8510256348e+003;3.8480769043e+003;3.8765385742e+003;3.8737180176e+003;3.8628205566e+003;3.8448718262e+003;3.8555129395e+003;3.8744870605e+003;3.8624357910e+003;3.8655129395e+003;
1.8671875000e+000;4.0134614258e+003;3.8352563477e+003;3.8500000000e+003;3.8767949219e+003;3.8348718262e+003;3.8383332520e+003;3.8621794434e+003;3.8602563477e+003;3.8493588867e+003;3.8278205566e+003;3.8376923828e+003;3.8546154785e+003;3.8442307129e+003;3.8458974609e+003;
1.8750000000e+000;3.9471794434e+003;3.7844870605e+003;3.7833332520e+003;3.8267949219e+003;3.7993588867e+003;3.8057692871e+003;3.8206411133e+003;3.8025642090e+003;3.8021794434e+003;3.7750000000e+003;3.7726923828e+003;3.7794870605e+003;3.7814101563e+003;3.7756411133e+003;
1.8828125000e+000;3.9547436523e+003;3.7971794434e+003;3.7915385742e+003;3.8365385742e+003;3.8139743652e+003;3.8189743652e+003;3.8312819824e+003;3.8117949219e+003;3.8135898438e+003;3.7882050781e+003;3.7806411133e+003;3.7861538086e+003;3.7903845215e+003;3.7837180176e+003;
1.8906250000e+000;3.9533332520e+003;3.7989743652e+003;3.7920512695e+003;3.8380769043e+003;3.8155129395e+003;3.8220512695e+003;3.8315385742e+003;3.8124357910e+003;3.8138461914e+003;3.7906411133e+003;3.7801281738e+003;3.7860256348e+003;3.7907692871e+003;3.7841025391e+003;
1.8984375000e+000;3.9393588867e+003;3.7933332520e+003;3.7817949219e+003;3.8293588867e+003;3.8074357910e+003;3.8187180176e+003;3.8188461914e+003;3.8046154785e+003;3.8096154785e+003;3.7914101563e+003;3.7710256348e+003;3.7748718262e+003;3.7903845215e+003;3.7784614258e+003;
1.9062500000e+000;3.9560256348e+003;3.8110256348e+003;3.7979487305e+003;3.8450000000e+003;3.8252563477e+003;3.8343588867e+003;3.8369230957e+003;3.8179487305e+003;3.8223076172e+003;3.8050000000e+003;3.7871794434e+003;3.7893588867e+003;3.8057692871e+003;3.7934614258e+003;
1.9140625000e+000;4.1473076172e+003;4.0087180176e+003;3.9928205566e+003;4.0288461914e+003;4.0130769043e+003;3.9952563477e+003;4.0092307129e+003;4.0007692871e+003;4.0048718262e+003;4.0012819824e+003;3.9887180176e+003;3.9867949219e+003;4.0052563477e+003;3.9965385742e+003;
1.9218750000e+000;4.1376923828e+003;4.0015385742e+003;3.9905129395e+003;4.0205129395e+003;3.9997436523e+003;3.9815385742e+003;3.9950000000e+003;3.9923076172e+003;3.9958974609e+003;3.9965385742e+003;3.9858974609e+003;3.9867949219e+003;4.0050000000e+003;3.9978205566e+003;
1.9296875000e+000;4.0915385742e+003;3.9583332520e+003;3.9546154785e+003;3.9764101563e+003;3.9500000000e+003;3.9312819824e+003;3.9479487305e+003;3.9485898438e+003;3.9444870605e+003;3.9496154785e+003;3.9487180176e+003;3.9551281738e+003;3.9730769043e+003;3.9632050781e+003;
1.9375000000e+000;4.0776923828e+003;3.9455129395e+003;3.9494870605e+003;3.9603845215e+003;3.9310256348e+003;3.9073076172e+003;3.9316667480e+003;3.9421794434e+003;3.9316667480e+003;3.9350000000e+003;3.9385898438e+003;3.9483332520e+003;3.9573076172e+003;3.9514101563e+003;
1.9453125000e+000;4.0529487305e+003;3.9214101563e+003;3.9273076172e+003;3.9378205566e+003;3.9075642090e+003;3.8869230957e+003;3.9096154785e+003;3.9176923828e+003;3.9080769043e+003;3.9100000000e+003;3.9151281738e+003;3.9228205566e+003;3.9366667480e+003;3.9294870605e+003;
1.9531250000e+000;4.0715385742e+003;3.9441025391e+003;3.9498718262e+003;3.9651281738e+003;3.9382050781e+003;3.9147436523e+003;3.9391025391e+003;3.9455129395e+003;3.9358974609e+003;3.9394870605e+003;3.9451281738e+003;3.9535898438e+003;3.9693588867e+003;3.9582050781e+003;
1.9609375000e+000;4.0861538086e+003;3.9600000000e+003;3.9657692871e+003;3.9841025391e+003;3.9585898438e+003;3.9346154785e+003;3.9614101563e+003;3.9652563477e+003;3.9557692871e+003;3.9587180176e+003;3.9644870605e+003;3.9762819824e+003;3.9866667480e+003;3.9765385742e+003;
1.9687500000e+000;4.1325639648e+003;4.0165385742e+003;4.0134614258e+003;4.0280769043e+003;4.0146154785e+003;4.0001281738e+003;4.0243588867e+003;4.0135898438e+003;4.0101281738e+003;4.0093588867e+003;4.0128205566e+003;4.0205129395e+003;4.0334614258e+003;4.0229487305e+003;
1.9765625000e+000;4.1174360352e+003;4.0069230957e+003;4.0032050781e+003;4.0158974609e+003;4.0044870605e+003;3.9965385742e+003;4.0143588867e+003;4.0041025391e+003;4.0030769043e+003;4.0023076172e+003;4.0010256348e+003;4.0069230957e+003;4.0230769043e+003;4.0091025391e+003;
1.9843750000e+000;4.0173076172e+003;3.9097436523e+003;3.9112819824e+003;3.9300000000e+003;3.9148718262e+003;3.9171794434e+003;3.9271794434e+003;3.9161538086e+003;3.9155129395e+003;3.9103845215e+003;3.9042307129e+003;3.9106411133e+003;3.9248718262e+003;3.9079487305e+003;
1.9921875000e+000;4.0019230957e+003;3.8929487305e+003;3.8941025391e+003;3.9173076172e+003;3.9023076172e+003;3.9029487305e+003;3.9151281738e+003;3.9011538086e+003;3.8998718262e+003;3.8924357910e+003;3.8864101563e+003;3.8907692871e+003;3.9060256348e+003;3.8901281738e+003;
2.0000000000e+000;4.0492307129e+003;3.9461538086e+003;3.9378205566e+003;3.9670512695e+003;3.9521794434e+003;3.9516667480e+003;3.9660256348e+003;3.9547436523e+003;3.9546154785e+003;3.9479487305e+003;3.9341025391e+003;3.9362819824e+003;3.9583332520e+003;3.9455129395e+003;
2.0078125000e+000;4.0161538086e+003;3.9167949219e+003;3.9078205566e+003;3.9405129395e+003;3.9210256348e+003;3.9269230957e+003;3.9382050781e+003;3.9273076172e+003;3.9273076172e+003;3.9184614258e+003;3.9034614258e+003;3.9101281738e+003;3.9288461914e+003;3.9164101563e+003;
2.0156250000e+000;3.9848718262e+003;3.8882050781e+003;3.8789743652e+003;3.9143588867e+003;3.8915385742e+003;3.9014101563e+003;3.9111538086e+003;3.8994870605e+003;3.8993588867e+003;3.8878205566e+003;3.8738461914e+003;3.8835898438e+003;3.8989743652e+003;3.8870512695e+003;
2.0234375000e+000;3.9733332520e+003;3.8775642090e+003;3.8684614258e+003;3.9041025391e+003;3.8805129395e+003;3.8902563477e+003;3.9003845215e+003;3.8897436523e+003;3.8885898438e+003;3.8762819824e+003;3.8638461914e+003;3.8735898438e+003;3.8873076172e+003;3.8765385742e+003;
2.0312500000e+000;3.9616667480e+003;3.8521794434e+003;3.8530769043e+003;3.8846154785e+003;3.8533332520e+003;3.8516667480e+003;3.8641025391e+003;3.8647436523e+003;3.8521794434e+003;3.8533332520e+003;3.8460256348e+003;3.8550000000e+003;3.8650000000e+003;3.8616667480e+003;
2.0390625000e+000;3.9561538086e+003;3.8432050781e+003;3.8500000000e+003;3.8802563477e+003;3.8279487305e+003;3.8267949219e+003;3.8393588867e+003;3.8466667480e+003;3.8329487305e+003;3.8400000000e+003;3.8548718262e+003;3.8661538086e+003;3.8616667480e+003;3.8676923828e+003;
2.0468750000e+000;3.9426923828e+003;3.8310256348e+003;3.8351281738e+003;3.8675642090e+003;3.8150000000e+003;3.8120512695e+003;3.8276923828e+003;3.8324357910e+003;3.8197436523e+003;3.8242307129e+003;3.8424357910e+003;3.8534614258e+003;3.8507692871e+003;3.8537180176e+003;
2.0546875000e+000;4.0019230957e+003;3.8917949219e+003;3.8908974609e+003;3.9226923828e+003;3.8784614258e+003;3.8632050781e+003;3.8850000000e+003;3.8911538086e+003;3.8841025391e+003;3.8853845215e+003;3.8984614258e+003;3.9080769043e+003;3.9116667480e+003;3.9079487305e+003;
2.0625000000e+000;3.9288461914e+003;3.8166667480e+003;3.8257692871e+003;3.8551281738e+003;3.8150000000e+003;3.8078205566e+003;3.8266667480e+003;3.8305129395e+003;3.8241025391e+003;3.8229487305e+003;3.8310256348e+003;3.8369230957e+003;3.8423076172e+003;3.8388461914e+003;
2.0703125000e+000;3.9256411133e+003;3.8153845215e+003;3.8226923828e+003;3.8528205566e+003;3.8174357910e+003;3.8120512695e+003;3.8283332520e+003;3.8305129395e+003;3.8253845215e+003;3.8238461914e+003;3.8324357910e+003;3.8376923828e+003;3.8435898438e+003;3.8388461914e+003;
2.0781250000e+000;3.9082050781e+003;3.7976923828e+003;3.8024357910e+003;3.8348718262e+003;3.8033332520e+003;3.8070512695e+003;3.8170512695e+003;3.8126923828e+003;3.8097436523e+003;3.8069230957e+003;3.8117949219e+003;3.8232050781e+003;3.8243588867e+003;3.8208974609e+003;
2.0859375000e+000;3.9125642090e+003;3.8012819824e+003;3.8047436523e+003;3.8374357910e+003;3.8074357910e+003;3.8134614258e+003;3.8220512695e+003;3.8134614258e+003;3.8100000000e+003;3.8078205566e+003;3.8110256348e+003;3.8247436523e+003;3.8251281738e+003;3.8223076172e+003;
2.0937500000e+000;3.9535898438e+003;3.8443588867e+003;3.8483332520e+003;3.8770512695e+003;3.8555129395e+003;3.8575642090e+003;3.8634614258e+003;3.8617949219e+003;3.8575642090e+003;3.8566667480e+003;3.8565385742e+003;3.8661538086e+003;3.8698718262e+003;3.8680769043e+003;
2.1015625000e+000;3.9337180176e+003;3.8256411133e+003;3.8292307129e+003;3.8597436523e+003;3.8379487305e+003;3.8421794434e+003;3.8475642090e+003;3.8446154785e+003;3.8417949219e+003;3.8373076172e+003;3.8366667480e+003;3.8456411133e+003;3.8503845215e+003;3.8482050781e+003;
2.1093750000e+000;3.9778205566e+003;3.8755129395e+003;3.8675642090e+003;3.9039743652e+003;3.8819230957e+003;3.8838461914e+003;3.8950000000e+003;3.8860256348e+003;3.8834614258e+003;3.8780769043e+003;3.8726923828e+003;3.8800000000e+003;3.8920512695e+003;3.8819230957e+003;
2.1171875000e+000;4.0293588867e+003;3.9303845215e+003;3.9180769043e+003;3.9537180176e+003;3.9328205566e+003;3.9301281738e+003;3.9437180176e+003;3.9393588867e+003;3.9357692871e+003;3.9346154785e+003;3.9243588867e+003;3.9311538086e+003;3.9446154785e+003;3.9310256348e+003;
2.1250000000e+000;3.9493588867e+003;3.8446154785e+003;3.8474357910e+003;3.8779487305e+003;3.8510256348e+003;3.8498718262e+003;3.8605129395e+003;3.8626923828e+003;3.8584614258e+003;3.8607692871e+003;3.8533332520e+003;3.8637180176e+003;3.8658974609e+003;3.8603845215e+003;
2.1328125000e+000;3.9207692871e+003;3.8142307129e+003;3.8182050781e+003;3.8506411133e+003;3.8202563477e+003;3.8183332520e+003;3.8310256348e+003;3.8270512695e+003;3.8225642090e+003;3.8260256348e+003;3.8225642090e+003;3.8339743652e+003;3.8351281738e+003;3.8303845215e+003;
2.1406250000e+000;3.9226923828e+003;3.8169230957e+003;3.8180769043e+003;3.8530769043e+003;3.8187180176e+003;3.8138461914e+003;3.8296154785e+003;3.8220512695e+003;3.8171794434e+003;3.8242307129e+003;3.8217949219e+003;3.8341025391e+003;3.8352563477e+003;3.8296154785e+003;
2.1484375000e+000;3.9266667480e+003;3.8217949219e+003;3.8210256348e+003;3.8571794434e+003;3.8178205566e+003;3.8111538086e+003;3.8283332520e+003;3.8216667480e+003;3.8165385742e+003;3.8270512695e+003;3.8244870605e+003;3.8376923828e+003;3.8379487305e+003;3.8319230957e+003;
2.1562500000e+000;3.8850000000e+003;3.7720512695e+003;3.7821794434e+003;3.8105129395e+003;3.7658974609e+003;3.7547436523e+003;3.7697436523e+003;3.7734614258e+003;3.7698718262e+003;3.7785898438e+003;3.7901281738e+003;3.7996154785e+003;3.7983332520e+003;3.7942307129e+003;
2.1640625000e+000;3.8069230957e+003;3.6869230957e+003;3.6983332520e+003;3.7335898438e+003;3.6765385742e+003;3.6748718262e+003;3.6962819824e+003;3.6962819824e+003;3.6956411133e+003;3.6947436523e+003;3.7052563477e+003;3.7187180176e+003;3.7076923828e+003;3.7108974609e+003;
2.1718750000e+000;3.8287180176e+003;3.7066667480e+003;3.7150000000e+003;3.7524357910e+003;3.6996154785e+003;3.6961538086e+003;3.7146154785e+003;3.7160256348e+003;3.7183332520e+003;3.7141025391e+003;3.7251281738e+003;3.7355129395e+003;3.7273076172e+003;3.7285898438e+003;
2.1796875000e+000;3.8315385742e+003;3.7101281738e+003;3.7123076172e+003;3.7562819824e+003;3.7083332520e+003;3.7060256348e+003;3.7166667480e+003;3.7200000000e+003;3.7247436523e+003;3.7183332520e+003;3.7237180176e+003;3.7344870605e+003;3.7288461914e+003;3.7247436523e+003;
2.1875000000e+000;3.8155129395e+003;3.6956411133e+003;3.6951281738e+003;3.7412819824e+003;3.6924357910e+003;3.6933332520e+003;3.7035898438e+003;3.7012819824e+003;3.7061538086e+003;3.6998718262e+003;3.7014101563e+003;3.7137180176e+003;3.7089743652e+003;3.7034614258e+003;
2.1953125000e+000;3.8424357910e+003;3.7285898438e+003;3.7189743652e+003;3.7676923828e+003;3.7216667480e+003;3.7256411133e+003;3.7401281738e+003;3.7278205566e+003;3.7392307129e+003;3.7308974609e+003;3.7229487305e+003;3.7297436523e+003;3.7335898438e+003;3.7275642090e+003;
2.2031250000e+000;3.8065385742e+003;3.6882050781e+003;3.6820512695e+003;3.7367949219e+003;3.6935898438e+003;3.7067949219e+003;3.7185898438e+003;3.7069230957e+003;3.7180769043e+003;3.7056411133e+003;3.6935898438e+003;3.6944870605e+003;3.7025642090e+003;3.6930769043e+003;
2.2109375000e+000;3.8347436523e+003;3.7165385742e+003;3.7101281738e+003;3.7624357910e+003;3.7207692871e+003;3.7329487305e+003;3.7450000000e+003;3.7361538086e+003;3.7439743652e+003;3.7338461914e+003;3.7196154785e+003;3.7208974609e+003;3.7282050781e+003;3.7194870605e+003;
2.2187500000e+000;3.8453845215e+003;3.7257692871e+003;3.7261538086e+003;3.7687180176e+003;3.7274357910e+003;3.7362819824e+003;3.7512819824e+003;3.7470512695e+003;3.7494870605e+003;3.7401281738e+003;3.7256411133e+003;3.7370512695e+003;3.7328205566e+003;3.7321794434e+003;
2.2265625000e+000;3.8473076172e+003;3.7285898438e+003;3.7288461914e+003;3.7702563477e+003;3.7325642090e+003;3.7362819824e+003;3.7539743652e+003;3.7455129395e+003;3.7496154785e+003;3.7396154785e+003;3.7275642090e+003;3.7389743652e+003;3.7350000000e+003;3.7338461914e+003;
2.2343750000e+000;3.8815385742e+003;3.7703845215e+003;3.7643588867e+003;3.8051281738e+003;3.7715385742e+003;3.7644870605e+003;3.7853845215e+003;3.7750000000e+003;3.7798718262e+003;3.7774357910e+003;3.7667949219e+003;3.7735898438e+003;3.7735898438e+003;3.7706411133e+003;
2.2421875000e+000;3.8735898438e+003;3.7647436523e+003;3.7576923828e+003;3.7994870605e+003;3.7606411133e+003;3.7539743652e+003;3.7747436523e+003;3.7650000000e+003;3.7670512695e+003;3.7697436523e+003;3.7602563477e+003;3.7679487305e+003;3.7675642090e+003;3.7647436523e+003;
2.2500000000e+000;3.8843588867e+003;3.7717949219e+003;3.7673076172e+003;3.8073076172e+003;3.7585898438e+003;3.7488461914e+003;3.7739743652e+003;3.7602563477e+003;3.7615385742e+003;3.7688461914e+003;3.7725642090e+003;3.7858974609e+003;3.7806411133e+003;3.7738461914e+003;
2.2578125000e+000;3.8955129395e+003;3.7826923828e+003;3.7807692871e+003;3.8160256348e+003;3.7700000000e+003;3.7574357910e+003;3.7823076172e+003;3.7724357910e+003;3.7776923828e+003;3.7853845215e+003;3.7878205566e+003;3.8016667480e+003;3.7930769043e+003;3.7875642090e+003;
2.2656250000e+000;3.8721794434e+003;3.7603845215e+003;3.7614101563e+003;3.7935898438e+003;3.7478205566e+003;3.7362819824e+003;3.7592307129e+003;3.7537180176e+003;3.7617949219e+003;3.7692307129e+003;3.7674357910e+003;3.7826923828e+003;3.7703845215e+003;3.7680769043e+003;
2.2734375000e+000;3.8303845215e+003;3.7200000000e+003;3.7221794434e+003;3.7544870605e+003;3.7064101563e+003;3.6979487305e+003;3.7194870605e+003;3.7161538086e+003;3.7251281738e+003;3.7310256348e+003;3.7255129395e+003;3.7420512695e+003;3.7276923828e+003;3.7283332520e+003;
2.2812500000e+000;3.7952563477e+003;3.6800000000e+003;3.6791025391e+003;3.7179487305e+003;3.6723076172e+003;3.6664101563e+003;3.6842307129e+003;3.6894870605e+003;3.7079487305e+003;3.7011538086e+003;3.6906411133e+003;3.7003845215e+003;3.6908974609e+003;3.6883332520e+003;
2.2890625000e+000;3.7570512695e+003;3.6383332520e+003;3.6382050781e+003;3.6821794434e+003;3.6347436523e+003;3.6365385742e+003;3.6510256348e+003;3.6532050781e+003;3.6739743652e+003;3.6626923828e+003;3.6526923828e+003;3.6610256348e+003;3.6514101563e+003;3.6500000000e+003;
2.2968750000e+000;3.7785898438e+003;3.6620512695e+003;3.6529487305e+003;3.7056411133e+003;3.6617949219e+003;3.6703845215e+003;3.6851281738e+003;3.6760256348e+003;3.6903845215e+003;3.6812819824e+003;3.6658974609e+003;3.6753845215e+003;3.6737180176e+003;3.6707692871e+003;
2.3046875000e+000;3.7385898438e+003;3.6167949219e+003;3.6167949219e+003;3.6624357910e+003;3.6244870605e+003;3.6417949219e+003;3.6511538086e+003;3.6388461914e+003;3.6475642090e+003;3.6361538086e+003;3.6202563477e+003;3.6343588867e+003;3.6293588867e+003;3.6243588867e+003;
2.3125000000e+000;3.7396154785e+003;3.6165385742e+003;3.6155129395e+003;3.6619230957e+003;3.6246154785e+003;3.6429487305e+003;3.6519230957e+003;3.6380769043e+003;3.6491025391e+003;3.6335898438e+003;3.6188461914e+003;3.6329487305e+003;3.6267949219e+003;3.6250000000e+003;
2.3203125000e+000;3.7203845215e+003;3.6017949219e+003;3.5982050781e+003;3.6465385742e+003;3.6007692871e+003;3.6224357910e+003;3.6329487305e+003;3.6188461914e+003;3.6314101563e+003;3.6141025391e+003;3.5961538086e+003;3.6169230957e+003;3.6055129395e+003;3.6124357910e+003;
2.3281250000e+000;3.7275642090e+003;3.6088461914e+003;3.6060256348e+003;3.6528205566e+003;3.6066667480e+003;3.6261538086e+003;3.6389743652e+003;3.6203845215e+003;3.6320512695e+003;3.6174357910e+003;3.6026923828e+003;3.6223076172e+003;3.6126923828e+003;3.6173076172e+003;
2.3359375000e+000;3.8433332520e+003;3.7212819824e+003;3.7224357910e+003;3.7603845215e+003;3.7191025391e+003;3.7246154785e+003;3.7426923828e+003;3.7229487305e+003;3.7355129395e+003;3.7316667480e+003;3.7221794434e+003;3.7367949219e+003;3.7312819824e+003;3.7320512695e+003;
2.3437500000e+000;3.8856411133e+003;3.7614101563e+003;3.7678205566e+003;3.8003845215e+003;3.7594870605e+003;3.7605129395e+003;3.7793588867e+003;3.7628205566e+003;3.7761538086e+003;3.7769230957e+003;3.7657692871e+003;3.7833332520e+003;3.7746154785e+003;3.7780769043e+003;
2.3515625000e+000;3.8541025391e+003;3.7278205566e+003;3.7408974609e+003;3.7666667480e+003;3.7266667480e+003;3.7267949219e+003;3.7447436523e+003;3.7333332520e+003;3.7450000000e+003;3.7469230957e+003;3.7307692871e+003;3.7614101563e+003;3.7411538086e+003;3.7494870605e+003;
2.3593750000e+000;3.8446154785e+003;3.7179487305e+003;3.7302563477e+003;3.7544870605e+003;3.7155129395e+003;3.7158974609e+003;3.7328205566e+003;3.7253845215e+003;3.7360256348e+003;3.7383332520e+003;3.7237180176e+003;3.7525642090e+003;3.7338461914e+003;3.7383332520e+003;
2.3671875000e+000;3.8314101563e+003;3.7034614258e+003;3.7164101563e+003;3.7400000000e+003;3.6989743652e+003;3.7005129395e+003;3.7167949219e+003;3.7124357910e+003;3.7221794434e+003;3.7252563477e+003;3.7129487305e+003;3.7397436523e+003;3.7232050781e+003;3.7248718262e+003;
2.3750000000e+000;3.8737180176e+003;3.7608974609e+003;3.7571794434e+003;3.7894870605e+003;3.7515385742e+003;3.7394870605e+003;3.7597436523e+003;3.7710256348e+003;3.7862819824e+003;3.7924357910e+003;3.7708974609e+003;3.7894870605e+003;3.7879487305e+003;3.7788461914e+003;
2.3828125000e+000;3.8464101563e+003;3.7334614258e+003;3.7296154785e+003;3.7623076172e+003;3.7242307129e+003;3.7176923828e+003;3.7356411133e+003;3.7480769043e+003;3.7638461914e+003;3.7661538086e+003;3.7467949219e+003;3.7633332520e+003;3.7612819824e+003;3.7496154785e+003;
2.3906250000e+000;3.9076923828e+003;3.8011538086e+003;3.7914101563e+003;3.8234614258e+003;3.7903845215e+003;3.7844870605e+003;3.8042307129e+003;3.8000000000e+003;3.8156411133e+003;3.8171794434e+003;3.7993588867e+003;3.8135898438e+003;3.8176923828e+003;3.8044870605e+003;
2.3984375000e+000;3.8661538086e+003;3.7670512695e+003;3.7555129395e+003;3.7902563477e+003;3.7602563477e+003;3.7650000000e+003;3.7788461914e+003;3.7696154785e+003;3.7865385742e+003;3.7847436523e+003;3.7600000000e+003;3.7660256348e+003;3.7784614258e+003;3.7644870605e+003;
2.4062500000e+000;3.8682050781e+003;3.7696154785e+003;3.7575642090e+003;3.7905129395e+003;3.7644870605e+003;3.7703845215e+003;3.7847436523e+003;3.7730769043e+003;3.7908974609e+003;3.7867949219e+003;3.7632050781e+003;3.7669230957e+003;3.7823076172e+003;3.7655129395e+003;
2.4140625000e+000;3.9062819824e+003;3.8137180176e+003;3.8026923828e+003;3.8360256348e+003;3.8124357910e+003;3.8142307129e+003;3.8320512695e+003;3.8243588867e+003;3.8389743652e+003;3.8428205566e+003;3.8107692871e+003;3.8217949219e+003;3.8308974609e+003;3.8103845215e+003;
2.4218750000e+000;3.8876923828e+003;3.7951281738e+003;3.7846154785e+003;3.8201281738e+003;3.7934614258e+003;3.7973076172e+003;3.8142307129e+003;3.8033332520e+003;3.8178205566e+003;3.8207692871e+003;3.7894870605e+003;3.8037180176e+003;3.8097436523e+003;3.7916667480e+003;
2.4296875000e+000;3.9137180176e+003;3.8196154785e+003;3.8084614258e+003;3.8408974609e+003;3.8139743652e+003;3.8142307129e+003;3.8326923828e+003;3.8167949219e+003;3.8326923828e+003;3.8341025391e+003;3.8082050781e+003;3.8243588867e+003;3.8292307129e+003;3.8179487305e+003;
2.4375000000e+000;3.9306411133e+003;3.8357692871e+003;3.8266667480e+003;3.8561538086e+003;3.8285898438e+003;3.8257692871e+003;3.8460256348e+003;3.8320512695e+003;3.8466667480e+003;3.8508974609e+003;3.8264101563e+003;3.8447436523e+003;3.8467949219e+003;3.8384614258e+003;
2.4453125000e+000;3.9085898438e+003;3.8098718262e+003;3.8089743652e+003;3.8358974609e+003;3.8028205566e+003;3.7946154785e+003;3.8184614258e+003;3.8021794434e+003;3.8089743652e+003;3.8239743652e+003;3.8047436523e+003;3.8288461914e+003;3.8262819824e+003;3.8133332520e+003;
2.4531250000e+000;3.9300000000e+003;3.8324357910e+003;3.8307692871e+003;3.8552563477e+003;3.8225642090e+003;3.8112819824e+003;3.8348718262e+003;3.8183332520e+003;3.8250000000e+003;3.8420512695e+003;3.8238461914e+003;3.8466667480e+003;3.8462819824e+003;3.8328205566e+003;
2.4609375000e+000;3.9498718262e+003;3.8543588867e+003;3.8562819824e+003;3.8738461914e+003;3.8384614258e+003;3.8265385742e+003;3.8502563477e+003;3.8387180176e+003;3.8451281738e+003;3.8646154785e+003;3.8467949219e+003;3.8697436523e+003;3.8664101563e+003;3.8589743652e+003;
2.4687500000e+000;3.9441025391e+003;3.8488461914e+003;3.8526923828e+003;3.8698718262e+003;3.8335898438e+003;3.8210256348e+003;3.8478205566e+003;3.8376923828e+003;3.8438461914e+003;3.8628205566e+003;3.8457692871e+003;3.8697436523e+003;3.8637180176e+003;3.8570512695e+003;
2.4765625000e+000;3.9850000000e+003;3.8961538086e+003;3.8921794434e+003;3.9139743652e+003;3.8874357910e+003;3.8669230957e+003;3.8948718262e+003;3.8957692871e+003;3.9064101563e+003;3.9206411133e+003;3.9003845215e+003;3.9223076172e+003;3.9200000000e+003;3.9017949219e+003;
2.4843750000e+000;3.9757692871e+003;3.8894870605e+003;3.8830769043e+003;3.9066667480e+003;3.8798718262e+003;3.8647436523e+003;3.8869230957e+003;3.8898718262e+003;3.9006411133e+003;3.9148718262e+003;3.8914101563e+003;3.9138461914e+003;3.9132050781e+003;3.8935898438e+003;
2.4921875000e+000;3.9641025391e+003;3.8802563477e+003;3.8708974609e+003;3.8967949219e+003;3.8689743652e+003;3.8593588867e+003;3.8785898438e+003;3.8789743652e+003;3.8888461914e+003;3.9033332520e+003;3.8787180176e+003;3.9007692871e+003;3.9021794434e+003;3.8825642090e+003;
2.5000000000e+000;4.0053845215e+003;3.9417949219e+003;3.9294870605e+003;3.9506411133e+003;3.9417949219e+003;3.9341025391e+003;3.9520512695e+003;3.9456411133e+003;3.9600000000e+003;3.9656411133e+003;3.9307692871e+003;3.9434614258e+003;3.9611538086e+003;3.9343588867e+003;
2.5078125000e+000;4.0155129395e+003;3.9579487305e+003;3.9415385742e+003;3.9653845215e+003;3.9592307129e+003;3.9517949219e+003;3.9676923828e+003;3.9567949219e+003;3.9708974609e+003;3.9774357910e+003;3.9398718262e+003;3.9524357910e+003;3.9706411133e+003;3.9434614258e+003;
2.5156250000e+000;4.0551281738e+003;4.0094870605e+003;3.9797436523e+003;4.0101281738e+003;4.0037180176e+003;3.9941025391e+003;4.0133332520e+003;4.0023076172e+003;4.0148718262e+003;4.0264101563e+003;3.9842307129e+003;3.9962819824e+003;4.0064101563e+003;3.9860256348e+003;
2.5234375000e+000;4.0267949219e+003;3.9805129395e+003;3.9537180176e+003;3.9847436523e+003;3.9750000000e+003;3.9680769043e+003;3.9880769043e+003;3.9769230957e+003;3.9874357910e+003;3.9965385742e+003;3.9564101563e+003;3.9706411133e+003;3.9794870605e+003;3.9589743652e+003;
2.5312500000e+000;4.0496154785e+003;4.0039743652e+003;3.9815385742e+003;4.0088461914e+003;4.0034614258e+003;3.9908974609e+003;4.0120512695e+003;4.0019230957e+003;4.0091025391e+003;4.0173076172e+003;3.9837180176e+003;3.9991025391e+003;4.0116667480e+003;3.9832050781e+003;
2.5390625000e+000;4.1169228516e+003;4.0716667480e+003;4.0544870605e+003;4.0712819824e+003;4.0737180176e+003;4.0494870605e+003;4.0741025391e+003;4.0615385742e+003;4.0621794434e+003;4.0860256348e+003;4.0628205566e+003;4.0755129395e+003;4.0823076172e+003;4.0591025391e+003;
2.5468750000e+000;4.1446152344e+003;4.1030771484e+003;4.0834614258e+003;4.1002563477e+003;4.1003847656e+003;4.0721794434e+003;4.0970512695e+003;4.0816667480e+003;4.0820512695e+003;4.1114101563e+003;4.0905129395e+003;4.1014101563e+003;4.1108974609e+003;4.0864101563e+003;
2.5546875000e+000;4.1703847656e+003;4.1388461914e+003;4.1153847656e+003;4.1316665039e+003;4.1264101563e+003;4.0920512695e+003;4.1148715820e+003;4.1015385742e+003;4.1057690430e+003;4.1400000000e+003;4.1208974609e+003;4.1350000000e+003;4.1411538086e+003;4.1123076172e+003;
2.5625000000e+000;4.1541025391e+003;4.1237177734e+003;4.1019228516e+003;4.1176923828e+003;4.1096152344e+003;4.0748718262e+003;4.0980771484e+003;4.0850000000e+003;4.0911538086e+003;4.1237177734e+003;4.1073076172e+003;4.1237177734e+003;4.1251284180e+003;4.0965385742e+003;
2.5703125000e+000;4.1916665039e+003;4.1630771484e+003;4.1443588867e+003;4.1558974609e+003;4.1494873047e+003;4.1121796875e+003;4.1385898438e+003;4.1343588867e+003;4.1415385742e+003;4.1746152344e+003;4.1588461914e+003;4.1724360352e+003;4.1748715820e+003;4.1461538086e+003;
2.5781250000e+000;4.1762822266e+003;4.1535898438e+003;4.1332050781e+003;4.1451284180e+003;4.1384614258e+003;4.1044873047e+003;4.1283334961e+003;4.1287177734e+003;4.1374360352e+003;4.1678203125e+003;4.1498715820e+003;4.1623076172e+003;4.1673076172e+003;4.1369228516e+003;
2.5859375000e+000;4.1179487305e+003;4.1042309570e+003;4.0793588867e+003;4.0937180176e+003;4.0866667480e+003;4.0602563477e+003;4.0811538086e+003;4.0776923828e+003;4.0894870605e+003;4.1093588867e+003;4.0930769043e+003;4.1026923828e+003;4.1125639648e+003;4.0788461914e+003;
2.5937500000e+000;4.1492309570e+003;4.1360258789e+003;4.1096152344e+003;4.1230771484e+003;4.1192309570e+003;4.0908974609e+003;4.1128203125e+003;4.1067949219e+003;4.1174360352e+003;4.1382050781e+003;4.1215385742e+003;4.1297436523e+003;4.1403847656e+003;4.1067949219e+003;
2.6015625000e+000;4.3135898438e+003;4.3033334961e+003;4.2789741211e+003;4.2855126953e+003;4.2937177734e+003;4.2560258789e+003;4.2782050781e+003;4.2758974609e+003;4.2824360352e+003;4.3139741211e+003;4.2856411133e+003;4.2988461914e+003;4.3024360352e+003;4.2744873047e+003;
2.6093750000e+000;4.3335898438e+003;4.3289741211e+003;4.3028203125e+003;4.3083334961e+003;4.3211538086e+003;4.2815385742e+003;4.3041025391e+003;4.3007690430e+003;4.3096152344e+003;4.3379487305e+003;4.3074360352e+003;4.3210258789e+003;4.3256411133e+003;4.2979487305e+003;
2.6171875000e+000;4.3524360352e+003;4.3547436523e+003;4.3253847656e+003;4.3285898438e+003;4.3470512695e+003;4.3056411133e+003;4.3292309570e+003;4.3262822266e+003;4.3373076172e+003;4.3634614258e+003;4.3305126953e+003;4.3417949219e+003;4.3496152344e+003;4.3212822266e+003;
2.6250000000e+000;4.3638461914e+003;4.3721796875e+003;4.3410258789e+003;4.3401284180e+003;4.3632050781e+003;4.3219228516e+003;4.3464101563e+003;4.3465385742e+003;4.3573076172e+003;4.3852563477e+003;4.3492309570e+003;4.3578203125e+003;4.3671796875e+003;4.3393588867e+003;
2.6328125000e+000;4.3220512695e+003;4.3324360352e+003;4.3091025391e+003;4.3042309570e+003;4.3230771484e+003;4.2896152344e+003;4.3153847656e+003;4.3171796875e+003;4.3238461914e+003;4.3515385742e+003;4.3217949219e+003;4.3294873047e+003;4.3325639648e+003;4.3089741211e+003;
2.6406250000e+000;4.2284614258e+003;4.2444873047e+003;4.2271796875e+003;4.2243588867e+003;4.2279487305e+003;4.2014101563e+003;4.2301284180e+003;4.2255126953e+003;4.2311538086e+003;4.2620512695e+003;4.2292309570e+003;4.2415385742e+003;4.2425639648e+003;4.2228203125e+003;
2.6484375000e+000;4.1964101563e+003;4.2116665039e+003;4.1961538086e+003;4.1908974609e+003;4.1928203125e+003;4.1676923828e+003;4.1957690430e+003;4.1874360352e+003;4.1929487305e+003;4.2257690430e+003;4.1916665039e+003;4.2075639648e+003;4.2076923828e+003;4.1892309570e+003;
2.6562500000e+000;4.1934614258e+003;4.2079487305e+003;4.1933334961e+003;4.1835898438e+003;4.1893588867e+003;4.1619228516e+003;4.1862822266e+003;4.1817949219e+003;4.1862822266e+003;4.2170512695e+003;4.1855126953e+003;4.2034614258e+003;4.2033334961e+003;4.1841025391e+003;
2.6640625000e+000;4.3093588867e+003;4.3321796875e+003;4.3192309570e+003;4.3058974609e+003;4.3215385742e+003;4.2765385742e+003;4.3101284180e+003;4.3120512695e+003;4.3141025391e+003;4.3457690430e+003;4.3288461914e+003;4.3342309570e+003;4.3353847656e+003;4.3111538086e+003;
2.6718750000e+000;4.3248715820e+003;4.3494873047e+003;4.3369228516e+003;4.3229487305e+003;4.3365385742e+003;4.2905126953e+003;4.3216665039e+003;4.3298715820e+003;4.3330771484e+003;4.3669228516e+003;4.3465385742e+003;4.3507690430e+003;4.3511538086e+003;4.3278203125e+003;
2.6796875000e+000;4.2906411133e+003;4.3155126953e+003;4.3033334961e+003;4.2911538086e+003;4.2987177734e+003;4.2602563477e+003;4.2837177734e+003;4.2944873047e+003;4.2957690430e+003;4.3298715820e+003;4.3037177734e+003;4.3093588867e+003;4.3111538086e+003;4.2891025391e+003;
2.6875000000e+000;4.3057690430e+003;4.3332050781e+003;4.3185898438e+003;4.3058974609e+003;4.3158974609e+003;4.2761538086e+003;4.3002563477e+003;4.3076923828e+003;4.3082050781e+003;4.3421796875e+003;4.3161538086e+003;4.3202563477e+003;4.3265385742e+003;4.3021796875e+003;
2.6953125000e+000;4.3620512695e+003;4.4052563477e+003;4.3843588867e+003;4.3706411133e+003;4.3867949219e+003;4.3391025391e+003;4.3643588867e+003;4.3746152344e+003;4.3767949219e+003;4.4128203125e+003;4.3856411133e+003;4.3837177734e+003;4.3948715820e+003;4.3696152344e+003;
2.7031250000e+000;4.3339741211e+003;4.3791025391e+003;4.3569228516e+003;4.3453847656e+003;4.3602563477e+003;4.3161538086e+003;4.3384614258e+003;4.3473076172e+003;4.3483334961e+003;4.3847436523e+003;4.3570512695e+003;4.3552563477e+003;4.3652563477e+003;4.3432050781e+003;
2.7109375000e+000;4.3378203125e+003;4.3821796875e+003;4.3575639648e+003;4.3442309570e+003;4.3633334961e+003;4.3234614258e+003;4.3420512695e+003;4.3461538086e+003;4.3462822266e+003;4.3843588867e+003;4.3553847656e+003;4.3543588867e+003;4.3657690430e+003;4.3448715820e+003;
2.7187500000e+000;4.3566665039e+003;4.4005126953e+003;4.3765385742e+003;4.3611538086e+003;4.3823076172e+003;4.3434614258e+003;4.3610258789e+003;4.3660258789e+003;4.3679487305e+003;4.4056411133e+003;4.3761538086e+003;4.3760258789e+003;4.3871796875e+003;4.3646152344e+003;
2.7265625000e+000;4.3476923828e+003;4.3974360352e+003;4.3721796875e+003;4.3637177734e+003;4.3834614258e+003;4.3424360352e+003;4.3644873047e+003;4.3646152344e+003;4.3735898438e+003;4.4024360352e+003;4.3765385742e+003;4.3758974609e+003;4.3832050781e+003;4.3607690430e+003;
2.7343750000e+000;4.3525639648e+003;4.4064101563e+003;4.3788461914e+003;4.3714101563e+003;4.3917949219e+003;4.3482050781e+003;4.3733334961e+003;4.3712822266e+003;4.3810258789e+003;4.4102563477e+003;4.3816665039e+003;4.3810258789e+003;4.3883334961e+003;4.3679487305e+003;
2.7421875000e+000;4.3408974609e+003;4.3971796875e+003;4.3702563477e+003;4.3612822266e+003;4.3805126953e+003;4.3388461914e+003;4.3647436523e+003;4.3630771484e+003;4.3720512695e+003;4.4029487305e+003;4.3703847656e+003;4.3720512695e+003;4.3779487305e+003;4.3597436523e+003;
2.7500000000e+000;4.3021796875e+003;4.3579487305e+003;4.3342309570e+003;4.3237177734e+003;4.3393588867e+003;4.3038461914e+003;4.3285898438e+003;4.3273076172e+003;4.3344873047e+003;4.3660258789e+003;4.3324360352e+003;4.3370512695e+003;4.3401284180e+003;4.3238461914e+003;
2.7578125000e+000;4.3138461914e+003;4.3600000000e+003;4.3379487305e+003;4.3330771484e+003;4.3458974609e+003;4.3076923828e+003;4.3337177734e+003;4.3307690430e+003;4.3334614258e+003;4.3615385742e+003;4.3442309570e+003;4.3446152344e+003;4.3483334961e+003;4.3293588867e+003;
2.7656250000e+000;4.3219228516e+003;4.3696152344e+003;4.3485898438e+003;4.3426923828e+003;4.3526923828e+003;4.3155126953e+003;4.3435898438e+003;4.3434614258e+003;4.3444873047e+003;4.3720512695e+003;4.3519228516e+003;4.3555126953e+003;4.3565385742e+003;4.3383334961e+003;
2.7734375000e+000;4.2865385742e+003;4.3428203125e+003;4.3211538086e+003;4.3147436523e+003;4.3214101563e+003;4.2892309570e+003;4.3203847656e+003;4.3275639648e+003;4.3243588867e+003;4.3503847656e+003;4.3253847656e+003;4.3267949219e+003;4.3291025391e+003;4.3100000000e+003;
2.7812500000e+000;4.2664101563e+003;4.3243588867e+003;4.3037177734e+003;4.3020512695e+003;4.3156411133e+003;4.2764101563e+003;4.3026923828e+003;4.3144873047e+003;4.3129487305e+003;4.3376923828e+003;4.3117949219e+003;4.3079487305e+003;4.3156411133e+003;4.3034614258e+003;
2.7890625000e+000;4.2992309570e+003;4.3578203125e+003;4.3347436523e+003;4.3326923828e+003;4.3483334961e+003;4.3076923828e+003;4.3347436523e+003;4.3428203125e+003;4.3416665039e+003;4.3653847656e+003;4.3400000000e+003;4.3378203125e+003;4.3473076172e+003;4.3350000000e+003;
2.7968750000e+000;4.4494873047e+003;4.5233334961e+003;4.4844873047e+003;4.4830771484e+003;4.5056411133e+003;4.4601284180e+003;4.4841025391e+003;4.4960258789e+003;4.4987177734e+003;4.5293588867e+003;4.5037177734e+003;4.4976923828e+003;4.5097436523e+003;4.4903847656e+003;
2.8046875000e+000;4.4292309570e+003;4.5111538086e+003;4.4802563477e+003;4.4693588867e+003;4.5026923828e+003;4.4560258789e+003;4.4773076172e+003;4.4857690430e+003;4.4916665039e+003;4.5258974609e+003;4.4987177734e+003;4.4864101563e+003;4.4980771484e+003;4.4758974609e+003;
2.8125000000e+000;4.4296152344e+003;4.5107690430e+003;4.4826923828e+003;4.4683334961e+003;4.5035898438e+003;4.4579487305e+003;4.4800000000e+003;4.4915385742e+003;4.4952563477e+003;4.5294873047e+003;4.4988461914e+003;4.4871796875e+003;4.4974360352e+003;4.4769228516e+003;
2.8203125000e+000;4.4079487305e+003;4.4879487305e+003;4.4592309570e+003;4.4532050781e+003;4.4742309570e+003;4.4407690430e+003;4.4648715820e+003;4.4737177734e+003;4.4721796875e+003;4.5037177734e+003;4.4770512695e+003;4.4692309570e+003;4.4816665039e+003;4.4596152344e+003;
2.8281250000e+000;4.4516665039e+003;4.5355126953e+003;4.5028203125e+003;4.4966665039e+003;4.5191025391e+003;4.4828203125e+003;4.5076923828e+003;4.5156411133e+003;4.5152563477e+003;4.5497436523e+003;4.5238461914e+003;4.5171796875e+003;4.5316665039e+003;4.5057690430e+003;
2.8359375000e+000;4.4833334961e+003;4.5739741211e+003;4.5416665039e+003;4.5256411133e+003;4.5567949219e+003;4.5174360352e+003;4.5376923828e+003;4.5526923828e+003;4.5512822266e+003;4.5937177734e+003;4.5629487305e+003;4.5594873047e+003;4.5687177734e+003;4.5433334961e+003;
2.8437500000e+000;4.4357690430e+003;4.5260258789e+003;4.4973076172e+003;4.4788461914e+003;4.5097436523e+003;4.4743588867e+003;4.4924360352e+003;4.5067949219e+003;4.5019228516e+003;4.5450000000e+003;4.5142309570e+003;4.5120512695e+003;4.5176923828e+003;4.4955126953e+003;
2.8515625000e+000;4.3801284180e+003;4.4656411133e+003;4.4416665039e+003;4.4264101563e+003;4.4458974609e+003;4.4107690430e+003;4.4364101563e+003;4.4389741211e+003;4.4344873047e+003;4.4721796875e+003;4.4533334961e+003;4.4501284180e+003;4.4556411133e+003;4.4406411133e+003;
2.8593750000e+000;4.3811538086e+003;4.4653847656e+003;4.4458974609e+003;4.4283334961e+003;4.4451284180e+003;4.4087177734e+003;4.4343588867e+003;4.4366665039e+003;4.4365385742e+003;4.4735898438e+003;4.4562822266e+003;4.4550000000e+003;4.4579487305e+003;4.4452563477e+003;
2.8671875000e+000;4.3670512695e+003;4.4496152344e+003;4.4355126953e+003;4.4150000000e+003;4.4305126953e+003;4.3953847656e+003;4.4183334961e+003;4.4196152344e+003;4.4221796875e+003;4.4587177734e+003;4.4421796875e+003;4.4439741211e+003;4.4437177734e+003;4.4329487305e+003;
2.8750000000e+000;4.3570512695e+003;4.4384614258e+003;4.4270512695e+003;4.4047436523e+003;4.4211538086e+003;4.3867949219e+003;4.4076923828e+003;4.4078203125e+003;4.4098715820e+003;4.4452563477e+003;4.4305126953e+003;4.4337177734e+003;4.4323076172e+003;4.4223076172e+003;
2.8828125000e+000;4.3332050781e+003;4.4141025391e+003;4.4020512695e+003;4.3870512695e+003;4.3997436523e+003;4.3680771484e+003;4.3993588867e+003;4.4188461914e+003;4.4078203125e+003;4.4265385742e+003;4.4142309570e+003;4.4151284180e+003;4.4142309570e+003;4.4041025391e+003;
2.8906250000e+000;4.3138461914e+003;4.3923076172e+003;4.3814101563e+003;4.3669228516e+003;4.3785898438e+003;4.3497436523e+003;4.3825639648e+003;4.4008974609e+003;4.3902563477e+003;4.4037177734e+003;4.3891025391e+003;4.3937177734e+003;4.3905126953e+003;4.3805126953e+003;
2.8984375000e+000;4.4055126953e+003;4.4870512695e+003;4.4705126953e+003;4.4508974609e+003;4.4703847656e+003;4.4328203125e+003;4.4623076172e+003;4.4785898438e+003;4.4696152344e+003;4.4893588867e+003;4.4698715820e+003;4.4762822266e+003;4.4780771484e+003;4.4620512695e+003;
2.9062500000e+000;4.5119228516e+003;4.6038461914e+003;4.5834614258e+003;4.5594873047e+003;4.5916665039e+003;4.5460258789e+003;4.5737177734e+003;4.5814101563e+003;4.5739741211e+003;4.6035898438e+003;4.5861538086e+003;4.5823076172e+003;4.5950000000e+003;4.5778203125e+003;
2.9140625000e+000;4.5580771484e+003;4.6553847656e+003;4.6315385742e+003;4.6043588867e+003;4.6437177734e+003;4.5934614258e+003;4.6203847656e+003;4.6307690430e+003;4.6252563477e+003;4.6575639648e+003;4.6364101563e+003;4.6301284180e+003;4.6456411133e+003;4.6267949219e+003;
2.9218750000e+000;4.4442309570e+003;4.5501284180e+003;4.5265385742e+003;4.5058974609e+003;4.5353847656e+003;4.4947436523e+003;4.5117949219e+003;4.5285898438e+003;4.5267949219e+003;4.5629487305e+003;4.5319228516e+003;4.5307690430e+003;4.5428203125e+003;4.5256411133e+003;
2.9296875000e+000;4.4114101563e+003;4.5150000000e+003;4.4943588867e+003;4.4743588867e+003;4.5044873047e+003;4.4646152344e+003;4.4760258789e+003;4.4834614258e+003;4.4852563477e+003;4.5175639648e+003;4.4892309570e+003;4.4908974609e+003;4.5033334961e+003;4.4930771484e+003;
2.9375000000e+000;4.4133334961e+003;4.5148715820e+003;4.4956411133e+003;4.4728203125e+003;4.5048715820e+003;4.4658974609e+003;4.4761538086e+003;4.4806411133e+003;4.4815385742e+003;4.5137177734e+003;4.4889741211e+003;4.4912822266e+003;4.5035898438e+003;4.4933334961e+003;
2.9453125000e+000;4.4512822266e+003;4.5541025391e+003;4.5344873047e+003;4.5096152344e+003;4.5406411133e+003;4.4974360352e+003;4.5133334961e+003;4.5097436523e+003;4.5092309570e+003;4.5505126953e+003;4.5367949219e+003;4.5320512695e+003;4.5471796875e+003;4.5378203125e+003;
2.9531250000e+000;4.4506411133e+003;4.5532050781e+003;4.5350000000e+003;4.5102563477e+003;4.5376923828e+003;4.4938461914e+003;4.5107690430e+003;4.5097436523e+003;4.5105126953e+003;4.5534614258e+003;4.5373076172e+003;4.5330771484e+003;4.5452563477e+003;4.5400000000e+003;
2.9609375000e+000;4.3616665039e+003;4.4580771484e+003;4.4451284180e+003;4.4224360352e+003;4.4393588867e+003;4.4011538086e+003;4.4188461914e+003;4.4175639648e+003;4.4175639648e+003;4.4557690430e+003;4.4383334961e+003;4.4405126953e+003;4.4447436523e+003;4.4453847656e+003;
2.9687500000e+000;4.3233334961e+003;4.4167949219e+003;4.4050000000e+003;4.3835898438e+003;4.3979487305e+003;4.3620512695e+003;4.3807690430e+003;4.3776923828e+003;4.3743588867e+003;4.4105126953e+003;4.3973076172e+003;4.4000000000e+003;4.4033334961e+003;4.4028203125e+003;
2.9765625000e+000;4.2489741211e+003;4.3353847656e+003;4.3350000000e+003;4.3119228516e+003;4.3216665039e+003;4.2942309570e+003;4.3162822266e+003;4.3270512695e+003;4.3106411133e+003;4.3410258789e+003;4.3358974609e+003;4.3352563477e+003;4.3351284180e+003;4.3329487305e+003;
2.9843750000e+000;4.2200000000e+003;4.3034614258e+003;4.3060258789e+003;4.2838461914e+003;4.2906411133e+003;4.2653847656e+003;4.2914101563e+003;4.3050000000e+003;4.2873076172e+003;4.3098715820e+003;4.3053847656e+003;4.3050000000e+003;4.3029487305e+003;4.3038461914e+003;
2.9921875000e+000;4.2246152344e+003;4.3061538086e+003;4.3071796875e+003;4.2866665039e+003;4.2928203125e+003;4.2662822266e+003;4.2967949219e+003;4.3117949219e+003;4.2941025391e+003;4.3101284180e+003;4.3053847656e+003;4.3044873047e+003;4.3021796875e+003;4.3051284180e+003;
3.0000000000e+000;4.2610258789e+003;4.3423076172e+003;4.3396152344e+003;4.3206411133e+003;4.3280771484e+003;4.2991025391e+003;4.3315385742e+003;4.3488461914e+003;4.3315385742e+003;4.3457690430e+003;4.3389741211e+003;4.3369228516e+003;4.3355126953e+003;4.3379487305e+003;
3.0078125000e+000;4.3494873047e+003;4.4343588867e+003;4.4279487305e+003;4.4115385742e+003;4.4239741211e+003;4.3979487305e+003;4.4260258789e+003;4.4378203125e+003;4.4210258789e+003;4.4426923828e+003;4.4296152344e+003;4.4266665039e+003;4.4314101563e+003;4.4261538086e+003;
3.0156250000e+000;4.3998715820e+003;4.4866665039e+003;4.4748715820e+003;4.4589741211e+003;4.4748715820e+003;4.4444873047e+003;4.4728203125e+003;4.4817949219e+003;4.4687177734e+003;4.4928203125e+003;4.4797436523e+003;4.4724360352e+003;4.4816665039e+003;4.4769228516e+003;
3.0234375000e+000;4.4280771484e+003;4.5215385742e+003;4.5051284180e+003;4.4875639648e+003;4.5092309570e+003;4.4807690430e+003;4.4983334961e+003;4.5052563477e+003;4.4962822266e+003;4.5300000000e+003;4.5146152344e+003;4.5047436523e+003;4.5139741211e+003;4.5121796875e+003;
3.0312500000e+000;4.5210258789e+003;4.6242309570e+003;4.6012822266e+003;4.5778203125e+003;4.6170512695e+003;4.5744873047e+003;4.5952563477e+003;4.6041025391e+003;4.5944873047e+003;4.6330771484e+003;4.6105126953e+003;4.6014101563e+003;4.6153847656e+003;4.6092309570e+003;
3.0390625000e+000;4.5255126953e+003;4.6341025391e+003;4.6102563477e+003;4.5865385742e+003;4.6256411133e+003;4.5833334961e+003;4.6019228516e+003;4.6147436523e+003;4.6089741211e+003;4.6466665039e+003;4.6205126953e+003;4.6094873047e+003;4.6226923828e+003;4.6174360352e+003;
3.0468750000e+000;4.4556411133e+003;4.5723076172e+003;4.5542309570e+003;4.5305126953e+003;4.5696152344e+003;4.5353847656e+003;4.5473076172e+003;4.5535898438e+003;4.5593588867e+003;4.5892309570e+003;4.5639741211e+003;4.5534614258e+003;4.5641025391e+003;4.5558974609e+003;
3.0546875000e+000;4.4900000000e+003;4.6079487305e+003;4.5937177734e+003;4.5614101563e+003;4.6006411133e+003;4.5603847656e+003;4.5791025391e+003;4.5842309570e+003;4.5869228516e+003;4.6212822266e+003;4.5993588867e+003;4.5921796875e+003;4.6050000000e+003;4.5991025391e+003;
3.0625000000e+000;4.5141025391e+003;4.6337177734e+003;4.6185898438e+003;4.5835898438e+003;4.6205126953e+003;4.5776923828e+003;4.5979487305e+003;4.6035898438e+003;4.6055126953e+003;4.6421796875e+003;4.6223076172e+003;4.6130771484e+003;4.6280771484e+003;4.6215385742e+003;
3.0703125000e+000;4.5497436523e+003;4.6728203125e+003;4.6555126953e+003;4.6171796875e+003;4.6534614258e+003;4.6071796875e+003;4.6298715820e+003;4.6379487305e+003;4.6400000000e+003;4.6788461914e+003;4.6593588867e+003;4.6484614258e+003;4.6651284180e+003;4.6557690430e+003;
3.0781250000e+000;4.5582050781e+003;4.6875639648e+003;4.6693588867e+003;4.6267949219e+003;4.6620512695e+003;4.6144873047e+003;4.6447436523e+003;4.6594873047e+003;4.6580771484e+003;4.6971796875e+003;4.6762822266e+003;4.6696152344e+003;4.6807690430e+003;4.6700000000e+003;
3.0859375000e+000;4.5105126953e+003;4.6421796875e+003;4.6235898438e+003;4.5852563477e+003;4.6200000000e+003;4.5706411133e+003;4.6066665039e+003;4.6239741211e+003;4.6161538086e+003;4.6483334961e+003;4.6324360352e+003;4.6242309570e+003;4.6315385742e+003;4.6247436523e+003;
3.0937500000e+000;4.5126923828e+003;4.6455126953e+003;4.6262822266e+003;4.5870512695e+003;4.6221796875e+003;4.5726923828e+003;4.6065385742e+003;4.6311538086e+003;4.6235898438e+003;4.6541025391e+003;4.6369228516e+003;4.6266665039e+003;4.6352563477e+003;4.6278203125e+003;
3.1015625000e+000;4.4819228516e+003;4.6133334961e+003;4.5967949219e+003;4.5561538086e+003;4.5892309570e+003;4.5453847656e+003;4.5760258789e+003;4.6070512695e+003;4.5984614258e+003;4.6264101563e+003;4.6078203125e+003;4.5989741211e+003;4.6067949219e+003;4.5997436523e+003;
3.1093750000e+000;4.3835898438e+003;4.5015385742e+003;4.4965385742e+003;4.4560258789e+003;4.4842309570e+003;4.4564101563e+003;4.4833334961e+003;4.5097436523e+003;4.4971796875e+003;4.5162822266e+003;4.5026923828e+003;4.4997436523e+003;4.5044873047e+003;4.5008974609e+003;
3.1171875000e+000;4.3823076172e+003;4.4943588867e+003;4.4917949219e+003;4.4525639648e+003;4.4820512695e+003;4.4561538086e+003;4.4815385742e+003;4.5026923828e+003;4.4900000000e+003;4.5062822266e+003;4.4960258789e+003;4.4925639648e+003;4.4979487305e+003;4.4958974609e+003;
3.1250000000e+000;4.4080771484e+003;4.5182050781e+003;4.5147436523e+003;4.4770512695e+003;4.5088461914e+003;4.4815385742e+003;4.5043588867e+003;4.5234614258e+003;4.5120512695e+003;4.5289741211e+003;4.5187177734e+003;4.5130771484e+003;4.5194873047e+003;4.5188461914e+003;
3.1328125000e+000;4.4133334961e+003;4.5378203125e+003;4.5238461914e+003;4.4919228516e+003;4.5323076172e+003;4.5024360352e+003;4.5152563477e+003;4.5266665039e+003;4.5247436523e+003;4.5525639648e+003;4.5338461914e+003;4.5244873047e+003;4.5337177734e+003;4.5237177734e+003;
3.1406250000e+000;4.3811538086e+003;4.5053847656e+003;4.4947436523e+003;4.4638461914e+003;4.5039741211e+003;4.4771796875e+003;4.4846152344e+003;4.4967949219e+003;4.4962822266e+003;4.5229487305e+003;4.5041025391e+003;4.4953847656e+003;4.5028203125e+003;4.4929487305e+003;
3.1484375000e+000;4.3130771484e+003;4.4289741211e+003;4.4171796875e+003;4.3939741211e+003;4.4285898438e+003;4.4089741211e+003;4.4141025391e+003;4.4130771484e+003;4.4148715820e+003;4.4344873047e+003;4.4220512695e+003;4.4120512695e+003;4.4219228516e+003;4.4178203125e+003;
3.1562500000e+000;4.3501284180e+003;4.4670512695e+003;4.4593588867e+003;4.4298715820e+003;4.4639741211e+003;4.4384614258e+003;4.4492309570e+003;4.4539741211e+003;4.4523076172e+003;4.4742309570e+003;4.4612822266e+003;4.4548715820e+003;4.4628203125e+003;4.4573076172e+003;
3.1640625000e+000;4.3384614258e+003;4.4533334961e+003;4.4497436523e+003;4.4197436523e+003;4.4514101563e+003;4.4283334961e+003;4.4392309570e+003;4.4428203125e+003;4.4396152344e+003;4.4629487305e+003;4.4500000000e+003;4.4448715820e+003;4.4511538086e+003;4.4458974609e+003;
3.1718750000e+000;4.3519228516e+003;4.4592309570e+003;4.4478203125e+003;4.4235898438e+003;4.4530771484e+003;4.4296152344e+003;4.4450000000e+003;4.4519228516e+003;4.4528203125e+003;4.4753847656e+003;4.4593588867e+003;4.4501284180e+003;4.4580771484e+003;4.4593588867e+003;
3.1796875000e+000;4.2898715820e+003;4.3914101563e+003;4.3829487305e+003;4.3617949219e+003;4.3858974609e+003;4.3702563477e+003;4.3864101563e+003;4.4071796875e+003;4.3943588867e+003;4.4100000000e+003;4.3967949219e+003;4.3897436523e+003;4.3980771484e+003;4.3993588867e+003;
3.1875000000e+000;4.3234614258e+003;4.4220512695e+003;4.4156411133e+003;4.3926923828e+003;4.4192309570e+003;4.4008974609e+003;4.4182050781e+003;4.4420512695e+003;4.4248715820e+003;4.4420512695e+003;4.4297436523e+003;4.4214101563e+003;4.4320512695e+003;4.4301284180e+003;
3.1953125000e+000;4.3515385742e+003;4.4457690430e+003;4.4421796875e+003;4.4175639648e+003;4.4452563477e+003;4.4248715820e+003;4.4433334961e+003;4.4682050781e+003;4.4496152344e+003;4.4691025391e+003;4.4565385742e+003;4.4476923828e+003;4.4578203125e+003;4.4550000000e+003;
3.2031250000e+000;4.3366665039e+003;4.4246152344e+003;4.4250000000e+003;4.3987177734e+003;4.4244873047e+003;4.4055126953e+003;4.4256411133e+003;4.4447436523e+003;4.4284614258e+003;4.4474360352e+003;4.4367949219e+003;4.4300000000e+003;4.4330771484e+003;4.4366665039e+003;
3.2109375000e+000;4.3378203125e+003;4.4274360352e+003;4.4265385742e+003;4.3994873047e+003;4.4252563477e+003;4.4056411133e+003;4.4262822266e+003;4.4434614258e+003;4.4283334961e+003;4.4455126953e+003;4.4370512695e+003;4.4314101563e+003;4.4326923828e+003;4.4394873047e+003;
3.2187500000e+000;4.3758974609e+003;4.4710258789e+003;4.4703847656e+003;4.4403847656e+003;4.4656411133e+003;4.4451284180e+003;4.4617949219e+003;4.4842309570e+003;4.4697436523e+003;4.4862822266e+003;4.4782050781e+003;4.4741025391e+003;4.4757690430e+003;4.4825639648e+003;
3.2265625000e+000;4.3685898438e+003;4.4635898438e+003;4.4661538086e+003;4.4352563477e+003;4.4589741211e+003;4.4411538086e+003;4.4546152344e+003;4.4764101563e+003;4.4623076172e+003;4.4789741211e+003;4.4703847656e+003;4.4662822266e+003;4.4685898438e+003;4.4735898438e+003;
3.2343750000e+000;4.3558974609e+003;4.4535898438e+003;4.4519228516e+003;4.4248715820e+003;4.4533334961e+003;4.4334614258e+003;4.4437177734e+003;4.4524360352e+003;4.4426923828e+003;4.4615385742e+003;4.4485898438e+003;4.4415385742e+003;4.4475639648e+003;4.4517949219e+003;
3.2421875000e+000;4.3616665039e+003;4.4620512695e+003;4.4605126953e+003;4.4343588867e+003;4.4628203125e+003;4.4420512695e+003;4.4506411133e+003;4.4611538086e+003;4.4535898438e+003;4.4726923828e+003;4.4565385742e+003;4.4528203125e+003;4.4552563477e+003;4.4615385742e+003;
3.2500000000e+000;4.3411538086e+003;4.4410258789e+003;4.4451284180e+003;4.4182050781e+003;4.4442309570e+003;4.4265385742e+003;4.4321796875e+003;4.4442309570e+003;4.4392309570e+003;4.4552563477e+003;4.4387177734e+003;4.4398715820e+003;4.4369228516e+003;4.4450000000e+003;
3.2578125000e+000;4.2155126953e+003;4.3011538086e+003;4.3221796875e+003;4.2855126953e+003;4.3071796875e+003;4.3046152344e+003;4.3024360352e+003;4.3080771484e+003;4.3115385742e+003;4.3121796875e+003;4.3032050781e+003;4.3011538086e+003;4.3016665039e+003;4.3048715820e+003;
3.2656250000e+000;4.1969228516e+003;4.2807690430e+003;4.3011538086e+003;4.2693588867e+003;4.2870512695e+003;4.2879487305e+003;4.2844873047e+003;4.2883334961e+003;4.2926923828e+003;4.2898715820e+003;4.2811538086e+003;4.2814101563e+003;4.2800000000e+003;4.2834614258e+003;
3.2734375000e+000;4.2614101563e+003;4.3352563477e+003;4.3550000000e+003;4.3193588867e+003;4.3441025391e+003;4.3387177734e+003;4.3421796875e+003;4.3508974609e+003;4.3543588867e+003;4.3517949219e+003;4.3444873047e+003;4.3384614258e+003;4.3379487305e+003;4.3401284180e+003;
3.2812500000e+000;4.2047436523e+003;4.2733334961e+003;4.2988461914e+003;4.2624360352e+003;4.2761538086e+003;4.2757690430e+003;4.2798715820e+003;4.2944873047e+003;4.2898715820e+003;4.2860258789e+003;4.2798715820e+003;4.2766665039e+003;4.2764101563e+003;4.2802563477e+003;
3.2890625000e+000;4.2176923828e+003;4.2856411133e+003;4.3093588867e+003;4.2756411133e+003;4.2888461914e+003;4.2857690430e+003;4.2914101563e+003;4.3050000000e+003;4.2998715820e+003;4.2950000000e+003;4.2903847656e+003;4.2878203125e+003;4.2870512695e+003;4.2903847656e+003;
3.2968750000e+000;4.1967949219e+003;4.2580771484e+003;4.2808974609e+003;4.2485898438e+003;4.2644873047e+003;4.2614101563e+003;4.2703847656e+003;4.2843588867e+003;4.2746152344e+003;4.2710258789e+003;4.2644873047e+003;4.2637177734e+003;4.2596152344e+003;4.2597436523e+003;
3.3046875000e+000;4.1917949219e+003;4.2512822266e+003;4.2738461914e+003;4.2415385742e+003;4.2560258789e+003;4.2543588867e+003;4.2650000000e+003;4.2770512695e+003;4.2646152344e+003;4.2602563477e+003;4.2528203125e+003;4.2548715820e+003;4.2510258789e+003;4.2501284180e+003;
3.3125000000e+000;4.2405126953e+003;4.2984614258e+003;4.3200000000e+003;4.2858974609e+003;4.2984614258e+003;4.2969228516e+003;4.3093588867e+003;4.3239741211e+003;4.3083334961e+003;4.3041025391e+003;4.2932050781e+003;4.2989741211e+003;4.2943588867e+003;4.2969228516e+003;
3.3203125000e+000;4.2388461914e+003;4.2941025391e+003;4.3171796875e+003;4.2826923828e+003;4.2937177734e+003;4.2955126953e+003;4.3065385742e+003;4.3226923828e+003;4.3062822266e+003;4.3021796875e+003;4.2901284180e+003;4.2957690430e+003;4.2894873047e+003;4.2957690430e+003;
3.3281250000e+000;4.2107690430e+003;4.2555126953e+003;4.2802563477e+003;4.2487177734e+003;4.2652563477e+003;4.2691025391e+003;4.2767949219e+003;4.2815385742e+003;4.2707690430e+003;4.2644873047e+003;4.2552563477e+003;4.2574360352e+003;4.2542309570e+003;4.2580771484e+003;
3.3359375000e+000;4.1884614258e+003;4.2310258789e+003;4.2607690430e+003;4.2298715820e+003;4.2405126953e+003;4.2487177734e+003;4.2461538086e+003;4.2525639648e+003;4.2548715820e+003;4.2480771484e+003;4.2369228516e+003;4.2424360352e+003;4.2351284180e+003;4.2401284180e+003;
3.3437500000e+000;4.1692309570e+003;4.2101284180e+003;4.2393588867e+003;4.2098715820e+003;4.2174360352e+003;4.2285898438e+003;4.2239741211e+003;4.2276923828e+003;4.2337177734e+003;4.2257690430e+003;4.2153847656e+003;4.2182050781e+003;4.2142309570e+003;4.2198715820e+003;
3.3515625000e+000;4.1715385742e+003;4.2114101563e+003;4.2375639648e+003;4.2098715820e+003;4.2169228516e+003;4.2279487305e+003;4.2223076172e+003;4.2247436523e+003;4.2332050781e+003;4.2250000000e+003;4.2147436523e+003;4.2133334961e+003;4.2151284180e+003;4.2198715820e+003;
3.3593750000e+000;4.1662822266e+003;4.2007690430e+003;4.2244873047e+003;4.2023076172e+003;4.2066665039e+003;4.2189741211e+003;4.2110258789e+003;4.2167949219e+003;4.2220512695e+003;4.2152563477e+003;4.2043588867e+003;4.2029487305e+003;4.2069228516e+003;4.2091025391e+003;
3.3671875000e+000;4.1424360352e+003;4.1712822266e+003;4.1976923828e+003;4.1784614258e+003;4.1792309570e+003;4.1939741211e+003;4.1870512695e+003;4.1924360352e+003;4.1929487305e+003;4.1855126953e+003;4.1774360352e+003;4.1802563477e+003;4.1800000000e+003;4.1816665039e+003;
3.3750000000e+000;4.1352563477e+003;4.1591025391e+003;4.1879487305e+003;4.1700000000e+003;4.1687177734e+003;4.1835898438e+003;4.1803847656e+003;4.1843588867e+003;4.1802563477e+003;4.1716665039e+003;4.1678203125e+003;4.1738461914e+003;4.1701284180e+003;4.1717949219e+003;
3.3828125000e+000;4.1308974609e+003;4.1505126953e+003;4.1788461914e+003;4.1597436523e+003;4.1530771484e+003;4.1738461914e+003;4.1787177734e+003;4.1887177734e+003;4.1732050781e+003;4.1620512695e+003;4.1605126953e+003;4.1682050781e+003;4.1600000000e+003;4.1697436523e+003;
3.3906250000e+000;4.1303847656e+003;4.1485898438e+003;4.1760258789e+003;4.1588461914e+003;4.1525639648e+003;4.1707690430e+003;4.1767949219e+003;4.1861538086e+003;4.1691025391e+003;4.1571796875e+003;4.1570512695e+003;4.1628203125e+003;4.1575639648e+003;4.1650000000e+003;
3.3984375000e+000;4.1256411133e+003;4.1461538086e+003;4.1762822266e+003;4.1566665039e+003;4.1516665039e+003;4.1658974609e+003;4.1741025391e+003;4.1878203125e+003;4.1730771484e+003;4.1601284180e+003;4.1579487305e+003;4.1617949219e+003;4.1567949219e+003;4.1666665039e+003;
3.4062500000e+000;4.1208974609e+003;4.1384614258e+003;4.1597436523e+003;4.1503847656e+003;4.1424360352e+003;4.1592309570e+003;4.1652563477e+003;4.1769228516e+003;4.1630771484e+003;4.1492309570e+003;4.1538461914e+003;4.1556411133e+003;4.1498715820e+003;4.1570512695e+003;
3.4140625000e+000;4.1087177734e+003;4.1216665039e+003;4.1452563477e+003;4.1357690430e+003;4.1255126953e+003;4.1450000000e+003;4.1462822266e+003;4.1603847656e+003;4.1469228516e+003;4.1344873047e+003;4.1387177734e+003;4.1403847656e+003;4.1348715820e+003;4.1414101563e+003;
3.4218750000e+000;4.0364101563e+003;4.0378205566e+003;4.0673076172e+003;4.0567949219e+003;4.0403845215e+003;4.0655129395e+003;4.0573076172e+003;4.0591025391e+003;4.0576923828e+003;4.0405129395e+003;4.0464101563e+003;4.0520512695e+003;4.0435898438e+003;4.0556411133e+003;
3.4296875000e+000;4.0624357910e+003;4.0632050781e+003;4.0885898438e+003;4.0802563477e+003;4.0646154785e+003;4.0858974609e+003;4.0775642090e+003;4.0774357910e+003;4.0803845215e+003;4.0615385742e+003;4.0693588867e+003;4.0753845215e+003;4.0646154785e+003;4.0779487305e+003;
