Time (s);AF3;F7;F3;FC5;T7;P7;O1;O2;P8;T8;FC6;F4;F8;AF4;Sampling Rate
0.0000000000e+000;4.5273076172e+003;4.6561538086e+003;4.6530771484e+003;4.6151284180e+003;4.6410258789e+003;4.6247436523e+003;4.6362822266e+003;4.6311538086e+003;4.6121796875e+003;4.6302563477e+003;4.6253847656e+003;4.6424360352e+003;4.6341025391e+003;4.6389741211e+003;128
7.8125000000e-003;4.6429487305e+003;4.7748715820e+003;4.7687177734e+003;4.7282050781e+003;4.7555126953e+003;4.7192309570e+003;4.7360258789e+003;4.7566665039e+003;4.7438461914e+003;4.7628203125e+003;4.7500000000e+003;4.7612822266e+003;4.7569228516e+003;4.7621796875e+003;
1.5625000000e-002;4.6370512695e+003;4.7698715820e+003;4.7658974609e+003;4.7225639648e+003;4.7491025391e+003;4.7120512695e+003;4.7271796875e+003;4.7573076172e+003;4.7467949219e+003;4.7655126953e+003;4.7484614258e+003;4.7600000000e+003;4.7542309570e+003;4.7592309570e+003;
2.3437500000e-002;4.5912822266e+003;4.7371796875e+003;4.7279487305e+003;4.6806411133e+003;4.7126923828e+003;4.6783334961e+003;4.6878203125e+003;4.7200000000e+003;4.7089741211e+003;4.7229487305e+003;4.7124360352e+003;4.7232050781e+003;4.7220512695e+003;4.7214101563e+003;
3.1250000000e-002;4.4719228516e+003;4.6196152344e+003;4.6069228516e+003;4.5758974609e+003;4.6047436523e+003;4.5784614258e+003;4.5802563477e+003;4.6020512695e+003;4.5902563477e+003;4.5992309570e+003;4.5906411133e+003;4.5947436523e+003;4.5988461914e+003;4.5992309570e+003;
3.9062500000e-002;4.4651284180e+003;4.6100000000e+003;4.5964101563e+003;4.5697436523e+003;4.6002563477e+003;4.5760258789e+003;4.5739741211e+003;4.5930771484e+003;4.5847436523e+003;4.5921796875e+003;4.5816665039e+003;4.5823076172e+003;4.5891025391e+003;4.5885898438e+003;
4.6875000000e-002;4.3961538086e+003;4.5416665039e+003;4.5300000000e+003;4.5048715820e+003;4.5410258789e+003;4.5348715820e+003;4.5220512695e+003;4.5364101563e+003;4.5350000000e+003;4.5388461914e+003;4.5235898438e+003;4.5232050781e+003;4.5288461914e+003;4.5258974609e+003;
5.4687500000e-002;4.3416665039e+003;4.4865385742e+003;4.4764101563e+003;4.4526923828e+003;4.4874360352e+003;4.4876923828e+003;4.4756411133e+003;4.4833334961e+003;4.4803847656e+003;4.4803847656e+003;4.4682050781e+003;4.4673076172e+003;4.4732050781e+003;4.4705126953e+003;
6.2500000000e-002;4.3242309570e+003;4.4628203125e+003;4.4543588867e+003;4.4344873047e+003;4.4671796875e+003;4.4670512695e+003;4.4602563477e+003;4.4576923828e+003;4.4489741211e+003;4.4470512695e+003;4.4401284180e+003;4.4378203125e+003;4.4465385742e+003;4.4452563477e+003;
7.0312500000e-002;4.3335898438e+003;4.4678203125e+003;4.4619228516e+003;4.4439741211e+003;4.4746152344e+003;4.4733334961e+003;4.4671796875e+003;4.4632050781e+003;4.4503847656e+003;4.4511538086e+003;4.4448715820e+003;4.4461538086e+003;4.4521796875e+003;4.4521796875e+003;
7.8125000000e-002;4.3391025391e+003;4.4641025391e+003;4.4619228516e+003;4.4476923828e+003;4.4760258789e+003;4.4746152344e+003;4.4711538086e+003;4.4579487305e+003;4.4348715820e+003;4.4441025391e+003;4.4444873047e+003;4.4566665039e+003;4.4537177734e+003;4.4508974609e+003;
8.5937500000e-002;4.3584614258e+003;4.4824360352e+003;4.4787177734e+003;4.4630771484e+003;4.4917949219e+003;4.4883334961e+003;4.4871796875e+003;4.4739741211e+003;4.4505126953e+003;4.4624360352e+003;4.4646152344e+003;4.4737177734e+003;4.4732050781e+003;4.4689741211e+003;
9.3750000000e-002;4.3632050781e+003;4.4858974609e+003;4.4820512695e+003;4.4655126953e+003;4.4915385742e+003;4.4878203125e+003;4.4874360352e+003;4.4761538086e+003;4.4526923828e+003;4.4665385742e+003;4.4698715820e+003;4.4756411133e+003;4.4775639648e+003;4.4733334961e+003;
1.0156250000e-001;4.3508974609e+003;4.4719228516e+003;4.4685898438e+003;4.4529487305e+003;4.4739741211e+003;4.4714101563e+003;4.4706411133e+003;4.4597436523e+003;4.4358974609e+003;4.4502563477e+003;4.4560258789e+003;4.4608974609e+003;4.4632050781e+003;4.4598715820e+003;
1.0937500000e-001;4.4365385742e+003;4.5533334961e+003;4.5491025391e+003;4.5287177734e+003;4.5483334961e+003;4.5262822266e+003;4.5351284180e+003;4.5353847656e+003;4.5079487305e+003;4.5271796875e+003;4.5392309570e+003;4.5551284180e+003;4.5494873047e+003;4.5433334961e+003;
1.1718750000e-001;4.4252563477e+003;4.5401284180e+003;4.5382050781e+003;4.5147436523e+003;4.5333334961e+003;4.5105126953e+003;4.5187177734e+003;4.5271796875e+003;4.5032050781e+003;4.5214101563e+003;4.5306411133e+003;4.5471796875e+003;4.5414101563e+003;4.5339741211e+003;
1.2500000000e-001;4.4302563477e+003;4.5471796875e+003;4.5357690430e+003;4.5148715820e+003;4.5356411133e+003;4.5097436523e+003;4.5160258789e+003;4.5338461914e+003;4.5229487305e+003;4.5296152344e+003;4.5341025391e+003;4.5397436523e+003;4.5437177734e+003;4.5293588867e+003;
1.3281250000e-001;4.3507690430e+003;4.4689741211e+003;4.4578203125e+003;4.4430771484e+003;4.4611538086e+003;4.4439741211e+003;4.4488461914e+003;4.4656411133e+003;4.4535898438e+003;4.4511538086e+003;4.4517949219e+003;4.4614101563e+003;4.4601284180e+003;4.4506411133e+003;
1.4062500000e-001;4.3111538086e+003;4.4274360352e+003;4.4153847656e+003;4.4042309570e+003;4.4228203125e+003;4.4103847656e+003;4.4116665039e+003;4.4244873047e+003;4.4143588867e+003;4.4084614258e+003;4.4097436523e+003;4.4176923828e+003;4.4193588867e+003;4.4098715820e+003;
1.4843750000e-001;4.2539741211e+003;4.3634614258e+003;4.3502563477e+003;4.3482050781e+003;4.3697436523e+003;4.3714101563e+003;4.3576923828e+003;4.3688461914e+003;4.3629487305e+003;4.3538461914e+003;4.3520512695e+003;4.3489741211e+003;4.3593588867e+003;4.3487177734e+003;
1.5625000000e-001;4.2151284180e+003;4.3169228516e+003;4.3097436523e+003;4.3100000000e+003;4.3233334961e+003;4.3358974609e+003;4.3187177734e+003;4.3226923828e+003;4.3169228516e+003;4.3016665039e+003;4.3035898438e+003;4.3033334961e+003;4.3153847656e+003;4.3025639648e+003;
1.6406250000e-001;4.2102563477e+003;4.3106411133e+003;4.3037177734e+003;4.3033334961e+003;4.3162822266e+003;4.3298715820e+003;4.3125639648e+003;4.3165385742e+003;4.3124360352e+003;4.2964101563e+003;4.2969228516e+003;4.2982050781e+003;4.3103847656e+003;4.2962822266e+003;
1.7187500000e-001;4.1834614258e+003;4.2815385742e+003;4.2751284180e+003;4.2758974609e+003;4.2875639648e+003;4.3043588867e+003;4.2869228516e+003;4.2884614258e+003;4.2847436523e+003;4.2678203125e+003;4.2680771484e+003;4.2714101563e+003;4.2823076172e+003;4.2683334961e+003;
1.7968750000e-001;4.1584614258e+003;4.2524360352e+003;4.2439741211e+003;4.2501284180e+003;4.2574360352e+003;4.2767949219e+003;4.2638461914e+003;4.2532050781e+003;4.2456411133e+003;4.2291025391e+003;4.2346152344e+003;4.2414101563e+003;4.2498715820e+003;4.2394873047e+003;
1.8750000000e-001;4.1920512695e+003;4.2867949219e+003;4.2761538086e+003;4.2825639648e+003;4.2893588867e+003;4.3038461914e+003;4.2939741211e+003;4.2817949219e+003;4.2717949219e+003;4.2594873047e+003;4.2673076172e+003;4.2743588867e+003;4.2808974609e+003;4.2737177734e+003;
1.9531250000e-001;4.2207690430e+003;4.3158974609e+003;4.3060258789e+003;4.3100000000e+003;4.3161538086e+003;4.3257690430e+003;4.3173076172e+003;4.3082050781e+003;4.2966665039e+003;4.2894873047e+003;4.2984614258e+003;4.3060258789e+003;4.3083334961e+003;4.3051284180e+003;
2.0312500000e-001;4.1828203125e+003;4.2529487305e+003;4.2593588867e+003;4.2555126953e+003;4.2462822266e+003;4.2517949219e+003;4.2483334961e+003;4.2408974609e+003;4.2223076172e+003;4.2182050781e+003;4.2442309570e+003;4.2576923828e+003;4.2544873047e+003;4.2566665039e+003;
2.1093750000e-001;4.1819228516e+003;4.2514101563e+003;4.2576923828e+003;4.2539741211e+003;4.2415385742e+003;4.2456411133e+003;4.2420512695e+003;4.2394873047e+003;4.2202563477e+003;4.2180771484e+003;4.2419228516e+003;4.2585898438e+003;4.2535898438e+003;4.2570512695e+003;
2.1875000000e-001;4.1024360352e+003;4.1707690430e+003;4.1764101563e+003;4.1725639648e+003;4.1600000000e+003;4.1583334961e+003;4.1562822266e+003;4.1629487305e+003;4.1523076172e+003;4.1434614258e+003;4.1653847656e+003;4.1802563477e+003;4.1743588867e+003;4.1793588867e+003;
2.2656250000e-001;4.0911538086e+003;4.1561538086e+003;4.1617949219e+003;4.1603847656e+003;4.1460258789e+003;4.1452563477e+003;4.1416665039e+003;4.1542309570e+003;4.1456411133e+003;4.1317949219e+003;4.1511538086e+003;4.1655126953e+003;4.1607690430e+003;4.1637177734e+003;
2.3437500000e-001;4.0378205566e+003;4.0907692871e+003;4.0991025391e+003;4.1080771484e+003;4.0816667480e+003;4.0951281738e+003;4.0842307129e+003;4.1028203125e+003;4.0934614258e+003;4.0687180176e+003;4.0817949219e+003;4.1024360352e+003;4.0966665039e+003;4.0970512695e+003;
2.4218750000e-001;4.0167949219e+003;4.0639743652e+003;4.0726923828e+003;4.0856411133e+003;4.0573076172e+003;4.0762819824e+003;4.0624357910e+003;4.0778205566e+003;4.0694870605e+003;4.0412819824e+003;4.0543588867e+003;4.0762819824e+003;4.0708974609e+003;4.0715385742e+003;
2.5000000000e-001;4.0028205566e+003;4.0471794434e+003;4.0525642090e+003;4.0670512695e+003;4.0480769043e+003;4.0728205566e+003;4.0500000000e+003;4.0553845215e+003;4.0593588867e+003;4.0297436523e+003;4.0493588867e+003;4.0617949219e+003;4.0597436523e+003;4.0669230957e+003;
2.5781250000e-001;4.0180769043e+003;4.0591025391e+003;4.0610256348e+003;4.0835898438e+003;4.0611538086e+003;4.0942307129e+003;4.0725642090e+003;4.0638461914e+003;4.0675642090e+003;4.0292307129e+003;4.0483332520e+003;4.0580769043e+003;4.0600000000e+003;4.0643588867e+003;
2.6562500000e-001;4.0526923828e+003;4.0901281738e+003;4.0921794434e+003;4.1157690430e+003;4.0938461914e+003;4.1265385742e+003;4.1061538086e+003;4.0998715820e+003;4.1007690430e+003;4.0616667480e+003;4.0789743652e+003;4.0897436523e+003;4.0902563477e+003;4.0934614258e+003;
2.7343750000e-001;4.0447436523e+003;4.0738461914e+003;4.0789743652e+003;4.1003847656e+003;4.0791025391e+003;4.1166665039e+003;4.0974360352e+003;4.0935898438e+003;4.0907692871e+003;4.0550000000e+003;4.0746154785e+003;4.0826923828e+003;4.0808974609e+003;4.0847436523e+003;
2.8125000000e-001;4.0750000000e+003;4.1052563477e+003;4.1079487305e+003;4.1280771484e+003;4.1110258789e+003;4.1441025391e+003;4.1285898438e+003;4.1219228516e+003;4.1211538086e+003;4.0876923828e+003;4.1057690430e+003;4.1097436523e+003;4.1123076172e+003;4.1142309570e+003;
2.8906250000e-001;4.1435898438e+003;4.1760258789e+003;4.1788461914e+003;4.1944873047e+003;4.1841025391e+003;4.2096152344e+003;4.2002563477e+003;4.1919228516e+003;4.1925639648e+003;4.1650000000e+003;4.1737177734e+003;4.1782050781e+003;4.1814101563e+003;4.1812822266e+003;
2.9687500000e-001;4.1426923828e+003;4.1739741211e+003;4.1800000000e+003;4.1932050781e+003;4.1825639648e+003;4.2093588867e+003;4.2006411133e+003;4.1906411133e+003;4.1883334961e+003;4.1634614258e+003;4.1706411133e+003;4.1792309570e+003;4.1785898438e+003;4.1791025391e+003;
3.0468750000e-001;4.2073076172e+003;4.2376923828e+003;4.2441025391e+003;4.2482050781e+003;4.2379487305e+003;4.2541025391e+003;4.2515385742e+003;4.2443588867e+003;4.2367949219e+003;4.2205126953e+003;4.2357690430e+003;4.2461538086e+003;4.2429487305e+003;4.2485898438e+003;
3.1250000000e-001;4.2200000000e+003;4.2516665039e+003;4.2582050781e+003;4.2611538086e+003;4.2483334961e+003;4.2594873047e+003;4.2591025391e+003;4.2566665039e+003;4.2505126953e+003;4.2367949219e+003;4.2533334961e+003;4.2644873047e+003;4.2585898438e+003;4.2678203125e+003;
3.2031250000e-001;4.2007690430e+003;4.2314101563e+003;4.2403847656e+003;4.2444873047e+003;4.2267949219e+003;4.2361538086e+003;4.2364101563e+003;4.2366665039e+003;4.2300000000e+003;4.2188461914e+003;4.2361538086e+003;4.2507690430e+003;4.2407690430e+003;4.2526923828e+003;
3.2812500000e-001;4.1761538086e+003;4.2032050781e+003;4.2153847656e+003;4.2212822266e+003;4.1991025391e+003;4.2076923828e+003;4.2079487305e+003;4.2087177734e+003;4.1996152344e+003;4.1912822266e+003;4.2091025391e+003;4.2279487305e+003;4.2156411133e+003;4.2276923828e+003;
3.3593750000e-001;4.1551284180e+003;4.1742309570e+003;4.1929487305e+003;4.1947436523e+003;4.1678203125e+003;4.1717949219e+003;4.1711538086e+003;4.1829487305e+003;4.1744873047e+003;4.1647436523e+003;4.1807690430e+003;4.1998715820e+003;4.1897436523e+003;4.2016665039e+003;
3.4375000000e-001;4.1294873047e+003;4.1519228516e+003;4.1674360352e+003;4.1737177734e+003;4.1435898438e+003;4.1500000000e+003;4.1480771484e+003;4.1584614258e+003;4.1530771484e+003;4.1375639648e+003;4.1542309570e+003;4.1724360352e+003;4.1625639648e+003;4.1742309570e+003;
3.5156250000e-001;4.1603847656e+003;4.1885898438e+003;4.1980771484e+003;4.2106411133e+003;4.1864101563e+003;4.1908974609e+003;4.1815385742e+003;4.1974360352e+003;4.1957690430e+003;4.1784614258e+003;4.1885898438e+003;4.2024360352e+003;4.1974360352e+003;4.1967949219e+003;
3.5937500000e-001;4.1087177734e+003;4.1291025391e+003;4.1417949219e+003;4.1575639648e+003;4.1334614258e+003;4.1505126953e+003;4.1364101563e+003;4.1480771484e+003;4.1500000000e+003;4.1244873047e+003;4.1346152344e+003;4.1437177734e+003;4.1407690430e+003;4.1402563477e+003;
3.6718750000e-001;4.1200000000e+003;4.1407690430e+003;4.1482050781e+003;4.1674360352e+003;4.1439741211e+003;4.1625639648e+003;4.1485898438e+003;4.1582050781e+003;4.1623076172e+003;4.1332050781e+003;4.1442309570e+003;4.1507690430e+003;4.1510258789e+003;4.1502563477e+003;
3.7500000000e-001;4.0615385742e+003;4.0820512695e+003;4.0891025391e+003;4.1124360352e+003;4.0916667480e+003;4.1212822266e+003;4.1007690430e+003;4.1111538086e+003;4.1120512695e+003;4.0789743652e+003;4.0858974609e+003;4.0938461914e+003;4.0925642090e+003;4.0894870605e+003;
3.8281250000e-001;4.0414101563e+003;4.0606411133e+003;4.0728205566e+003;4.0916667480e+003;4.0667949219e+003;4.1005126953e+003;4.0834614258e+003;4.0915385742e+003;4.0866667480e+003;4.0578205566e+003;4.0601281738e+003;4.0710256348e+003;4.0673076172e+003;4.0710256348e+003;
3.9062500000e-001;4.0184614258e+003;4.0361538086e+003;4.0498718262e+003;4.0702563477e+003;4.0393588867e+003;4.0758974609e+003;4.0602563477e+003;4.0647436523e+003;4.0588461914e+003;4.0301281738e+003;4.0347436523e+003;4.0473076172e+003;4.0417949219e+003;4.0494870605e+003;
3.9843750000e-001;3.9956411133e+003;4.0088461914e+003;4.0174357910e+003;4.0443588867e+003;4.0098718262e+003;4.0425642090e+003;4.0293588867e+003;4.0220512695e+003;4.0132050781e+003;3.9907692871e+003;4.0050000000e+003;4.0150000000e+003;4.0114101563e+003;4.0178205566e+003;
4.0625000000e-001;3.9996154785e+003;4.0114101563e+003;4.0187180176e+003;4.0453845215e+003;4.0111538086e+003;4.0420512695e+003;4.0284614258e+003;4.0255129395e+003;4.0143588867e+003;3.9971794434e+003;4.0074357910e+003;4.0203845215e+003;4.0147436523e+003;4.0210256348e+003;
4.1406250000e-001;3.9464101563e+003;3.9511538086e+003;3.9637180176e+003;3.9893588867e+003;3.9516667480e+003;3.9817949219e+003;3.9694870605e+003;3.9703845215e+003;3.9557692871e+003;3.9414101563e+003;3.9467949219e+003;3.9710256348e+003;3.9573076172e+003;3.9685898438e+003;
4.2187500000e-001;3.9329487305e+003;3.9341025391e+003;3.9484614258e+003;3.9733332520e+003;3.9360256348e+003;3.9615385742e+003;3.9517949219e+003;3.9517949219e+003;3.9367949219e+003;3.9219230957e+003;3.9298718262e+003;3.9552563477e+003;3.9420512695e+003;3.9539743652e+003;
4.2968750000e-001;3.9410256348e+003;3.9371794434e+003;3.9502563477e+003;3.9743588867e+003;3.9310256348e+003;3.9492307129e+003;3.9396154785e+003;3.9542307129e+003;3.9366667480e+003;3.9252563477e+003;3.9423076172e+003;3.9561538086e+003;3.9520512695e+003;3.9580769043e+003;
4.3750000000e-001;3.9294870605e+003;3.9211538086e+003;3.9352563477e+003;3.9608974609e+003;3.9117949219e+003;3.9353845215e+003;3.9239743652e+003;3.9394870605e+003;3.9234614258e+003;3.9091025391e+003;3.9288461914e+003;3.9414101563e+003;3.9362819824e+003;3.9429487305e+003;
4.4531250000e-001;3.9420512695e+003;3.9285898438e+003;3.9419230957e+003;3.9689743652e+003;3.9182050781e+003;3.9446154785e+003;3.9333332520e+003;3.9456411133e+003;3.9335898438e+003;3.9152563477e+003;3.9360256348e+003;3.9485898438e+003;3.9423076172e+003;3.9508974609e+003;
4.5312500000e-001;3.9775642090e+003;3.9602563477e+003;3.9708974609e+003;3.9985898438e+003;3.9508974609e+003;3.9755129395e+003;3.9653845215e+003;3.9753845215e+003;3.9685898438e+003;3.9476923828e+003;3.9657692871e+003;3.9788461914e+003;3.9730769043e+003;3.9829487305e+003;
4.6093750000e-001;3.9132050781e+003;3.8926923828e+003;3.9000000000e+003;3.9334614258e+003;3.8938461914e+003;3.9201281738e+003;3.9001281738e+003;3.9160256348e+003;3.9166667480e+003;3.8917949219e+003;3.8978205566e+003;3.9056411133e+003;3.9101281738e+003;3.9164101563e+003;
4.6875000000e-001;3.9115385742e+003;3.8917949219e+003;3.8964101563e+003;3.9320512695e+003;3.8942307129e+003;3.9230769043e+003;3.8994870605e+003;3.9139743652e+003;3.9156411133e+003;3.8862819824e+003;3.8960256348e+003;3.9010256348e+003;3.9065385742e+003;3.9123076172e+003;
4.7656250000e-001;3.8816667480e+003;3.8596154785e+003;3.8646154785e+003;3.9024357910e+003;3.8644870605e+003;3.9071794434e+003;3.8778205566e+003;3.8842307129e+003;3.8878205566e+003;3.8503845215e+003;3.8558974609e+003;3.8689743652e+003;3.8703845215e+003;3.8767949219e+003;
4.8437500000e-001;3.8748718262e+003;3.8441025391e+003;3.8538461914e+003;3.8925642090e+003;3.8589743652e+003;3.9007692871e+003;3.8747436523e+003;3.8729487305e+003;3.8733332520e+003;3.8355129395e+003;3.8394870605e+003;3.8525642090e+003;3.8571794434e+003;3.8620512695e+003;
4.9218750000e-001;3.8693588867e+003;3.8387180176e+003;3.8502563477e+003;3.8891025391e+003;3.8539743652e+003;3.8967949219e+003;3.8712819824e+003;3.8697436523e+003;3.8682050781e+003;3.8298718262e+003;3.8366667480e+003;3.8492307129e+003;3.8515385742e+003;3.8569230957e+003;
5.0000000000e-001;3.8435898438e+003;3.8089743652e+003;3.8197436523e+003;3.8594870605e+003;3.8200000000e+003;3.8666667480e+003;3.8430769043e+003;3.8376923828e+003;3.8274357910e+003;3.7948718262e+003;3.8080769043e+003;3.8244870605e+003;3.8208974609e+003;3.8250000000e+003;
5.0781250000e-001;3.7962819824e+003;3.7423076172e+003;3.7719230957e+003;3.8041025391e+003;3.7529487305e+003;3.7982050781e+003;3.7810256348e+003;3.7746154785e+003;3.7583332520e+003;3.7333332520e+003;3.7529487305e+003;3.7798718262e+003;3.7566667480e+003;3.7751281738e+003;
5.1562500000e-001;3.7678205566e+003;3.7087180176e+003;3.7443588867e+003;3.7750000000e+003;3.7187180176e+003;3.7621794434e+003;3.7496154785e+003;3.7391025391e+003;3.7203845215e+003;3.6969230957e+003;3.7203845215e+003;3.7492307129e+003;3.7235898438e+003;3.7435898438e+003;
5.2343750000e-001;3.7607692871e+003;3.6914101563e+003;3.7270512695e+003;3.7589743652e+003;3.6950000000e+003;3.7321794434e+003;3.7200000000e+003;3.7167949219e+003;3.6984614258e+003;3.6802563477e+003;3.7057692871e+003;3.7288461914e+003;3.7124357910e+003;3.7261538086e+003;
5.3125000000e-001;3.7365385742e+003;3.6638461914e+003;3.7000000000e+003;3.7324357910e+003;3.6651281738e+003;3.7055129395e+003;3.6915385742e+003;3.6901281738e+003;3.6732050781e+003;3.6533332520e+003;3.6798718262e+003;3.7025642090e+003;3.6867949219e+003;3.7011538086e+003;
5.3906250000e-001;3.7326923828e+003;3.6611538086e+003;3.6942307129e+003;3.7260256348e+003;3.6564101563e+003;3.6960256348e+003;3.6862819824e+003;3.6853845215e+003;3.6696154785e+003;3.6483332520e+003;3.6775642090e+003;3.6983332520e+003;3.6857692871e+003;3.6982050781e+003;
5.4687500000e-001;3.7493588867e+003;3.6792307129e+003;3.7097436523e+003;3.7434614258e+003;3.6725642090e+003;3.7094870605e+003;3.7012819824e+003;3.7061538086e+003;3.6910256348e+003;3.6705129395e+003;3.6980769043e+003;3.7171794434e+003;3.7060256348e+003;3.7161538086e+003;
5.5468750000e-001;3.6797436523e+003;3.5979487305e+003;3.6274357910e+003;3.6755129395e+003;3.5992307129e+003;3.6434614258e+003;3.6253845215e+003;3.6370512695e+003;3.6341025391e+003;3.5976923828e+003;3.6214101563e+003;3.6410256348e+003;3.6251281738e+003;3.6378205566e+003;
5.6250000000e-001;3.6724357910e+003;3.5888461914e+003;3.6171794434e+003;3.6644870605e+003;3.5937180176e+003;3.6383332520e+003;3.6176923828e+003;3.6239743652e+003;3.6274357910e+003;3.5847436523e+003;3.6073076172e+003;3.6269230957e+003;3.6124357910e+003;3.6256411133e+003;
5.7031250000e-001;3.6757692871e+003;3.5939743652e+003;3.6206411133e+003;3.6652563477e+003;3.6012819824e+003;3.6453845215e+003;3.6211538086e+003;3.6252563477e+003;3.6335898438e+003;3.5888461914e+003;3.6074357910e+003;3.6264101563e+003;3.6148718262e+003;3.6267949219e+003;
5.7812500000e-001;3.6612819824e+003;3.5817949219e+003;3.6073076172e+003;3.6515385742e+003;3.5917949219e+003;3.6376923828e+003;3.6074357910e+003;3.6126923828e+003;3.6233332520e+003;3.5793588867e+003;3.5928205566e+003;3.6106411133e+003;3.6019230957e+003;3.6119230957e+003;
5.8593750000e-001;3.6283332520e+003;3.5458974609e+003;3.5556411133e+003;3.6206411133e+003;3.5744870605e+003;3.6296154785e+003;3.5921794434e+003;3.5902563477e+003;3.5983332520e+003;3.5512819824e+003;3.5587180176e+003;3.5674357910e+003;3.5692307129e+003;3.5748718262e+003;
5.9375000000e-001;3.6508974609e+003;3.5685898438e+003;3.5776923828e+003;3.6416667480e+003;3.5989743652e+003;3.6556411133e+003;3.6228205566e+003;3.6193588867e+003;3.6262819824e+003;3.5780769043e+003;3.5810256348e+003;3.5906411133e+003;3.5903845215e+003;3.5973076172e+003;
6.0156250000e-001;3.6666667480e+003;3.5770512695e+003;3.5921794434e+003;3.6530769043e+003;3.6066667480e+003;3.6747436523e+003;3.6480769043e+003;3.6353845215e+003;3.6389743652e+003;3.5902563477e+003;3.5888461914e+003;3.6006411133e+003;3.5947436523e+003;3.6048718262e+003;
6.0937500000e-001;3.6975642090e+003;3.5960256348e+003;3.6185898438e+003;3.6755129395e+003;3.6193588867e+003;3.6787180176e+003;3.6557692871e+003;3.6437180176e+003;3.6419230957e+003;3.6124357910e+003;3.6139743652e+003;3.6255129395e+003;3.6253845215e+003;3.6314101563e+003;
6.1718750000e-001;3.6823076172e+003;3.5782050781e+003;3.6052563477e+003;3.6598718262e+003;3.5971794434e+003;3.6551281738e+003;3.6350000000e+003;3.6182050781e+003;3.6148718262e+003;3.5880769043e+003;3.5952563477e+003;3.6087180176e+003;3.6075642090e+003;3.6142307129e+003;
6.2500000000e-001;3.7216667480e+003;3.6169230957e+003;3.6447436523e+003;3.6903845215e+003;3.6193588867e+003;3.6642307129e+003;3.6525642090e+003;3.6360256348e+003;3.6308974609e+003;3.6125642090e+003;3.6362819824e+003;3.6550000000e+003;3.6439743652e+003;3.6589743652e+003;
6.3281250000e-001;3.7419230957e+003;3.6352563477e+003;3.6670512695e+003;3.7065385742e+003;3.6307692871e+003;3.6615385742e+003;3.6567949219e+003;3.6425642090e+003;3.6305129395e+003;3.6232050781e+003;3.6550000000e+003;3.6765385742e+003;3.6652563477e+003;3.6785898438e+003;
6.4062500000e-001;3.7847436523e+003;3.6784614258e+003;3.7108974609e+003;3.7470512695e+003;3.6746154785e+003;3.6989743652e+003;3.6935898438e+003;3.6853845215e+003;3.6721794434e+003;3.6644870605e+003;3.6965385742e+003;3.7184614258e+003;3.7065385742e+003;3.7206411133e+003;
6.4843750000e-001;3.8089743652e+003;3.7034614258e+003;3.7367949219e+003;3.7696154785e+003;3.7007692871e+003;3.7229487305e+003;3.7143588867e+003;3.7147436523e+003;3.7012819824e+003;3.6914101563e+003;3.7212819824e+003;3.7452563477e+003;3.7298718262e+003;3.7466667480e+003;
6.5625000000e-001;3.7775642090e+003;3.6735898438e+003;3.7052563477e+003;3.7375642090e+003;3.6733332520e+003;3.7001281738e+003;3.6875642090e+003;3.6917949219e+003;3.6833332520e+003;3.6671794434e+003;3.6925642090e+003;3.7180769043e+003;3.7005129395e+003;3.7160256348e+003;
6.6406250000e-001;3.8146154785e+003;3.7164101563e+003;3.7341025391e+003;3.7723076172e+003;3.7173076172e+003;3.7442307129e+003;3.7276923828e+003;3.7305129395e+003;3.7388461914e+003;3.7188461914e+003;3.7338461914e+003;3.7483332520e+003;3.7424357910e+003;3.7464101563e+003;
6.7187500000e-001;3.7914101563e+003;3.6932050781e+003;3.7116667480e+003;3.7508974609e+003;3.6946154785e+003;3.7288461914e+003;3.7047436523e+003;3.7123076172e+003;3.7228205566e+003;3.6973076172e+003;3.7093588867e+003;3.7244870605e+003;3.7179487305e+003;3.7247436523e+003;
6.7968750000e-001;3.7482050781e+003;3.6491025391e+003;3.6691025391e+003;3.7101281738e+003;3.6525642090e+003;3.6947436523e+003;3.6646154785e+003;3.6729487305e+003;3.6843588867e+003;3.6516667480e+003;3.6632050781e+003;3.6782050781e+003;3.6728205566e+003;3.6820512695e+003;
6.8750000000e-001;3.7274357910e+003;3.6270512695e+003;3.6448718262e+003;3.6901281738e+003;3.6388461914e+003;3.6857692871e+003;3.6535898438e+003;3.6539743652e+003;3.6675642090e+003;3.6294870605e+003;3.6388461914e+003;3.6461538086e+003;3.6502563477e+003;3.6552563477e+003;
6.9531250000e-001;3.7412819824e+003;3.6414101563e+003;3.6579487305e+003;3.7043588867e+003;3.6575642090e+003;3.7052563477e+003;3.6729487305e+003;3.6708974609e+003;3.6848718262e+003;3.6494870605e+003;3.6543588867e+003;3.6596154785e+003;3.6648718262e+003;3.6674357910e+003;
7.0312500000e-001;3.7370512695e+003;3.6373076172e+003;3.6550000000e+003;3.7017949219e+003;3.6575642090e+003;3.7083332520e+003;3.6746154785e+003;3.6717949219e+003;3.6844870605e+003;3.6512819824e+003;3.6512819824e+003;3.6596154785e+003;3.6610256348e+003;3.6641025391e+003;
7.1093750000e-001;3.6715385742e+003;3.5720512695e+003;3.5941025391e+003;3.6433332520e+003;3.5998718262e+003;3.6535898438e+003;3.6262819824e+003;3.6130769043e+003;3.6274357910e+003;3.5837180176e+003;3.5826923828e+003;3.5911538086e+003;3.5917949219e+003;3.5957692871e+003;
7.1875000000e-001;3.6505129395e+003;3.5489743652e+003;3.5715385742e+003;3.6233332520e+003;3.5761538086e+003;3.6320512695e+003;3.6085898438e+003;3.5893588867e+003;3.6032050781e+003;3.5600000000e+003;3.5602563477e+003;3.5692307129e+003;3.5657692871e+003;3.5717949219e+003;
7.2656250000e-001;3.7055129395e+003;3.6003845215e+003;3.6203845215e+003;3.6694870605e+003;3.6178205566e+003;3.6637180176e+003;3.6521794434e+003;3.6301281738e+003;3.6329487305e+003;3.6071794434e+003;3.6053845215e+003;3.6258974609e+003;3.6139743652e+003;3.6215385742e+003;
7.3437500000e-001;3.7032050781e+003;3.5897436523e+003;3.6184614258e+003;3.6642307129e+003;3.5992307129e+003;3.6426923828e+003;3.6310256348e+003;3.6060256348e+003;3.6055129395e+003;3.5912819824e+003;3.6005129395e+003;3.6216667480e+003;3.6076923828e+003;3.6128205566e+003;
7.4218750000e-001;3.7310256348e+003;3.6176923828e+003;3.6442307129e+003;3.6908974609e+003;3.6247436523e+003;3.6616667480e+003;3.6521794434e+003;3.6261538086e+003;3.6234614258e+003;3.6135898438e+003;3.6288461914e+003;3.6492307129e+003;3.6341025391e+003;3.6414101563e+003;
7.5000000000e-001;3.7252563477e+003;3.6166667480e+003;3.6441025391e+003;3.6869230957e+003;3.6194870605e+003;3.6424357910e+003;3.6350000000e+003;3.6215385742e+003;3.6055129395e+003;3.6097436523e+003;3.6284614258e+003;3.6547436523e+003;3.6378205566e+003;3.6516667480e+003;
7.5781250000e-001;3.7101281738e+003;3.6011538086e+003;3.6294870605e+003;3.6710256348e+003;3.6060256348e+003;3.6269230957e+003;3.6169230957e+003;3.6074357910e+003;3.5915385742e+003;3.5950000000e+003;3.6119230957e+003;3.6383332520e+003;3.6239743652e+003;3.6366667480e+003;
7.6562500000e-001;3.7410256348e+003;3.6325642090e+003;3.6551281738e+003;3.6957692871e+003;3.6412819824e+003;3.6565385742e+003;3.6405129395e+003;3.6412819824e+003;3.6375642090e+003;3.6326923828e+003;3.6428205566e+003;3.6648718262e+003;3.6551281738e+003;3.6635898438e+003;
7.7343750000e-001;3.7356411133e+003;3.6271794434e+003;3.6478205566e+003;3.6903845215e+003;3.6375642090e+003;3.6532050781e+003;3.6353845215e+003;3.6392307129e+003;3.6410256348e+003;3.6315385742e+003;3.6385898438e+003;3.6596154785e+003;3.6491025391e+003;3.6566667480e+003;
7.8125000000e-001;3.7110256348e+003;3.6060256348e+003;3.6251281738e+003;3.6751281738e+003;3.6194870605e+003;3.6369230957e+003;3.6219230957e+003;3.6230769043e+003;3.6223076172e+003;3.6053845215e+003;3.6107692871e+003;3.6303845215e+003;3.6224357910e+003;3.6241025391e+003;
7.8906250000e-001;3.7411538086e+003;3.6403845215e+003;3.6578205566e+003;3.7069230957e+003;3.6543588867e+003;3.6708974609e+003;3.6553845215e+003;3.6600000000e+003;3.6594870605e+003;3.6407692871e+003;3.6433332520e+003;3.6624357910e+003;3.6557692871e+003;3.6550000000e+003;
7.9687500000e-001;3.7280769043e+003;3.6335898438e+003;3.6483332520e+003;3.6961538086e+003;3.6516667480e+003;3.6775642090e+003;3.6558974609e+003;3.6580769043e+003;3.6653845215e+003;3.6380769043e+003;3.6352563477e+003;3.6553845215e+003;3.6484614258e+003;3.6458974609e+003;
8.0468750000e-001;3.7032050781e+003;3.6093588867e+003;3.6225642090e+003;3.6708974609e+003;3.6317949219e+003;3.6630769043e+003;3.6389743652e+003;3.6326923828e+003;3.6434614258e+003;3.6120512695e+003;3.6087180176e+003;3.6279487305e+003;3.6235898438e+003;3.6194870605e+003;
8.1250000000e-001;3.7289743652e+003;3.6292307129e+003;3.6414101563e+003;3.6898718262e+003;3.6608974609e+003;3.6944870605e+003;3.6707692871e+003;3.6558974609e+003;3.6653845215e+003;3.6341025391e+003;3.6248718262e+003;3.6414101563e+003;3.6419230957e+003;3.6338461914e+003;
8.2031250000e-001;3.7317949219e+003;3.6303845215e+003;3.6441025391e+003;3.6919230957e+003;3.6617949219e+003;3.6964101563e+003;3.6755129395e+003;3.6583332520e+003;3.6687180176e+003;3.6355129395e+003;3.6255129395e+003;3.6441025391e+003;3.6416667480e+003;3.6348718262e+003;
8.2812500000e-001;3.7434614258e+003;3.6430769043e+003;3.6558974609e+003;3.7029487305e+003;3.6732050781e+003;3.7079487305e+003;3.6908974609e+003;3.6679487305e+003;3.6808974609e+003;3.6455129395e+003;3.6360256348e+003;3.6558974609e+003;3.6523076172e+003;3.6461538086e+003;
8.3593750000e-001;3.8596154785e+003;3.7687180176e+003;3.7820512695e+003;3.8157692871e+003;3.7960256348e+003;3.8184614258e+003;3.8097436523e+003;3.7824357910e+003;3.7834614258e+003;3.7760256348e+003;3.7689743652e+003;3.7860256348e+003;3.7815385742e+003;3.7694870605e+003;
8.4375000000e-001;3.8932050781e+003;3.8024357910e+003;3.8155129395e+003;3.8425642090e+003;3.8237180176e+003;3.8398718262e+003;3.8369230957e+003;3.8092307129e+003;3.8091025391e+003;3.8057692871e+003;3.8025642090e+003;3.8192307129e+003;3.8178205566e+003;3.8039743652e+003;
8.5156250000e-001;3.8900000000e+003;3.8024357910e+003;3.8191025391e+003;3.8342307129e+003;3.8076923828e+003;3.8165385742e+003;3.8153845215e+003;3.8023076172e+003;3.7998718262e+003;3.8067949219e+003;3.8065385742e+003;3.8305129395e+003;3.8255129395e+003;3.8160256348e+003;
8.5937500000e-001;3.8860256348e+003;3.7994870605e+003;3.8165385742e+003;3.8347436523e+003;3.8041025391e+003;3.8006411133e+003;3.8038461914e+003;3.7996154785e+003;3.7951281738e+003;3.8006411133e+003;3.8093588867e+003;3.8330769043e+003;3.8233332520e+003;3.8146154785e+003;
8.6718750000e-001;3.9005129395e+003;3.8162819824e+003;3.8325642090e+003;3.8506411133e+003;3.8198718262e+003;3.8128205566e+003;3.8175642090e+003;3.8185898438e+003;3.8152563477e+003;3.8198718262e+003;3.8258974609e+003;3.8497436523e+003;3.8408974609e+003;3.8315385742e+003;
8.7500000000e-001;3.8123076172e+003;3.7302563477e+003;3.7425642090e+003;3.7710256348e+003;3.7314101563e+003;3.7352563477e+003;3.7379487305e+003;3.7393588867e+003;3.7350000000e+003;3.7338461914e+003;3.7311538086e+003;3.7573076172e+003;3.7524357910e+003;3.7403845215e+003;
8.8281250000e-001;3.8087180176e+003;3.7266667480e+003;3.7360256348e+003;3.7673076172e+003;3.7284614258e+003;3.7342307129e+003;3.7358974609e+003;3.7376923828e+003;3.7333332520e+003;3.7301281738e+003;3.7269230957e+003;3.7506411133e+003;3.7475642090e+003;3.7351281738e+003;
8.9062500000e-001;3.7857692871e+003;3.7021794434e+003;3.7152563477e+003;3.7455129395e+003;3.7093588867e+003;3.7226923828e+003;3.7185898438e+003;3.7206411133e+003;3.7205129395e+003;3.7119230957e+003;3.7089743652e+003;3.7296154785e+003;3.7233332520e+003;3.7153845215e+003;
8.9843750000e-001;3.7637180176e+003;3.6796154785e+003;3.6957692871e+003;3.7256411133e+003;3.6901281738e+003;3.7087180176e+003;3.7011538086e+003;3.6983332520e+003;3.7014101563e+003;3.6908974609e+003;3.6880769043e+003;3.7089743652e+003;3.7001281738e+003;3.6947436523e+003;
9.0625000000e-001;3.7780769043e+003;3.7000000000e+003;3.7083332520e+003;3.7435898438e+003;3.7138461914e+003;3.7373076172e+003;3.7271794434e+003;3.7148718262e+003;3.7234614258e+003;3.7110256348e+003;3.7058974609e+003;3.7217949219e+003;3.7189743652e+003;3.7116667480e+003;
9.1406250000e-001;3.7589743652e+003;3.6820512695e+003;3.6884614258e+003;3.7267949219e+003;3.6969230957e+003;3.7225642090e+003;3.7135898438e+003;3.7007692871e+003;3.7085898438e+003;3.6917949219e+003;3.6876923828e+003;3.7024357910e+003;3.7002563477e+003;3.6938461914e+003;
9.2187500000e-001;3.7302563477e+003;3.6514101563e+003;3.6573076172e+003;3.7005129395e+003;3.6707692871e+003;3.6950000000e+003;3.6884614258e+003;3.6696154785e+003;3.6753845215e+003;3.6533332520e+003;3.6516667480e+003;3.6693588867e+003;3.6638461914e+003;3.6610256348e+003;
9.2968750000e-001;3.7501281738e+003;3.6696154785e+003;3.6758974609e+003;3.7182050781e+003;3.6898718262e+003;3.7103845215e+003;3.7034614258e+003;3.6826923828e+003;3.6884614258e+003;3.6693588867e+003;3.6673076172e+003;3.6876923828e+003;3.6806411133e+003;3.6788461914e+003;
9.3750000000e-001;3.7588461914e+003;3.6711538086e+003;3.6838461914e+003;3.7173076172e+003;3.6844870605e+003;3.7087180176e+003;3.7023076172e+003;3.6800000000e+003;3.6841025391e+003;3.6728205566e+003;3.6767949219e+003;3.6971794434e+003;3.6944870605e+003;3.6902563477e+003;
9.4531250000e-001;3.7651281738e+003;3.6774357910e+003;3.6900000000e+003;3.7216667480e+003;3.6887180176e+003;3.7121794434e+003;3.7089743652e+003;3.6874357910e+003;3.6910256348e+003;3.6800000000e+003;3.6850000000e+003;3.7024357910e+003;3.7039743652e+003;3.6960256348e+003;
9.5312500000e-001;3.7864101563e+003;3.7000000000e+003;3.7120512695e+003;3.7423076172e+003;3.7101281738e+003;3.7302563477e+003;3.7298718262e+003;3.7124357910e+003;3.7155129395e+003;3.7069230957e+003;3.7082050781e+003;3.7244870605e+003;3.7275642090e+003;3.7166667480e+003;
9.6093750000e-001;3.7997436523e+003;3.7079487305e+003;3.7271794434e+003;3.7519230957e+003;3.7060256348e+003;3.7253845215e+003;3.7248718262e+003;3.7180769043e+003;3.7097436523e+003;3.7124357910e+003;3.7173076172e+003;3.7435898438e+003;3.7351281738e+003;3.7328205566e+003;
9.6875000000e-001;3.8348718262e+003;3.7442307129e+003;3.7615385742e+003;3.7847436523e+003;3.7402563477e+003;3.7512819824e+003;3.7532050781e+003;3.7494870605e+003;3.7426923828e+003;3.7483332520e+003;3.7546154785e+003;3.7794870605e+003;3.7702563477e+003;3.7688461914e+003;
9.7656250000e-001;3.8161538086e+003;3.7296154785e+003;3.7456411133e+003;3.7682050781e+003;3.7239743652e+003;3.7238461914e+003;3.7258974609e+003;3.7226923828e+003;3.7187180176e+003;3.7310256348e+003;3.7332050781e+003;3.7638461914e+003;3.7484614258e+003;3.7506411133e+003;
9.8437500000e-001;3.8594870605e+003;3.7794870605e+003;3.7939743652e+003;3.8110256348e+003;3.7747436523e+003;3.7664101563e+003;3.7678205566e+003;3.7764101563e+003;3.7769230957e+003;3.7848718262e+003;3.7921794434e+003;3.8134614258e+003;3.8023076172e+003;3.8012819824e+003;
9.9218750000e-001;3.8612819824e+003;3.7826923828e+003;3.7975642090e+003;3.8160256348e+003;3.7803845215e+003;3.7738461914e+003;3.7747436523e+003;3.7825642090e+003;3.7843588867e+003;3.7903845215e+003;3.7956411133e+003;3.8152563477e+003;3.8043588867e+003;3.8037180176e+003;
1.0000000000e+000;3.9326923828e+003;3.8723076172e+003;3.8712819824e+003;3.8961538086e+003;3.8729487305e+003;3.8676923828e+003;3.8698718262e+003;3.8680769043e+003;3.8734614258e+003;3.8816667480e+003;3.8743588867e+003;3.8858974609e+003;3.8856411133e+003;3.8802563477e+003;
1.0078125000e+000;3.9187180176e+003;3.8644870605e+003;3.8600000000e+003;3.8856411133e+003;3.8644870605e+003;3.8644870605e+003;3.8643588867e+003;3.8607692871e+003;3.8676923828e+003;3.8764101563e+003;3.8660256348e+003;3.8776923828e+003;3.8775642090e+003;3.8711538086e+003;
1.0156250000e+000;3.8651281738e+003;3.8114101563e+003;3.8064101563e+003;3.8337180176e+003;3.8143588867e+003;3.8261538086e+003;3.8219230957e+003;3.8066667480e+003;3.8128205566e+003;3.8210256348e+003;3.8094870605e+003;3.8256411133e+003;3.8228205566e+003;3.8174357910e+003;
1.0234375000e+000;3.8814101563e+003;3.8262819824e+003;3.8203845215e+003;3.8479487305e+003;3.8321794434e+003;3.8437180176e+003;3.8398718262e+003;3.8200000000e+003;3.8242307129e+003;3.8338461914e+003;3.8210256348e+003;3.8378205566e+003;3.8344870605e+003;3.8301281738e+003;
1.0312500000e+000;3.8792307129e+003;3.8298718262e+003;3.8212819824e+003;3.8528205566e+003;3.8406411133e+003;3.8555129395e+003;3.8508974609e+003;3.8321794434e+003;3.8360256348e+003;3.8433332520e+003;3.8267949219e+003;3.8392307129e+003;3.8343588867e+003;3.8271794434e+003;
1.0390625000e+000;3.8570512695e+003;3.8092307129e+003;3.7988461914e+003;3.8330769043e+003;3.8211538086e+003;3.8392307129e+003;3.8352563477e+003;3.8147436523e+003;3.8192307129e+003;3.8224357910e+003;3.8092307129e+003;3.8194870605e+003;3.8169230957e+003;3.8070512695e+003;
1.0468750000e+000;3.8915385742e+003;3.8420512695e+003;3.8303845215e+003;3.8653845215e+003;3.8558974609e+003;3.8698718262e+003;3.8716667480e+003;3.8547436523e+003;3.8553845215e+003;3.8561538086e+003;3.8494870605e+003;3.8579487305e+003;3.8575642090e+003;3.8461538086e+003;
1.0546875000e+000;3.9083332520e+003;3.8561538086e+003;3.8492307129e+003;3.8811538086e+003;3.8705129395e+003;3.8812819824e+003;3.8855129395e+003;3.8738461914e+003;3.8698718262e+003;3.8728205566e+003;3.8674357910e+003;3.8784614258e+003;3.8737180176e+003;3.8641025391e+003;
1.0625000000e+000;3.9491025391e+003;3.8966667480e+003;3.9006411133e+003;3.9197436523e+003;3.9078205566e+003;3.9064101563e+003;3.9144870605e+003;3.9085898438e+003;3.8966667480e+003;3.9101281738e+003;3.9112819824e+003;3.9244870605e+003;3.9139743652e+003;3.9050000000e+003;
1.0703125000e+000;3.9891025391e+003;3.9412819824e+003;3.9424357910e+003;3.9585898438e+003;3.9489743652e+003;3.9425642090e+003;3.9502563477e+003;3.9478205566e+003;3.9367949219e+003;3.9546154785e+003;3.9558974609e+003;3.9661538086e+003;3.9600000000e+003;3.9488461914e+003;
1.0781250000e+000;4.0116667480e+003;3.9687180176e+003;3.9667949219e+003;3.9814101563e+003;3.9730769043e+003;3.9634614258e+003;3.9703845215e+003;3.9714101563e+003;3.9620512695e+003;3.9835898438e+003;3.9833332520e+003;3.9916667480e+003;3.9885898438e+003;3.9758974609e+003;
1.0859375000e+000;4.0137180176e+003;3.9746154785e+003;3.9700000000e+003;3.9847436523e+003;3.9765385742e+003;3.9644870605e+003;3.9715385742e+003;3.9728205566e+003;3.9658974609e+003;3.9900000000e+003;3.9879487305e+003;3.9956411133e+003;3.9933332520e+003;3.9805129395e+003;
1.0937500000e+000;4.0838461914e+003;4.0482050781e+003;4.0358974609e+003;4.0493588867e+003;4.0429487305e+003;4.0148718262e+003;4.0223076172e+003;4.0325642090e+003;4.0375642090e+003;4.0678205566e+003;4.0602563477e+003;4.0628205566e+003;4.0608974609e+003;4.0520512695e+003;
1.1015625000e+000;4.0611538086e+003;4.0261538086e+003;4.0148718262e+003;4.0276923828e+003;4.0206411133e+003;3.9942307129e+003;3.9979487305e+003;4.0120512695e+003;4.0185898438e+003;4.0464101563e+003;4.0376923828e+003;4.0411538086e+003;4.0385898438e+003;4.0323076172e+003;
1.1093750000e+000;4.0441025391e+003;4.0229487305e+003;4.0062819824e+003;4.0169230957e+003;4.0208974609e+003;3.9920512695e+003;3.9947436523e+003;3.9984614258e+003;4.0135898438e+003;4.0321794434e+003;4.0211538086e+003;4.0256411133e+003;4.0223076172e+003;4.0184614258e+003;
1.1171875000e+000;4.0597436523e+003;4.0387180176e+003;4.0326923828e+003;4.0364101563e+003;4.0444870605e+003;4.0284614258e+003;4.0282050781e+003;4.0173076172e+003;4.0367949219e+003;4.0542307129e+003;4.0432050781e+003;4.0494870605e+003;4.0417949219e+003;4.0379487305e+003;
1.1250000000e+000;4.1187177734e+003;4.1138461914e+003;4.0921794434e+003;4.1035898438e+003;4.1146152344e+003;4.1029487305e+003;4.1000000000e+003;4.0871794434e+003;4.0998715820e+003;4.1234614258e+003;4.1015385742e+003;4.1046152344e+003;4.1067949219e+003;4.1052563477e+003;
1.1328125000e+000;4.0769230957e+003;4.0730769043e+003;4.0526923828e+003;4.0656411133e+003;4.0741025391e+003;4.0696154785e+003;4.0679487305e+003;4.0515385742e+003;4.0582050781e+003;4.0794870605e+003;4.0587180176e+003;4.0642307129e+003;4.0658974609e+003;4.0658974609e+003;
1.1406250000e+000;4.0884614258e+003;4.0876923828e+003;4.0684614258e+003;4.0797436523e+003;4.0933332520e+003;4.0911538086e+003;4.0957692871e+003;4.0753845215e+003;4.0746154785e+003;4.0924357910e+003;4.0739743652e+003;4.0814101563e+003;4.0820512695e+003;4.0791025391e+003;
1.1484375000e+000;4.1083334961e+003;4.1116665039e+003;4.0916667480e+003;4.1020512695e+003;4.1192309570e+003;4.1148715820e+003;4.1219228516e+003;4.1047436523e+003;4.1002563477e+003;4.1191025391e+003;4.0997436523e+003;4.1076923828e+003;4.1053847656e+003;4.1010258789e+003;
1.1562500000e+000;4.0712819824e+003;4.0787180176e+003;4.0626923828e+003;4.0735898438e+003;4.0891025391e+003;4.0796154785e+003;4.0938461914e+003;4.0843588867e+003;4.0647436523e+003;4.0866667480e+003;4.0752563477e+003;4.0789743652e+003;4.0733332520e+003;4.0697436523e+003;
1.1640625000e+000;4.0793588867e+003;4.0847436523e+003;4.0726923828e+003;4.0802563477e+003;4.0942307129e+003;4.0816667480e+003;4.0978203125e+003;4.0920512695e+003;4.0723076172e+003;4.0951281738e+003;4.0864101563e+003;4.0889743652e+003;4.0844870605e+003;4.0823076172e+003;
1.1718750000e+000;4.0689743652e+003;4.0708974609e+003;4.0671794434e+003;4.0661538086e+003;4.0715385742e+003;4.0605129395e+003;4.0741025391e+003;4.0753845215e+003;4.0624357910e+003;4.0861538086e+003;4.0779487305e+003;4.0876923828e+003;4.0779487305e+003;4.0811538086e+003;
1.1796875000e+000;4.0558974609e+003;4.0574357910e+003;4.0533332520e+003;4.0510256348e+003;4.0517949219e+003;4.0414101563e+003;4.0538461914e+003;4.0539743652e+003;4.0453845215e+003;4.0693588867e+003;4.0612819824e+003;4.0756411133e+003;4.0632050781e+003;4.0666667480e+003;
1.1875000000e+000;4.1360258789e+003;4.1405126953e+003;4.1257690430e+003;4.1266665039e+003;4.1285898438e+003;4.0958974609e+003;4.1115385742e+003;4.1185898438e+003;4.1212822266e+003;4.1496152344e+003;4.1397436523e+003;4.1544873047e+003;4.1420512695e+003;4.1428203125e+003;
1.1953125000e+000;4.1356411133e+003;4.1423076172e+003;4.1280771484e+003;4.1307690430e+003;4.1319228516e+003;4.0961538086e+003;4.1101284180e+003;4.1228203125e+003;4.1271796875e+003;4.1557690430e+003;4.1444873047e+003;4.1570512695e+003;4.1455126953e+003;4.1476923828e+003;
1.2031250000e+000;4.1200000000e+003;4.1302563477e+003;4.1161538086e+003;4.1208974609e+003;4.1214101563e+003;4.0862819824e+003;4.0969228516e+003;4.1115385742e+003;4.1167949219e+003;4.1451284180e+003;4.1325639648e+003;4.1423076172e+003;4.1342309570e+003;4.1364101563e+003;
1.2109375000e+000;4.1202563477e+003;4.1353847656e+003;4.1185898438e+003;4.1244873047e+003;4.1270512695e+003;4.0919230957e+003;4.0994873047e+003;4.1126923828e+003;4.1194873047e+003;4.1482050781e+003;4.1339741211e+003;4.1401284180e+003;4.1379487305e+003;4.1380771484e+003;
1.2187500000e+000;4.1465385742e+003;4.1741025391e+003;4.1517949219e+003;4.1551284180e+003;4.1694873047e+003;4.1353847656e+003;4.1287177734e+003;4.1267949219e+003;4.1567949219e+003;4.1805126953e+003;4.1621796875e+003;4.1629487305e+003;4.1697436523e+003;4.1680771484e+003;
1.2265625000e+000;4.1476923828e+003;4.1788461914e+003;4.1541025391e+003;4.1594873047e+003;4.1761538086e+003;4.1442309570e+003;4.1352563477e+003;4.1269228516e+003;4.1594873047e+003;4.1829487305e+003;4.1648715820e+003;4.1635898438e+003;4.1746152344e+003;4.1717949219e+003;
1.2343750000e+000;4.1707690430e+003;4.2138461914e+003;4.1832050781e+003;4.1898715820e+003;4.2153847656e+003;4.1861538086e+003;4.1767949219e+003;4.1701284180e+003;4.1989741211e+003;4.2267949219e+003;4.1996152344e+003;4.1925639648e+003;4.2094873047e+003;4.2015385742e+003;
1.2421875000e+000;4.1062822266e+003;4.1442309570e+003;4.1230771484e+003;4.1306411133e+003;4.1544873047e+003;4.1352563477e+003;4.1337177734e+003;4.1170512695e+003;4.1410258789e+003;4.1569228516e+003;4.1356411133e+003;4.1317949219e+003;4.1403847656e+003;4.1357690430e+003;
1.2500000000e+000;4.1097436523e+003;4.1475639648e+003;4.1267949219e+003;4.1347436523e+003;4.1576923828e+003;4.1428203125e+003;4.1419228516e+003;4.1260258789e+003;4.1447436523e+003;4.1602563477e+003;4.1387177734e+003;4.1387177734e+003;4.1447436523e+003;4.1411538086e+003;
1.2578125000e+000;4.0624357910e+003;4.0976923828e+003;4.0823076172e+003;4.0932050781e+003;4.1067949219e+003;4.1025639648e+003;4.1093588867e+003;4.0955129395e+003;4.0867949219e+003;4.1052563477e+003;4.0847436523e+003;4.0944870605e+003;4.0921794434e+003;4.0915385742e+003;
1.2656250000e+000;4.0887180176e+003;4.1165385742e+003;4.1114101563e+003;4.1166665039e+003;4.1274360352e+003;4.1187177734e+003;4.1353847656e+003;4.1242309570e+003;4.0988461914e+003;4.1215385742e+003;4.1100000000e+003;4.1205126953e+003;4.1125639648e+003;4.1153847656e+003;
1.2734375000e+000;4.0737180176e+003;4.1010258789e+003;4.0984614258e+003;4.1033334961e+003;4.1115385742e+003;4.1048715820e+003;4.1221796875e+003;4.1111538086e+003;4.0882050781e+003;4.1075639648e+003;4.0980771484e+003;4.1102563477e+003;4.1003847656e+003;4.1038461914e+003;
1.2812500000e+000;4.1130771484e+003;4.1421796875e+003;4.1411538086e+003;4.1373076172e+003;4.1491025391e+003;4.1307690430e+003;4.1538461914e+003;4.1505126953e+003;4.1443588867e+003;4.1612822266e+003;4.1474360352e+003;4.1547436523e+003;4.1471796875e+003;4.1471796875e+003;
1.2890625000e+000;4.1083334961e+003;4.1341025391e+003;4.1373076172e+003;4.1296152344e+003;4.1400000000e+003;4.1201284180e+003;4.1426923828e+003;4.1446152344e+003;4.1403847656e+003;4.1614101563e+003;4.1433334961e+003;4.1507690430e+003;4.1425639648e+003;4.1416665039e+003;
1.2968750000e+000;4.0621794434e+003;4.0805129395e+003;4.0876923828e+003;4.0784614258e+003;4.0835898438e+003;4.0656411133e+003;4.0853845215e+003;4.0893588867e+003;4.0903845215e+003;4.1107690430e+003;4.0935898438e+003;4.1026923828e+003;4.0966665039e+003;4.0948718262e+003;
1.3046875000e+000;4.0665385742e+003;4.0861538086e+003;4.0888461914e+003;4.0805129395e+003;4.0864101563e+003;4.0658974609e+003;4.0844870605e+003;4.0896154785e+003;4.0966665039e+003;4.1147436523e+003;4.0989741211e+003;4.1061538086e+003;4.1046152344e+003;4.1024360352e+003;
1.3125000000e+000;4.0452563477e+003;4.0674357910e+003;4.0692307129e+003;4.0614101563e+003;4.0667949219e+003;4.0407692871e+003;4.0514101563e+003;4.0653845215e+003;4.0838461914e+003;4.1069228516e+003;4.0832050781e+003;4.0893588867e+003;4.0911538086e+003;4.0885898438e+003;
1.3203125000e+000;4.0320512695e+003;4.0491025391e+003;4.0558974609e+003;4.0461538086e+003;4.0491025391e+003;4.0248718262e+003;4.0326923828e+003;4.0433332520e+003;4.0635898438e+003;4.0865385742e+003;4.0644870605e+003;4.0710256348e+003;4.0721794434e+003;4.0693588867e+003;
1.3281250000e+000;4.0479487305e+003;4.0607692871e+003;4.0696154785e+003;4.0578205566e+003;4.0596154785e+003;4.0371794434e+003;4.0417949219e+003;4.0488461914e+003;4.0726923828e+003;4.0933332520e+003;4.0743588867e+003;4.0794870605e+003;4.0814101563e+003;4.0789743652e+003;
1.3359375000e+000;4.0735898438e+003;4.0864101563e+003;4.0934614258e+003;4.0816667480e+003;4.0832050781e+003;4.0626923828e+003;4.0635898438e+003;4.0693588867e+003;4.0980771484e+003;4.1146152344e+003;4.0971796875e+003;4.1008974609e+003;4.1033334961e+003;4.1026923828e+003;
1.3437500000e+000;4.0247436523e+003;4.0497436523e+003;4.0489743652e+003;4.0526923828e+003;4.0584614258e+003;4.0482050781e+003;4.0439743652e+003;4.0356411133e+003;4.0626923828e+003;4.0707692871e+003;4.0505129395e+003;4.0567949219e+003;4.0596154785e+003;4.0596154785e+003;
1.3515625000e+000;4.0362819824e+003;4.0593588867e+003;4.0617949219e+003;4.0630769043e+003;4.0703845215e+003;4.0626923828e+003;4.0593588867e+003;4.0505129395e+003;4.0742307129e+003;4.0820512695e+003;4.0616667480e+003;4.0696154785e+003;4.0721794434e+003;4.0712819824e+003;
1.3593750000e+000;3.9841025391e+003;3.9969230957e+003;4.0116667480e+003;4.0094870605e+003;4.0125642090e+003;4.0205129395e+003;4.0216667480e+003;4.0085898438e+003;4.0214101563e+003;4.0188461914e+003;4.0041025391e+003;4.0226923828e+003;4.0124357910e+003;4.0214101563e+003;
1.3671875000e+000;4.0128205566e+003;4.0329487305e+003;4.0382050781e+003;4.0416667480e+003;4.0556411133e+003;4.0552563477e+003;4.0638461914e+003;4.0517949219e+003;4.0466667480e+003;4.0543588867e+003;4.0341025391e+003;4.0489743652e+003;4.0406411133e+003;4.0497436523e+003;
1.3750000000e+000;3.9974357910e+003;4.0183332520e+003;4.0260256348e+003;4.0258974609e+003;4.0385898438e+003;4.0412819824e+003;4.0500000000e+003;4.0385898438e+003;4.0300000000e+003;4.0400000000e+003;4.0192307129e+003;4.0348718262e+003;4.0243588867e+003;4.0339743652e+003;
1.3828125000e+000;4.0441025391e+003;4.0596154785e+003;4.0738461914e+003;4.0641025391e+003;4.0708974609e+003;4.0703845215e+003;4.0902563477e+003;4.0726923828e+003;4.0629487305e+003;4.0770512695e+003;4.0635898438e+003;4.0852563477e+003;4.0674357910e+003;4.0747436523e+003;
1.3906250000e+000;4.0642307129e+003;4.0767949219e+003;4.0911538086e+003;4.0860256348e+003;4.0851281738e+003;4.0748718262e+003;4.0953845215e+003;4.0933332520e+003;4.0871794434e+003;4.1087177734e+003;4.0878205566e+003;4.1091025391e+003;4.0923076172e+003;4.1043588867e+003;
1.3984375000e+000;4.0638461914e+003;4.0787180176e+003;4.0902563477e+003;4.0842307129e+003;4.0850000000e+003;4.0712819824e+003;4.0905129395e+003;4.0929487305e+003;4.0915385742e+003;4.1119228516e+003;4.0887180176e+003;4.1075639648e+003;4.0937180176e+003;4.1065385742e+003;
1.4062500000e+000;4.0428205566e+003;4.0630769043e+003;4.0735898438e+003;4.0632050781e+003;4.0614101563e+003;4.0419230957e+003;4.0600000000e+003;4.0723076172e+003;4.0858974609e+003;4.0970512695e+003;4.0765385742e+003;4.0930769043e+003;4.0837180176e+003;4.0893588867e+003;
1.4140625000e+000;4.0197436523e+003;4.0384614258e+003;4.0492307129e+003;4.0400000000e+003;4.0347436523e+003;4.0175642090e+003;4.0337180176e+003;4.0429487305e+003;4.0589743652e+003;4.0688461914e+003;4.0497436523e+003;4.0680769043e+003;4.0591025391e+003;4.0635898438e+003;
1.4218750000e+000;4.0356411133e+003;4.0556411133e+003;4.0579487305e+003;4.0521794434e+003;4.0526923828e+003;4.0342307129e+003;4.0423076172e+003;4.0483332520e+003;4.0689743652e+003;4.0805129395e+003;4.0575642090e+003;4.0767949219e+003;4.0676923828e+003;4.0758974609e+003;
1.4296875000e+000;4.0348718262e+003;4.0593588867e+003;4.0574357910e+003;4.0538461914e+003;4.0580769043e+003;4.0405129395e+003;4.0426923828e+003;4.0512819824e+003;4.0733332520e+003;4.0850000000e+003;4.0587180176e+003;4.0764101563e+003;4.0662819824e+003;4.0769230957e+003;
1.4375000000e+000;4.0050000000e+003;4.0344870605e+003;4.0308974609e+003;4.0303845215e+003;4.0351281738e+003;4.0212819824e+003;4.0189743652e+003;4.0280769043e+003;4.0510256348e+003;4.0607692871e+003;4.0328205566e+003;4.0478205566e+003;4.0379487305e+003;4.0491025391e+003;
1.4453125000e+000;3.9652563477e+003;4.0006411133e+003;3.9946154785e+003;3.9997436523e+003;4.0044870605e+003;3.9952563477e+003;3.9912819824e+003;3.9917949219e+003;4.0191025391e+003;4.0228205566e+003;3.9939743652e+003;4.0017949219e+003;4.0017949219e+003;4.0070512695e+003;
1.4531250000e+000;3.9914101563e+003;4.0261538086e+003;4.0180769043e+003;4.0230769043e+003;4.0324357910e+003;4.0210256348e+003;4.0179487305e+003;4.0158974609e+003;4.0456411133e+003;4.0489743652e+003;4.0167949219e+003;4.0235898438e+003;4.0278205566e+003;4.0307692871e+003;
1.4609375000e+000;4.0194870605e+003;4.0517949219e+003;4.0424357910e+003;4.0462819824e+003;4.0616667480e+003;4.0487180176e+003;4.0464101563e+003;4.0444870605e+003;4.0739743652e+003;4.0784614258e+003;4.0412819824e+003;4.0502563477e+003;4.0537180176e+003;4.0570512695e+003;
1.4687500000e+000;4.0269230957e+003;4.0573076172e+003;4.0476923828e+003;4.0512819824e+003;4.0711538086e+003;4.0600000000e+003;4.0584614258e+003;4.0558974609e+003;4.0821794434e+003;4.0870512695e+003;4.0469230957e+003;4.0589743652e+003;4.0583332520e+003;4.0637180176e+003;
1.4765625000e+000;4.1121796875e+003;4.1510258789e+003;4.1410258789e+003;4.1430771484e+003;4.1708974609e+003;4.1557690430e+003;4.1693588867e+003;4.1614101563e+003;4.1644873047e+003;4.1744873047e+003;4.1450000000e+003;4.1517949219e+003;4.1485898438e+003;4.1474360352e+003;
1.4843750000e+000;4.0501281738e+003;4.0755129395e+003;4.0760256348e+003;4.0769230957e+003;4.1019228516e+003;4.0908974609e+003;4.1089741211e+003;4.0947436523e+003;4.0814101563e+003;4.0888461914e+003;4.0691025391e+003;4.0870512695e+003;4.0703845215e+003;4.0756411133e+003;
1.4921875000e+000;4.0502563477e+003;4.0728205566e+003;4.0750000000e+003;4.0769230957e+003;4.0992309570e+003;4.0891025391e+003;4.1066665039e+003;4.0935898438e+003;4.0775642090e+003;4.0861538086e+003;4.0692307129e+003;4.0885898438e+003;4.0698718262e+003;4.0758974609e+003;
1.5000000000e+000;3.9938461914e+003;4.0107692871e+003;4.0211538086e+003;4.0226923828e+003;4.0334614258e+003;4.0283332520e+003;4.0458974609e+003;4.0308974609e+003;4.0167949219e+003;4.0258974609e+003;4.0167949219e+003;4.0391025391e+003;4.0111538086e+003;4.0211538086e+003;
1.5078125000e+000;3.9762819824e+003;3.9912819824e+003;4.0033332520e+003;4.0046154785e+003;4.0110256348e+003;4.0042307129e+003;4.0237180176e+003;4.0067949219e+003;3.9970512695e+003;4.0047436523e+003;4.0000000000e+003;4.0223076172e+003;3.9912819824e+003;4.0028205566e+003;
1.5156250000e+000;3.9897436523e+003;4.0044870605e+003;4.0196154785e+003;4.0179487305e+003;4.0170512695e+003;3.9991025391e+003;4.0162819824e+003;4.0150000000e+003;4.0226923828e+003;4.0247436523e+003;4.0155129395e+003;4.0379487305e+003;4.0125642090e+003;4.0193588867e+003;
1.5234375000e+000;3.9805129395e+003;3.9946154785e+003;3.9991025391e+003;4.0039743652e+003;4.0017949219e+003;3.9774357910e+003;3.9930769043e+003;3.9956411133e+003;4.0179487305e+003;4.0123076172e+003;4.0001281738e+003;4.0201281738e+003;4.0017949219e+003;4.0032050781e+003;
1.5312500000e+000;4.0012819824e+003;4.0166667480e+003;4.0148718262e+003;4.0233332520e+003;4.0210256348e+003;3.9932050781e+003;4.0102563477e+003;4.0162819824e+003;4.0417949219e+003;4.0362819824e+003;4.0226923828e+003;4.0400000000e+003;4.0220512695e+003;4.0244870605e+003;
1.5390625000e+000;3.9969230957e+003;4.0135898438e+003;4.0096154785e+003;4.0210256348e+003;4.0169230957e+003;3.9896154785e+003;4.0056411133e+003;4.0160256348e+003;4.0425642090e+003;4.0369230957e+003;4.0212819824e+003;4.0375642090e+003;4.0194870605e+003;4.0238461914e+003;
1.5468750000e+000;3.9719230957e+003;3.9893588867e+003;3.9866667480e+003;3.9996154785e+003;3.9943588867e+003;3.9700000000e+003;3.9833332520e+003;3.9960256348e+003;4.0215385742e+003;4.0144870605e+003;3.9975642090e+003;4.0137180176e+003;3.9975642090e+003;4.0024357910e+003;
1.5546875000e+000;3.9693588867e+003;3.9887180176e+003;3.9823076172e+003;3.9925642090e+003;3.9971794434e+003;3.9810256348e+003;3.9824357910e+003;3.9943588867e+003;4.0200000000e+003;4.0108974609e+003;3.9885898438e+003;4.0008974609e+003;3.9976923828e+003;3.9956411133e+003;
1.5625000000e+000;3.9484614258e+003;3.9639743652e+003;3.9552563477e+003;3.9702563477e+003;3.9724357910e+003;3.9633332520e+003;3.9628205566e+003;3.9692307129e+003;3.9960256348e+003;3.9844870605e+003;3.9621794434e+003;3.9770512695e+003;3.9714101563e+003;3.9706411133e+003;
1.5703125000e+000;3.9730769043e+003;3.9806411133e+003;3.9734614258e+003;3.9908974609e+003;3.9982050781e+003;3.9958974609e+003;3.9947436523e+003;3.9883332520e+003;4.0085898438e+003;3.9962819824e+003;3.9773076172e+003;3.9964101563e+003;3.9861538086e+003;3.9887180176e+003;
1.5781250000e+000;3.9467949219e+003;3.9452563477e+003;3.9582050781e+003;3.9641025391e+003;3.9652563477e+003;3.9716667480e+003;3.9803845215e+003;3.9615385742e+003;3.9666667480e+003;3.9592307129e+003;3.9441025391e+003;3.9742307129e+003;3.9512819824e+003;3.9612819824e+003;
1.5859375000e+000;3.9673076172e+003;3.9639743652e+003;3.9776923828e+003;3.9821794434e+003;3.9823076172e+003;3.9880769043e+003;4.0030769043e+003;3.9792307129e+003;3.9791025391e+003;3.9737180176e+003;3.9607692871e+003;3.9912819824e+003;3.9696154785e+003;3.9789743652e+003;
1.5937500000e+000;3.9696154785e+003;3.9710256348e+003;3.9855129395e+003;3.9851281738e+003;3.9848718262e+003;3.9932050781e+003;4.0134614258e+003;3.9910256348e+003;3.9788461914e+003;3.9779487305e+003;3.9701281738e+003;4.0017949219e+003;3.9715385742e+003;3.9888461914e+003;
1.6015625000e+000;3.9501281738e+003;3.9505129395e+003;3.9679487305e+003;3.9664101563e+003;3.9634614258e+003;3.9723076172e+003;3.9939743652e+003;3.9701281738e+003;3.9579487305e+003;3.9564101563e+003;3.9523076172e+003;3.9865385742e+003;3.9514101563e+003;3.9706411133e+003;
1.6093750000e+000;3.9948718262e+003;3.9903845215e+003;4.0162819824e+003;4.0098718262e+003;3.9938461914e+003;3.9893588867e+003;4.0170512695e+003;4.0034614258e+003;4.0015385742e+003;4.0043588867e+003;3.9975642090e+003;4.0378205566e+003;4.0019230957e+003;4.0153845215e+003;
1.6171875000e+000;3.9210256348e+003;3.9170512695e+003;3.9435898438e+003;3.9407692871e+003;3.9198718262e+003;3.9125642090e+003;3.9308974609e+003;3.9247436523e+003;3.9373076172e+003;3.9323076172e+003;3.9287180176e+003;3.9624357910e+003;3.9307692871e+003;3.9461538086e+003;
1.6250000000e+000;3.9234614258e+003;3.9208974609e+003;3.9441025391e+003;3.9428205566e+003;3.9256411133e+003;3.9153845215e+003;3.9319230957e+003;3.9289743652e+003;3.9460256348e+003;3.9392307129e+003;3.9355129395e+003;3.9652563477e+003;3.9365385742e+003;3.9497436523e+003;
1.6328125000e+000;3.9189743652e+003;3.9167949219e+003;3.9382050781e+003;3.9384614258e+003;3.9248718262e+003;3.9108974609e+003;3.9275642090e+003;3.9280769043e+003;3.9532050781e+003;3.9421794434e+003;3.9314101563e+003;3.9565385742e+003;3.9366667480e+003;3.9401281738e+003;
1.6406250000e+000;3.9508974609e+003;3.9507692871e+003;3.9685898438e+003;3.9688461914e+003;3.9587180176e+003;3.9406411133e+003;3.9570512695e+003;3.9566667480e+003;3.9851281738e+003;3.9739743652e+003;3.9597436523e+003;3.9833332520e+003;3.9679487305e+003;3.9696154785e+003;
1.6484375000e+000;4.0280769043e+003;4.0342307129e+003;4.0408974609e+003;4.0426923828e+003;4.0420512695e+003;4.0221794434e+003;4.0314101563e+003;4.0378205566e+003;4.0687180176e+003;4.0623076172e+003;4.0382050781e+003;4.0598718262e+003;4.0456411133e+003;4.0473076172e+003;
1.6562500000e+000;4.0308974609e+003;4.0389743652e+003;4.0419230957e+003;4.0461538086e+003;4.0480769043e+003;4.0334614258e+003;4.0380769043e+003;4.0470512695e+003;4.0757692871e+003;4.0702563477e+003;4.0432050781e+003;4.0646154785e+003;4.0479487305e+003;4.0501281738e+003;
1.6640625000e+000;4.0276923828e+003;4.0385898438e+003;4.0376923828e+003;4.0446154785e+003;4.0491025391e+003;4.0392307129e+003;4.0415385742e+003;4.0493588867e+003;4.0750000000e+003;4.0684614258e+003;4.0406411133e+003;4.0603845215e+003;4.0438461914e+003;4.0453845215e+003;
1.6718750000e+000;4.0430769043e+003;4.0587180176e+003;4.0532050781e+003;4.0619230957e+003;4.0701281738e+003;4.0612819824e+003;4.0639743652e+003;4.0691025391e+003;4.0920512695e+003;4.0843588867e+003;4.0562819824e+003;4.0721794434e+003;4.0598718262e+003;4.0597436523e+003;
1.6796875000e+000;4.0521794434e+003;4.0780769043e+003;4.0715385742e+003;4.0760256348e+003;4.0933332520e+003;4.0893588867e+003;4.0933332520e+003;4.0883332520e+003;4.1038461914e+003;4.1019228516e+003;4.0719230957e+003;4.0843588867e+003;4.0796154785e+003;4.0787180176e+003;
1.6875000000e+000;4.0573076172e+003;4.0817949219e+003;4.0735898438e+003;4.0793588867e+003;4.0979487305e+003;4.0948718262e+003;4.0996152344e+003;4.0905129395e+003;4.1028203125e+003;4.1021796875e+003;4.0753845215e+003;4.0885898438e+003;4.0815385742e+003;4.0812819824e+003;
1.6953125000e+000;4.1016665039e+003;4.1330771484e+003;4.1165385742e+003;4.1265385742e+003;4.1400000000e+003;4.1357690430e+003;4.1506411133e+003;4.1356411133e+003;4.1416665039e+003;4.1464101563e+003;4.1220512695e+003;4.1350000000e+003;4.1250000000e+003;4.1232050781e+003;
1.7031250000e+000;4.0966665039e+003;4.1260258789e+003;4.1216665039e+003;4.1211538086e+003;4.1347436523e+003;4.1332050781e+003;4.1476923828e+003;4.1171796875e+003;4.1170512695e+003;4.1343588867e+003;4.1185898438e+003;4.1330771484e+003;4.1247436523e+003;4.1242309570e+003;
1.7109375000e+000;4.0975639648e+003;4.1255126953e+003;4.1253847656e+003;4.1216665039e+003;4.1356411133e+003;4.1317949219e+003;4.1437177734e+003;4.1171796875e+003;4.1134614258e+003;4.1346152344e+003;4.1223076172e+003;4.1376923828e+003;4.1269228516e+003;4.1316665039e+003;
1.7187500000e+000;4.0578205566e+003;4.0873076172e+003;4.0907692871e+003;4.0848718262e+003;4.0903845215e+003;4.0776923828e+003;4.0966665039e+003;4.0712819824e+003;4.0693588867e+003;4.0943588867e+003;4.0838461914e+003;4.1038461914e+003;4.0878205566e+003;4.0976923828e+003;
1.7265625000e+000;4.0911538086e+003;4.1207690430e+003;4.1241025391e+003;4.1132050781e+003;4.1205126953e+003;4.1019228516e+003;4.1243588867e+003;4.1015385742e+003;4.1053847656e+003;4.1312822266e+003;4.1175639648e+003;4.1375639648e+003;4.1226923828e+003;4.1289741211e+003;
1.7343750000e+000;4.0762819824e+003;4.1028203125e+003;4.1155126953e+003;4.0935898438e+003;4.0952563477e+003;4.0751281738e+003;4.0901281738e+003;4.1010258789e+003;4.1123076172e+003;4.1300000000e+003;4.1088461914e+003;4.1334614258e+003;4.1108974609e+003;4.1206411133e+003;
1.7421875000e+000;4.0807692871e+003;4.1130771484e+003;4.1179487305e+003;4.1032050781e+003;4.1034614258e+003;4.0700000000e+003;4.0869230957e+003;4.1116665039e+003;4.1329487305e+003;4.1365385742e+003;4.1198715820e+003;4.1392309570e+003;4.1173076172e+003;4.1237177734e+003;
1.7500000000e+000;4.0756411133e+003;4.1070512695e+003;4.1135898438e+003;4.1005126953e+003;4.1003847656e+003;4.0693588867e+003;4.0834614258e+003;4.1097436523e+003;4.1312822266e+003;4.1347436523e+003;4.1165385742e+003;4.1351284180e+003;4.1134614258e+003;4.1166665039e+003;
1.7578125000e+000;4.0605129395e+003;4.0901281738e+003;4.0987177734e+003;4.0882050781e+003;4.0871794434e+003;4.0630769043e+003;4.0725642090e+003;4.0979487305e+003;4.1157690430e+003;4.1207690430e+003;4.1002563477e+003;4.1193588867e+003;4.0974360352e+003;4.0992309570e+003;
1.7656250000e+000;4.0889743652e+003;4.1220512695e+003;4.1247436523e+003;4.1192309570e+003;4.1265385742e+003;4.1096152344e+003;4.1120512695e+003;4.1353847656e+003;4.1424360352e+003;4.1511538086e+003;4.1251284180e+003;4.1446152344e+003;4.1242309570e+003;4.1267949219e+003;
1.7734375000e+000;4.0939743652e+003;4.1347436523e+003;4.1328203125e+003;4.1276923828e+003;4.1485898438e+003;4.1339741211e+003;4.1382050781e+003;4.1493588867e+003;4.1534614258e+003;4.1573076172e+003;4.1321796875e+003;4.1480771484e+003;4.1292309570e+003;4.1326923828e+003;
1.7812500000e+000;4.0856411133e+003;4.1261538086e+003;4.1247436523e+003;4.1202563477e+003;4.1408974609e+003;4.1280771484e+003;4.1355126953e+003;4.1367949219e+003;4.1424360352e+003;4.1439741211e+003;4.1221796875e+003;4.1356411133e+003;4.1188461914e+003;4.1205126953e+003;
1.7890625000e+000;4.1019228516e+003;4.1428203125e+003;4.1401284180e+003;4.1364101563e+003;4.1566665039e+003;4.1448715820e+003;4.1548715820e+003;4.1494873047e+003;4.1565385742e+003;4.1578203125e+003;4.1374360352e+003;4.1492309570e+003;4.1332050781e+003;4.1341025391e+003;
1.7968750000e+000;4.1223076172e+003;4.1650000000e+003;4.1607690430e+003;4.1576923828e+003;4.1775639648e+003;4.1675639648e+003;4.1776923828e+003;4.1708974609e+003;4.1770512695e+003;4.1800000000e+003;4.1588461914e+003;4.1714101563e+003;4.1517949219e+003;4.1557690430e+003;
1.8046875000e+000;4.1324360352e+003;4.1771796875e+003;4.1752563477e+003;4.1657690430e+003;4.1891025391e+003;4.1810258789e+003;4.1966665039e+003;4.1825639648e+003;4.1738461914e+003;4.1828203125e+003;4.1665385742e+003;4.1860258789e+003;4.1608974609e+003;4.1708974609e+003;
1.8125000000e+000;4.1578203125e+003;4.2011538086e+003;4.1998715820e+003;4.1876923828e+003;4.2115385742e+003;4.1998715820e+003;4.2178203125e+003;4.2037177734e+003;4.1950000000e+003;4.2084614258e+003;4.1921796875e+003;4.2114101563e+003;4.1911538086e+003;4.1960258789e+003;
1.8203125000e+000;4.1114101563e+003;4.1475639648e+003;4.1542309570e+003;4.1374360352e+003;4.1524360352e+003;4.1408974609e+003;4.1579487305e+003;4.1382050781e+003;4.1260258789e+003;4.1503847656e+003;4.1451284180e+003;4.1733334961e+003;4.1430771484e+003;4.1532050781e+003;
1.8281250000e+000;4.1184614258e+003;4.1521796875e+003;4.1678203125e+003;4.1452563477e+003;4.1538461914e+003;4.1376923828e+003;4.1546152344e+003;4.1444873047e+003;4.1389741211e+003;4.1696152344e+003;4.1678203125e+003;4.1893588867e+003;4.1626923828e+003;4.1724360352e+003;
1.8359375000e+000;4.0965385742e+003;4.1306411133e+003;4.1457690430e+003;4.1265385742e+003;4.1301284180e+003;4.1137177734e+003;4.1292309570e+003;4.1250000000e+003;4.1265385742e+003;4.1543588867e+003;4.1493588867e+003;4.1688461914e+003;4.1475639648e+003;4.1533334961e+003;
1.8437500000e+000;4.1482050781e+003;4.1846152344e+003;4.1812822266e+003;4.1684614258e+003;4.1707690430e+003;4.1352563477e+003;4.1496152344e+003;4.1664101563e+003;4.1761538086e+003;4.1953847656e+003;4.1867949219e+003;4.2038461914e+003;4.1896152344e+003;4.1947436523e+003;
1.8515625000e+000;4.1735898438e+003;4.2093588867e+003;4.2053847656e+003;4.1914101563e+003;4.1914101563e+003;4.1538461914e+003;4.1666665039e+003;4.1914101563e+003;4.2006411133e+003;4.2205126953e+003;4.2091025391e+003;4.2262822266e+003;4.2103847656e+003;4.2182050781e+003;
1.8593750000e+000;4.1884614258e+003;4.2258974609e+003;4.2197436523e+003;4.2133334961e+003;4.2128203125e+003;4.1830771484e+003;4.1889741211e+003;4.2164101563e+003;4.2367949219e+003;4.2544873047e+003;4.2371796875e+003;4.2423076172e+003;4.2356411133e+003;4.2378203125e+003;
1.8671875000e+000;4.1943588867e+003;4.2370512695e+003;4.2253847656e+003;4.2217949219e+003;4.2271796875e+003;4.1975639648e+003;4.2006411133e+003;4.2296152344e+003;4.2526923828e+003;4.2697436523e+003;4.2496152344e+003;4.2508974609e+003;4.2475639648e+003;4.2478203125e+003;
1.8750000000e+000;4.1451284180e+003;4.1975639648e+003;4.1830771484e+003;4.1811538086e+003;4.1955126953e+003;4.1723076172e+003;4.1710258789e+003;4.1967949219e+003;4.2147436523e+003;4.2264101563e+003;4.2052563477e+003;4.2075639648e+003;4.2024360352e+003;4.2052563477e+003;
1.8828125000e+000;4.1369228516e+003;4.1902563477e+003;4.1766665039e+003;4.1750000000e+003;4.1937177734e+003;4.1739741211e+003;4.1741025391e+003;4.1917949219e+003;4.2048715820e+003;4.2130771484e+003;4.1947436523e+003;4.1966665039e+003;4.1923076172e+003;4.1957690430e+003;
1.8906250000e+000;4.2814101563e+003;4.3343588867e+003;4.3125639648e+003;4.3094873047e+003;4.3443588867e+003;4.3251284180e+003;4.3316665039e+003;4.3369228516e+003;4.3424360352e+003;4.3585898438e+003;4.3341025391e+003;4.3307690430e+003;4.3335898438e+003;4.3325639648e+003;
1.8984375000e+000;4.2824360352e+003;4.3394873047e+003;4.3162822266e+003;4.3125639648e+003;4.3491025391e+003;4.3329487305e+003;4.3388461914e+003;4.3417949219e+003;4.3444873047e+003;4.3650000000e+003;4.3378203125e+003;4.3362822266e+003;4.3362822266e+003;4.3364101563e+003;
1.9062500000e+000;4.2755126953e+003;4.3432050781e+003;4.3208974609e+003;4.3152563477e+003;4.3535898438e+003;4.3379487305e+003;4.3456411133e+003;4.3389741211e+003;4.3339741211e+003;4.3589741211e+003;4.3383334961e+003;4.3376923828e+003;4.3338461914e+003;4.3382050781e+003;
1.9140625000e+000;4.3124360352e+003;4.3821796875e+003;4.3602563477e+003;4.3519228516e+003;4.3912822266e+003;4.3716665039e+003;4.3819228516e+003;4.3726923828e+003;4.3641025391e+003;4.3924360352e+003;4.3761538086e+003;4.3750000000e+003;4.3710258789e+003;4.3758974609e+003;
1.9218750000e+000;4.3543588867e+003;4.4211538086e+003;4.4000000000e+003;4.3882050781e+003;4.4264101563e+003;4.4038461914e+003;4.4169228516e+003;4.4064101563e+003;4.3952563477e+003;4.4282050781e+003;4.4141025391e+003;4.4141025391e+003;4.4091025391e+003;4.4135898438e+003;
1.9296875000e+000;4.3817949219e+003;4.4383334961e+003;4.4210258789e+003;4.3988461914e+003;4.4319228516e+003;4.4024360352e+003;4.4174360352e+003;4.4026923828e+003;4.3987177734e+003;4.4443588867e+003;4.4344873047e+003;4.4361538086e+003;4.4312822266e+003;4.4353847656e+003;
1.9375000000e+000;4.3428203125e+003;4.4042309570e+003;4.3891025391e+003;4.3667949219e+003;4.3978203125e+003;4.3684614258e+003;4.3812822266e+003;4.3687177734e+003;4.3674360352e+003;4.4110258789e+003;4.4043588867e+003;4.4064101563e+003;4.3989741211e+003;4.4042309570e+003;
1.9453125000e+000;4.3534614258e+003;4.4175639648e+003;4.4015385742e+003;4.3764101563e+003;4.4029487305e+003;4.3623076172e+003;4.3725639648e+003;4.3753847656e+003;4.3865385742e+003;4.4269228516e+003;4.4144873047e+003;4.4210258789e+003;4.4166665039e+003;4.4184614258e+003;
1.9531250000e+000;4.3387177734e+003;4.4015385742e+003;4.3935898438e+003;4.3624360352e+003;4.3824360352e+003;4.3371796875e+003;4.3453847656e+003;4.3729487305e+003;4.3956411133e+003;4.4252563477e+003;4.4028203125e+003;4.4097436523e+003;4.4061538086e+003;4.4087177734e+003;
1.9609375000e+000;4.3575639648e+003;4.4247436523e+003;4.4135898438e+003;4.3828203125e+003;4.4052563477e+003;4.3552563477e+003;4.3656411133e+003;4.3962822266e+003;4.4201284180e+003;4.4458974609e+003;4.4239741211e+003;4.4278203125e+003;4.4271796875e+003;4.4256411133e+003;
1.9687500000e+000;4.4294873047e+003;4.5173076172e+003;4.4948715820e+003;4.4685898438e+003;4.5005126953e+003;4.4442309570e+003;4.4474360352e+003;4.4939741211e+003;4.5156411133e+003;4.5391025391e+003;4.5106411133e+003;4.5065385742e+003;4.5137177734e+003;4.5066665039e+003;
1.9765625000e+000;4.3987177734e+003;4.4884614258e+003;4.4665385742e+003;4.4434614258e+003;4.4735898438e+003;4.4265385742e+003;4.4256411133e+003;4.4683334961e+003;4.4864101563e+003;4.5087177734e+003;4.4784614258e+003;4.4758974609e+003;4.4811538086e+003;4.4774360352e+003;
1.9843750000e+000;4.4178203125e+003;4.5066665039e+003;4.4830771484e+003;4.4642309570e+003;4.5038461914e+003;4.4675639648e+003;4.4688461914e+003;4.4911538086e+003;4.5007690430e+003;4.5273076172e+003;4.4910258789e+003;4.4925639648e+003;4.4951284180e+003;4.4906411133e+003;
1.9921875000e+000;4.4182050781e+003;4.5078203125e+003;4.4841025391e+003;4.4653847656e+003;4.5091025391e+003;4.4744873047e+003;4.4739741211e+003;4.4948715820e+003;4.5019228516e+003;4.5305126953e+003;4.4938461914e+003;4.4939741211e+003;4.4971796875e+003;4.4924360352e+003;
2.0000000000e+000;4.4050000000e+003;4.5005126953e+003;4.4750000000e+003;4.4567949219e+003;4.5034614258e+003;4.4726923828e+003;4.4683334961e+003;4.4814101563e+003;4.4824360352e+003;4.5119228516e+003;4.4805126953e+003;4.4751284180e+003;4.4815385742e+003;4.4796152344e+003;
2.0078125000e+000;4.4208974609e+003;4.5212822266e+003;4.4948715820e+003;4.4761538086e+003;4.5228203125e+003;4.4910258789e+003;4.4884614258e+003;4.4962822266e+003;4.4951284180e+003;4.5250000000e+003;4.4947436523e+003;4.4893588867e+003;4.4955126953e+003;4.4944873047e+003;
2.0156250000e+000;4.3735898438e+003;4.4773076172e+003;4.4607690430e+003;4.4429487305e+003;4.4829487305e+003;4.4571796875e+003;4.4628203125e+003;4.4570512695e+003;4.4542309570e+003;4.4812822266e+003;4.4541025391e+003;4.4614101563e+003;4.4542309570e+003;4.4520512695e+003;
2.0234375000e+000;4.3520512695e+003;4.4539741211e+003;4.4403847656e+003;4.4216665039e+003;4.4624360352e+003;4.4396152344e+003;4.4458974609e+003;4.4370512695e+003;4.4341025391e+003;4.4607690430e+003;4.4378203125e+003;4.4452563477e+003;4.4371796875e+003;4.4344873047e+003;
2.0312500000e+000;4.3793588867e+003;4.4810258789e+003;4.4719228516e+003;4.4457690430e+003;4.4896152344e+003;4.4658974609e+003;4.4739741211e+003;4.4666665039e+003;4.4633334961e+003;4.4976923828e+003;4.4773076172e+003;4.4807690430e+003;4.4738461914e+003;4.4746152344e+003;
2.0390625000e+000;4.3912822266e+003;4.4939741211e+003;4.4882050781e+003;4.4585898438e+003;4.5000000000e+003;4.4752563477e+003;4.4858974609e+003;4.4779487305e+003;4.4750000000e+003;4.5151284180e+003;4.4935898438e+003;4.4976923828e+003;4.4889741211e+003;4.4932050781e+003;
2.0468750000e+000;4.3993588867e+003;4.5026923828e+003;4.4989741211e+003;4.4676923828e+003;4.5055126953e+003;4.4782050781e+003;4.4924360352e+003;4.4806411133e+003;4.4798715820e+003;4.5246152344e+003;4.5035898438e+003;4.5089741211e+003;4.4984614258e+003;4.5052563477e+003;
2.0546875000e+000;4.4216665039e+003;4.5312822266e+003;4.5201284180e+003;4.4894873047e+003;4.5158974609e+003;4.4693588867e+003;4.4810258789e+003;4.4979487305e+003;4.5214101563e+003;4.5664101563e+003;4.5394873047e+003;4.5324360352e+003;4.5374360352e+003;4.5293588867e+003;
2.0625000000e+000;4.3957690430e+003;4.5073076172e+003;4.4984614258e+003;4.4715385742e+003;4.4947436523e+003;4.4470512695e+003;4.4591025391e+003;4.4846152344e+003;4.5075639648e+003;4.5451284180e+003;4.5174360352e+003;4.5082050781e+003;4.5144873047e+003;4.5046152344e+003;
2.0703125000e+000;4.4230771484e+003;4.5408974609e+003;4.5267949219e+003;4.5050000000e+003;4.5300000000e+003;4.4792309570e+003;4.4897436523e+003;4.5367949219e+003;4.5525639648e+003;4.5774360352e+003;4.5496152344e+003;4.5420512695e+003;4.5352563477e+003;4.5339741211e+003;
2.0781250000e+000;4.4124360352e+003;4.5298715820e+003;4.5147436523e+003;4.4932050781e+003;4.5188461914e+003;4.4714101563e+003;4.4796152344e+003;4.5252563477e+003;4.5403847656e+003;4.5620512695e+003;4.5342309570e+003;4.5297436523e+003;4.5205126953e+003;4.5208974609e+003;
2.0859375000e+000;4.4411538086e+003;4.5593588867e+003;4.5424360352e+003;4.5219228516e+003;4.5566665039e+003;4.5093588867e+003;4.5187177734e+003;4.5547436523e+003;4.5680771484e+003;4.5869228516e+003;4.5601284180e+003;4.5539741211e+003;4.5547436523e+003;4.5476923828e+003;
2.0937500000e+000;4.4601284180e+003;4.5819228516e+003;4.5643588867e+003;4.5458974609e+003;4.5901284180e+003;4.5635898438e+003;4.5703847656e+003;4.5951284180e+003;4.5897436523e+003;4.6152563477e+003;4.5821796875e+003;4.5775639648e+003;4.5705126953e+003;4.5671796875e+003;
2.1015625000e+000;4.4685898438e+003;4.5929487305e+003;4.5717949219e+003;4.5532050781e+003;4.6017949219e+003;4.5758974609e+003;4.5833334961e+003;4.6003847656e+003;4.5944873047e+003;4.6196152344e+003;4.5848715820e+003;4.5805126953e+003;4.5761538086e+003;4.5714101563e+003;
2.1093750000e+000;4.4230771484e+003;4.5573076172e+003;4.5364101563e+003;4.5176923828e+003;4.5711538086e+003;4.5453847656e+003;4.5516665039e+003;4.5624360352e+003;4.5483334961e+003;4.5801284180e+003;4.5494873047e+003;4.5420512695e+003;4.5458974609e+003;4.5366665039e+003;
2.1171875000e+000;4.3857690430e+003;4.5191025391e+003;4.4994873047e+003;4.4839741211e+003;4.5347436523e+003;4.5105126953e+003;4.5152563477e+003;4.5214101563e+003;4.5026923828e+003;4.5379487305e+003;4.5123076172e+003;4.5047436523e+003;4.5091025391e+003;4.5007690430e+003;
2.1250000000e+000;4.3874360352e+003;4.5184614258e+003;4.4970512695e+003;4.4867949219e+003;4.5343588867e+003;4.5082050781e+003;4.5116665039e+003;4.5065385742e+003;4.4875639648e+003;4.5285898438e+003;4.5060258789e+003;4.5001284180e+003;4.5061538086e+003;4.5002563477e+003;
2.1328125000e+000;4.3821796875e+003;4.5129487305e+003;4.4932050781e+003;4.4835898438e+003;4.5283334961e+003;4.5026923828e+003;4.5058974609e+003;4.4973076172e+003;4.4807690430e+003;4.5229487305e+003;4.4998715820e+003;4.4956411133e+003;4.5008974609e+003;4.4967949219e+003;
2.1406250000e+000;4.3520512695e+003;4.4824360352e+003;4.4662822266e+003;4.4566665039e+003;4.4971796875e+003;4.4737177734e+003;4.4769228516e+003;4.4656411133e+003;4.4505126953e+003;4.4924360352e+003;4.4715385742e+003;4.4682050781e+003;4.4724360352e+003;4.4696152344e+003;
2.1484375000e+000;4.3223076172e+003;4.4517949219e+003;4.4376923828e+003;4.4275639648e+003;4.4646152344e+003;4.4420512695e+003;4.4456411133e+003;4.4328203125e+003;4.4178203125e+003;4.4596152344e+003;4.4430771484e+003;4.4389741211e+003;4.4437177734e+003;4.4408974609e+003;
2.1562500000e+000;4.3428203125e+003;4.4646152344e+003;4.4476923828e+003;4.4291025391e+003;4.4614101563e+003;4.4365385742e+003;4.4392309570e+003;4.4403847656e+003;4.4338461914e+003;4.4729487305e+003;4.4553847656e+003;4.4462822266e+003;4.4565385742e+003;4.4515385742e+003;
2.1640625000e+000;4.3276923828e+003;4.4461538086e+003;4.4316665039e+003;4.4137177734e+003;4.4439741211e+003;4.4175639648e+003;4.4215385742e+003;4.4233334961e+003;4.4220512695e+003;4.4578203125e+003;4.4383334961e+003;4.4294873047e+003;4.4380771484e+003;4.4351284180e+003;
2.1718750000e+000;4.2989741211e+003;4.4160258789e+003;4.3983334961e+003;4.3878203125e+003;4.4092309570e+003;4.3691025391e+003;4.3744873047e+003;4.3956411133e+003;4.4021796875e+003;4.4366665039e+003;4.4121796875e+003;4.4084614258e+003;4.4085898438e+003;4.4103847656e+003;
2.1796875000e+000;4.1861538086e+003;4.3010258789e+003;4.2842309570e+003;4.2793588867e+003;4.2902563477e+003;4.2673076172e+003;4.2643588867e+003;4.2928203125e+003;4.2888461914e+003;4.3187177734e+003;4.2962822266e+003;4.2974360352e+003;4.2932050781e+003;4.2967949219e+003;
2.1875000000e+000;4.2026923828e+003;4.3169228516e+003;4.3002563477e+003;4.2947436523e+003;4.3085898438e+003;4.2848715820e+003;4.2825639648e+003;4.3125639648e+003;4.3089741211e+003;4.3373076172e+003;4.3133334961e+003;4.3111538086e+003;4.3096152344e+003;4.3129487305e+003;
2.1953125000e+000;4.2076923828e+003;4.3120512695e+003;4.3055126953e+003;4.2988461914e+003;4.3184614258e+003;4.2971796875e+003;4.2955126953e+003;4.3242309570e+003;4.3288461914e+003;4.3419228516e+003;4.3124360352e+003;4.3098715820e+003;4.3134614258e+003;4.3092309570e+003;
2.2031250000e+000;4.2621796875e+003;4.3653847656e+003;4.3542309570e+003;4.3505126953e+003;4.3792309570e+003;4.3662822266e+003;4.3621796875e+003;4.3808974609e+003;4.3775639648e+003;4.3896152344e+003;4.3658974609e+003;4.3542309570e+003;4.3666665039e+003;4.3543588867e+003;
2.2109375000e+000;4.2580771484e+003;4.3606411133e+003;4.3478203125e+003;4.3466665039e+003;4.3744873047e+003;4.3647436523e+003;4.3589741211e+003;4.3752563477e+003;4.3697436523e+003;4.3832050781e+003;4.3615385742e+003;4.3491025391e+003;4.3603847656e+003;4.3498715820e+003;
2.2187500000e+000;4.2780771484e+003;4.3779487305e+003;4.3628203125e+003;4.3610258789e+003;4.3914101563e+003;4.3796152344e+003;4.3746152344e+003;4.3758974609e+003;4.3684614258e+003;4.3811538086e+003;4.3687177734e+003;4.3601284180e+003;4.3716665039e+003;4.3582050781e+003;
2.2265625000e+000;4.2846152344e+003;4.3852563477e+003;4.3710258789e+003;4.3678203125e+003;4.3991025391e+003;4.3870512695e+003;4.3811538086e+003;4.3819228516e+003;4.3710258789e+003;4.3866665039e+003;4.3755126953e+003;4.3694873047e+003;4.3792309570e+003;4.3647436523e+003;
2.2343750000e+000;4.2662822266e+003;4.3673076172e+003;4.3547436523e+003;4.3520512695e+003;4.3817949219e+003;4.3716665039e+003;4.3644873047e+003;4.3637177734e+003;4.3491025391e+003;4.3682050781e+003;4.3587177734e+003;4.3565385742e+003;4.3611538086e+003;4.3491025391e+003;
2.2421875000e+000;4.2588461914e+003;4.3602563477e+003;4.3458974609e+003;4.3473076172e+003;4.3757690430e+003;4.3611538086e+003;4.3578203125e+003;4.3471796875e+003;4.3314101563e+003;4.3541025391e+003;4.3506411133e+003;4.3546152344e+003;4.3485898438e+003;4.3450000000e+003;
2.2500000000e+000;4.3185898438e+003;4.4256411133e+003;4.4092309570e+003;4.4021796875e+003;4.4348715820e+003;4.4074360352e+003;4.4116665039e+003;4.4084614258e+003;4.3952563477e+003;4.4188461914e+003;4.4137177734e+003;4.4192309570e+003;4.4091025391e+003;4.4050000000e+003;
2.2578125000e+000;4.2893588867e+003;4.3955126953e+003;4.3830771484e+003;4.3720512695e+003;4.4015385742e+003;4.3760258789e+003;4.3810258789e+003;4.3819228516e+003;4.3684614258e+003;4.3915385742e+003;4.3874360352e+003;4.3906411133e+003;4.3819228516e+003;4.3752563477e+003;
2.2656250000e+000;4.2733334961e+003;4.3766665039e+003;4.3675639648e+003;4.3528203125e+003;4.3800000000e+003;4.3537177734e+003;4.3606411133e+003;4.3651284180e+003;4.3534614258e+003;4.3760258789e+003;4.3743588867e+003;4.3733334961e+003;4.3679487305e+003;4.3585898438e+003;
2.2734375000e+000;4.2824360352e+003;4.3820512695e+003;4.3748715820e+003;4.3566665039e+003;4.3833334961e+003;4.3534614258e+003;4.3621796875e+003;4.3724360352e+003;4.3638461914e+003;4.3864101563e+003;4.3864101563e+003;4.3816665039e+003;4.3785898438e+003;4.3684614258e+003;
2.2812500000e+000;4.2230771484e+003;4.3197436523e+003;4.3129487305e+003;4.2953847656e+003;4.3161538086e+003;4.2866665039e+003;4.2928203125e+003;4.3257690430e+003;4.3153847656e+003;4.3291025391e+003;4.3274360352e+003;4.3305126953e+003;4.3198715820e+003;4.3192309570e+003;
2.2890625000e+000;4.2203847656e+003;4.3176923828e+003;4.3102563477e+003;4.2932050781e+003;4.3133334961e+003;4.2817949219e+003;4.2908974609e+003;4.3257690430e+003;4.3161538086e+003;4.3279487305e+003;4.3247436523e+003;4.3255126953e+003;4.3192309570e+003;4.3155126953e+003;
2.2968750000e+000;4.2019228516e+003;4.2942309570e+003;4.2929487305e+003;4.2757690430e+003;4.2888461914e+003;4.2676923828e+003;4.2773076172e+003;4.3148715820e+003;4.3061538086e+003;4.3124360352e+003;4.3055126953e+003;4.3007690430e+003;4.3019228516e+003;4.2924360352e+003;
2.3046875000e+000;4.2766665039e+003;4.3732050781e+003;4.3594873047e+003;4.3464101563e+003;4.3748715820e+003;4.3558974609e+003;4.3574360352e+003;4.3811538086e+003;4.3702563477e+003;4.3800000000e+003;4.3697436523e+003;4.3670512695e+003;4.3698715820e+003;4.3623076172e+003;
2.3125000000e+000;4.2705126953e+003;4.3670512695e+003;4.3533334961e+003;4.3393588867e+003;4.3703847656e+003;4.3529487305e+003;4.3503847656e+003;4.3705126953e+003;4.3617949219e+003;4.3721796875e+003;4.3614101563e+003;4.3597436523e+003;4.3600000000e+003;4.3555126953e+003;
2.3203125000e+000;4.2546152344e+003;4.3458974609e+003;4.3316665039e+003;4.3155126953e+003;4.3505126953e+003;4.3376923828e+003;4.3321796875e+003;4.3312822266e+003;4.3206411133e+003;4.3297436523e+003;4.3305126953e+003;4.3311538086e+003;4.3301284180e+003;4.3282050781e+003;
2.3281250000e+000;4.2735898438e+003;4.3608974609e+003;4.3567949219e+003;4.3353847656e+003;4.3679487305e+003;4.3575639648e+003;4.3557690430e+003;4.3464101563e+003;4.3288461914e+003;4.3480771484e+003;4.3520512695e+003;4.3534614258e+003;4.3542309570e+003;4.3479487305e+003;
2.3359375000e+000;4.2530771484e+003;4.3391025391e+003;4.3374360352e+003;4.3155126953e+003;4.3462822266e+003;4.3360258789e+003;4.3357690430e+003;4.3237177734e+003;4.3071796875e+003;4.3266665039e+003;4.3341025391e+003;4.3328203125e+003;4.3356411133e+003;4.3285898438e+003;
2.3437500000e+000;4.2567949219e+003;4.3426923828e+003;4.3398715820e+003;4.3170512695e+003;4.3489741211e+003;4.3360258789e+003;4.3371796875e+003;4.3251284180e+003;4.3111538086e+003;4.3312822266e+003;4.3415385742e+003;4.3365385742e+003;4.3416665039e+003;4.3341025391e+003;
2.3515625000e+000;4.2665385742e+003;4.3520512695e+003;4.3491025391e+003;4.3230771484e+003;4.3564101563e+003;4.3412822266e+003;4.3421796875e+003;4.3383334961e+003;4.3285898438e+003;4.3521796875e+003;4.3615385742e+003;4.3541025391e+003;4.3583334961e+003;4.3506411133e+003;
2.3593750000e+000;4.2350000000e+003;4.3184614258e+003;4.3184614258e+003;4.2926923828e+003;4.3226923828e+003;4.3101284180e+003;4.3106411133e+003;4.3091025391e+003;4.2994873047e+003;4.3246152344e+003;4.3317949219e+003;4.3258974609e+003;4.3282050781e+003;4.3202563477e+003;
2.3671875000e+000;4.1788461914e+003;4.2601284180e+003;4.2576923828e+003;4.2384614258e+003;4.2567949219e+003;4.2432050781e+003;4.2462822266e+003;4.2560258789e+003;4.2443588867e+003;4.2676923828e+003;4.2708974609e+003;4.2655126953e+003;4.2735898438e+003;4.2614101563e+003;
2.3750000000e+000;4.1714101563e+003;4.2528203125e+003;4.2493588867e+003;4.2312822266e+003;4.2448715820e+003;4.2314101563e+003;4.2344873047e+003;4.2525639648e+003;4.2411538086e+003;4.2605126953e+003;4.2643588867e+003;4.2583334961e+003;4.2664101563e+003;4.2558974609e+003;
2.3828125000e+000;4.1705126953e+003;4.2482050781e+003;4.2471796875e+003;4.2297436523e+003;4.2356411133e+003;4.2196152344e+003;4.2252563477e+003;4.2515385742e+003;4.2424360352e+003;4.2505126953e+003;4.2603847656e+003;4.2529487305e+003;4.2567949219e+003;4.2546152344e+003;
2.3906250000e+000;4.2023076172e+003;4.2784614258e+003;4.2769228516e+003;4.2596152344e+003;4.2655126953e+003;4.2426923828e+003;4.2502563477e+003;4.2802563477e+003;4.2720512695e+003;4.2764101563e+003;4.2888461914e+003;4.2801284180e+003;4.2835898438e+003;4.2844873047e+003;
2.3984375000e+000;4.2305126953e+003;4.3065385742e+003;4.3035898438e+003;4.2871796875e+003;4.2937177734e+003;4.2639741211e+003;4.2716665039e+003;4.3076923828e+003;4.2998715820e+003;4.3032050781e+003;4.3157690430e+003;4.3067949219e+003;4.3105126953e+003;4.3124360352e+003;
2.4062500000e+000;4.2170512695e+003;4.2946152344e+003;4.2900000000e+003;4.2778203125e+003;4.2847436523e+003;4.2662822266e+003;4.2719228516e+003;4.2961538086e+003;4.2975639648e+003;4.2962822266e+003;4.2996152344e+003;4.2911538086e+003;4.2984614258e+003;4.2921796875e+003;
2.4140625000e+000;4.2543588867e+003;4.3335898438e+003;4.3261538086e+003;4.3141025391e+003;4.3252563477e+003;4.3076923828e+003;4.3117949219e+003;4.3353847656e+003;4.3365385742e+003;4.3335898438e+003;4.3351284180e+003;4.3243588867e+003;4.3317949219e+003;4.3276923828e+003;
2.4218750000e+000;4.2633334961e+003;4.3458974609e+003;4.3332050781e+003;4.3291025391e+003;4.3458974609e+003;4.3353847656e+003;4.3316665039e+003;4.3319228516e+003;4.3330771484e+003;4.3315385742e+003;4.3397436523e+003;4.3243588867e+003;4.3329487305e+003;4.3323076172e+003;
2.4296875000e+000;4.2850000000e+003;4.3691025391e+003;4.3596152344e+003;4.3485898438e+003;4.3653847656e+003;4.3587177734e+003;4.3520512695e+003;4.3447436523e+003;4.3493588867e+003;4.3598715820e+003;4.3683334961e+003;4.3573076172e+003;4.3596152344e+003;4.3560258789e+003;
2.4375000000e+000;4.2864101563e+003;4.3685898438e+003;4.3614101563e+003;4.3480771484e+003;4.3650000000e+003;4.3592309570e+003;4.3539741211e+003;4.3426923828e+003;4.3456411133e+003;4.3578203125e+003;4.3671796875e+003;4.3598715820e+003;4.3597436523e+003;4.3561538086e+003;
2.4453125000e+000;4.3687177734e+003;4.4447436523e+003;4.4393588867e+003;4.4247436523e+003;4.4457690430e+003;4.4346152344e+003;4.4307690430e+003;4.4176923828e+003;4.4134614258e+003;4.4310258789e+003;4.4437177734e+003;4.4339741211e+003;4.4347436523e+003;4.4323076172e+003;
2.4531250000e+000;4.3606411133e+003;4.4361538086e+003;4.4308974609e+003;4.4185898438e+003;4.4371796875e+003;4.4284614258e+003;4.4238461914e+003;4.4125639648e+003;4.4066665039e+003;4.4233334961e+003;4.4366665039e+003;4.4262822266e+003;4.4250000000e+003;4.4246152344e+003;
2.4609375000e+000;4.3665385742e+003;4.4446152344e+003;4.4355126953e+003;4.4243588867e+003;4.4441025391e+003;4.4326923828e+003;4.4344873047e+003;4.4258974609e+003;4.4197436523e+003;4.4319228516e+003;4.4479487305e+003;4.4374360352e+003;4.4338461914e+003;4.4333334961e+003;
2.4687500000e+000;4.3982050781e+003;4.4789741211e+003;4.4682050781e+003;4.4539741211e+003;4.4778203125e+003;4.4596152344e+003;4.4666665039e+003;4.4634614258e+003;4.4575639648e+003;4.4703847656e+003;4.4853847656e+003;4.4757690430e+003;4.4706411133e+003;4.4696152344e+003;
2.4765625000e+000;4.3491025391e+003;4.4350000000e+003;4.4294873047e+003;4.4092309570e+003;4.4293588867e+003;4.4107690430e+003;4.4189741211e+003;4.4337177734e+003;4.4234614258e+003;4.4343588867e+003;4.4434614258e+003;4.4437177734e+003;4.4301284180e+003;4.4343588867e+003;
2.4843750000e+000;4.3292309570e+003;4.4161538086e+003;4.4080771484e+003;4.3891025391e+003;4.4079487305e+003;4.3906411133e+003;4.3975639648e+003;4.4160258789e+003;4.4044873047e+003;4.4119228516e+003;4.4214101563e+003;4.4219228516e+003;4.4096152344e+003;4.4135898438e+003;
2.4921875000e+000;4.3184614258e+003;4.4024360352e+003;4.3935898438e+003;4.3744873047e+003;4.3935898438e+003;4.3664101563e+003;4.3724360352e+003;4.4065385742e+003;4.3998715820e+003;4.4073076172e+003;4.4171796875e+003;4.4061538086e+003;4.3987177734e+003;4.3991025391e+003;
2.5000000000e+000;4.2832050781e+003;4.3651284180e+003;4.3605126953e+003;4.3412822266e+003;4.3567949219e+003;4.3288461914e+003;4.3342309570e+003;4.3684614258e+003;4.3648715820e+003;4.3721796875e+003;4.3825639648e+003;4.3693588867e+003;4.3634614258e+003;4.3630771484e+003;
2.5078125000e+000;4.2357690430e+003;4.3196152344e+003;4.3137177734e+003;4.2991025391e+003;4.3066665039e+003;4.2842309570e+003;4.2869228516e+003;4.3178203125e+003;4.3203847656e+003;4.3244873047e+003;4.3326923828e+003;4.3200000000e+003;4.3188461914e+003;4.3156411133e+003;
2.5156250000e+000;4.2062822266e+003;4.2908974609e+003;4.2835898438e+003;4.2737177734e+003;4.2769228516e+003;4.2614101563e+003;4.2612822266e+003;4.2917949219e+003;4.2955126953e+003;4.2983334961e+003;4.3041025391e+003;4.2924360352e+003;4.2910258789e+003;4.2874360352e+003;
2.5234375000e+000;4.1562822266e+003;4.2380771484e+003;4.2319228516e+003;4.2271796875e+003;4.2270512695e+003;4.2194873047e+003;4.2167949219e+003;4.2442309570e+003;4.2474360352e+003;4.2488461914e+003;4.2546152344e+003;4.2421796875e+003;4.2389741211e+003;4.2360258789e+003;
2.5312500000e+000;4.1144873047e+003;4.1825639648e+003;4.1739741211e+003;4.1814101563e+003;4.1841025391e+003;4.1914101563e+003;4.1841025391e+003;4.1766665039e+003;4.1829487305e+003;4.1812822266e+003;4.1942309570e+003;4.1805126953e+003;4.1787177734e+003;4.1783334961e+003;
2.5390625000e+000;4.1035898438e+003;4.1705126953e+003;4.1634614258e+003;4.1701284180e+003;4.1687177734e+003;4.1835898438e+003;4.1742309570e+003;4.1608974609e+003;4.1673076172e+003;4.1656411133e+003;4.1801284180e+003;4.1693588867e+003;4.1661538086e+003;4.1662822266e+003;
2.5468750000e+000;4.1623076172e+003;4.2238461914e+003;4.2138461914e+003;4.2200000000e+003;4.2244873047e+003;4.2338461914e+003;4.2260258789e+003;4.2065385742e+003;4.2078203125e+003;4.2132050781e+003;4.2332050781e+003;4.2155126953e+003;4.2128203125e+003;4.2153847656e+003;
2.5546875000e+000;4.1550000000e+003;4.2160258789e+003;4.2056411133e+003;4.2144873047e+003;4.2180771484e+003;4.2278203125e+003;4.2187177734e+003;4.2024360352e+003;4.1998715820e+003;4.2066665039e+003;4.2242309570e+003;4.2083334961e+003;4.2051284180e+003;4.2065385742e+003;
2.5625000000e+000;4.1198715820e+003;4.1792309570e+003;4.1685898438e+003;4.1834614258e+003;4.1823076172e+003;4.1962822266e+003;4.1848715820e+003;4.1696152344e+003;4.1621796875e+003;4.1662822266e+003;4.1832050781e+003;4.1733334961e+003;4.1700000000e+003;4.1675639648e+003;
2.5703125000e+000;4.1734614258e+003;4.2316665039e+003;4.2205126953e+003;4.2312822266e+003;4.2314101563e+003;4.2374360352e+003;4.2314101563e+003;4.2279487305e+003;4.2239741211e+003;4.2226923828e+003;4.2405126953e+003;4.2266665039e+003;4.2252563477e+003;4.2230771484e+003;
2.5781250000e+000;4.1825639648e+003;4.2379487305e+003;4.2279487305e+003;4.2371796875e+003;4.2369228516e+003;4.2405126953e+003;4.2358974609e+003;4.2330771484e+003;4.2305126953e+003;4.2293588867e+003;4.2442309570e+003;4.2302563477e+003;4.2335898438e+003;4.2271796875e+003;
2.5859375000e+000;4.2451284180e+003;4.2951284180e+003;4.2858974609e+003;4.2878203125e+003;4.2893588867e+003;4.2798715820e+003;4.2762822266e+003;4.2853847656e+003;4.2842309570e+003;4.2892309570e+003;4.2975639648e+003;4.2847436523e+003;4.2914101563e+003;4.2844873047e+003;
2.5937500000e+000;4.2458974609e+003;4.2944873047e+003;4.2876923828e+003;4.2860258789e+003;4.2857690430e+003;4.2720512695e+003;4.2678203125e+003;4.2844873047e+003;4.2841025391e+003;4.2897436523e+003;4.2984614258e+003;4.2876923828e+003;4.2898715820e+003;4.2880771484e+003;
2.6015625000e+000;4.2406411133e+003;4.2950000000e+003;4.2876923828e+003;4.2857690430e+003;4.2817949219e+003;4.2589741211e+003;4.2575639648e+003;4.2737177734e+003;4.2821796875e+003;4.2838461914e+003;4.3030771484e+003;4.2885898438e+003;4.2944873047e+003;4.2870512695e+003;
2.6093750000e+000;4.2865385742e+003;4.3429487305e+003;4.3326923828e+003;4.3305126953e+003;4.3287177734e+003;4.3023076172e+003;4.3014101563e+003;4.3179487305e+003;4.3289741211e+003;4.3348715820e+003;4.3524360352e+003;4.3339741211e+003;4.3461538086e+003;4.3328203125e+003;
2.6171875000e+000;4.3310258789e+003;4.3864101563e+003;4.3771796875e+003;4.3726923828e+003;4.3725639648e+003;4.3541025391e+003;4.3515385742e+003;4.3582050781e+003;4.3670512695e+003;4.3839741211e+003;4.3964101563e+003;4.3760258789e+003;4.3861538086e+003;4.3794873047e+003;
2.6250000000e+000;4.3484614258e+003;4.4061538086e+003;4.3971796875e+003;4.3910258789e+003;4.3944873047e+003;4.3776923828e+003;4.3748715820e+003;4.3756411133e+003;4.3832050781e+003;4.4007690430e+003;4.4129487305e+003;4.3930771484e+003;4.4030771484e+003;4.3964101563e+003;
2.6328125000e+000;4.3653847656e+003;4.4312822266e+003;4.4210258789e+003;4.4144873047e+003;4.4253847656e+003;4.4121796875e+003;4.4055126953e+003;4.4025639648e+003;4.4098715820e+003;4.4242309570e+003;4.4356411133e+003;4.4169228516e+003;4.4280771484e+003;4.4175639648e+003;
2.6406250000e+000;4.3450000000e+003;4.4138461914e+003;4.4012822266e+003;4.3982050781e+003;4.4108974609e+003;4.4008974609e+003;4.3932050781e+003;4.3876923828e+003;4.3951284180e+003;4.4055126953e+003;4.4188461914e+003;4.4008974609e+003;4.4097436523e+003;4.4008974609e+003;
2.6484375000e+000;4.3314101563e+003;4.4023076172e+003;4.3853847656e+003;4.3866665039e+003;4.4010258789e+003;4.3926923828e+003;4.3864101563e+003;4.3775639648e+003;4.3847436523e+003;4.3914101563e+003;4.4075639648e+003;4.3893588867e+003;4.3953847656e+003;4.3901284180e+003;
2.6562500000e+000;4.3020512695e+003;4.3723076172e+003;4.3632050781e+003;4.3555126953e+003;4.3638461914e+003;4.3638461914e+003;4.3635898438e+003;4.3558974609e+003;4.3542309570e+003;4.3610258789e+003;4.3780771484e+003;4.3620512695e+003;4.3694873047e+003;4.3637177734e+003;
2.6640625000e+000;4.3220512695e+003;4.3935898438e+003;4.3826923828e+003;4.3746152344e+003;4.3824360352e+003;4.3784614258e+003;4.3811538086e+003;4.3748715820e+003;4.3702563477e+003;4.3778203125e+003;4.3962822266e+003;4.3812822266e+003;4.3878203125e+003;4.3825639648e+003;
2.6718750000e+000;4.3800000000e+003;4.4585898438e+003;4.4410258789e+003;4.4338461914e+003;4.4448715820e+003;4.4335898438e+003;4.4371796875e+003;4.4437177734e+003;4.4347436523e+003;4.4480771484e+003;4.4567949219e+003;4.4447436523e+003;4.4428203125e+003;4.4462822266e+003;
2.6796875000e+000;4.3633334961e+003;4.4425639648e+003;4.4271796875e+003;4.4200000000e+003;4.4316665039e+003;4.4221796875e+003;4.4247436523e+003;4.4294873047e+003;4.4192309570e+003;4.4326923828e+003;4.4402563477e+003;4.4280771484e+003;4.4280771484e+003;4.4321796875e+003;
2.6875000000e+000;4.3700000000e+003;4.4547436523e+003;4.4412822266e+003;4.4311538086e+003;4.4439741211e+003;4.4316665039e+003;4.4353847656e+003;4.4423076172e+003;4.4319228516e+003;4.4450000000e+003;4.4543588867e+003;4.4392309570e+003;4.4462822266e+003;4.4456411133e+003;
2.6953125000e+000;4.3796152344e+003;4.4634614258e+003;4.4475639648e+003;4.4370512695e+003;4.4455126953e+003;4.4267949219e+003;4.4317949219e+003;4.4530771484e+003;4.4580771484e+003;4.4664101563e+003;4.4694873047e+003;4.4532050781e+003;4.4615385742e+003;4.4514101563e+003;
2.7031250000e+000;4.4151284180e+003;4.4976923828e+003;4.4808974609e+003;4.4700000000e+003;4.4805126953e+003;4.4571796875e+003;4.4616665039e+003;4.4856411133e+003;4.4951284180e+003;4.5044873047e+003;4.5035898438e+003;4.4841025391e+003;4.4961538086e+003;4.4865385742e+003;
2.7109375000e+000;4.3856411133e+003;4.4675639648e+003;4.4525639648e+003;4.4438461914e+003;4.4471796875e+003;4.4270512695e+003;4.4270512695e+003;4.4567949219e+003;4.4692309570e+003;4.4808974609e+003;4.4752563477e+003;4.4553847656e+003;4.4665385742e+003;4.4611538086e+003;
2.7187500000e+000;4.3311538086e+003;4.4129487305e+003;4.3970512695e+003;4.3919228516e+003;4.3898715820e+003;4.3746152344e+003;4.3730771484e+003;4.3997436523e+003;4.4119228516e+003;4.4224360352e+003;4.4196152344e+003;4.4008974609e+003;4.4107690430e+003;4.4048715820e+003;
2.7265625000e+000;4.2794873047e+003;4.3642309570e+003;4.3432050781e+003;4.3411538086e+003;4.3402563477e+003;4.3303847656e+003;4.3319228516e+003;4.3397436523e+003;4.3507690430e+003;4.3621796875e+003;4.3661538086e+003;4.3430771484e+003;4.3624360352e+003;4.3487177734e+003;
2.7343750000e+000;4.2603847656e+003;4.3437177734e+003;4.3262822266e+003;4.3239741211e+003;4.3233334961e+003;4.3167949219e+003;4.3179487305e+003;4.3198715820e+003;4.3298715820e+003;4.3429487305e+003;4.3465385742e+003;4.3237177734e+003;4.3448715820e+003;4.3317949219e+003;
2.7421875000e+000;4.2556411133e+003;4.3344873047e+003;4.3179487305e+003;4.3192309570e+003;4.3182050781e+003;4.3176923828e+003;4.3138461914e+003;4.3075639648e+003;4.3137177734e+003;4.3269228516e+003;4.3316665039e+003;4.3179487305e+003;4.3323076172e+003;4.3274360352e+003;
2.7500000000e+000;4.2594873047e+003;4.3379487305e+003;4.3212822266e+003;4.3223076172e+003;4.3203847656e+003;4.3235898438e+003;4.3185898438e+003;4.3138461914e+003;4.3182050781e+003;4.3301284180e+003;4.3339741211e+003;4.3239741211e+003;4.3337177734e+003;4.3308974609e+003;
2.7578125000e+000;4.2100000000e+003;4.2829487305e+003;4.2739741211e+003;4.2730771484e+003;4.2694873047e+003;4.2819228516e+003;4.2801284180e+003;4.2708974609e+003;4.2694873047e+003;4.2752563477e+003;4.2821796875e+003;4.2729487305e+003;4.2802563477e+003;4.2774360352e+003;
2.7656250000e+000;4.2084614258e+003;4.2778203125e+003;4.2724360352e+003;4.2698715820e+003;4.2694873047e+003;4.2800000000e+003;4.2819228516e+003;4.2703847656e+003;4.2667949219e+003;4.2697436523e+003;4.2796152344e+003;4.2666665039e+003;4.2776923828e+003;4.2725639648e+003;
2.7734375000e+000;4.2344873047e+003;4.3020512695e+003;4.2984614258e+003;4.2932050781e+003;4.2975639648e+003;4.3028203125e+003;4.3069228516e+003;4.2984614258e+003;4.2935898438e+003;4.2955126953e+003;4.3062822266e+003;4.2898715820e+003;4.3041025391e+003;4.2971796875e+003;
2.7812500000e+000;4.2561538086e+003;4.3238461914e+003;4.3211538086e+003;4.3134614258e+003;4.3205126953e+003;4.3223076172e+003;4.3258974609e+003;4.3246152344e+003;4.3187177734e+003;4.3207690430e+003;4.3298715820e+003;4.3133334961e+003;4.3267949219e+003;4.3198715820e+003;
2.7890625000e+000;4.1902563477e+003;4.2553847656e+003;4.2492309570e+003;4.2497436523e+003;4.2542309570e+003;4.2641025391e+003;4.2639741211e+003;4.2691025391e+003;4.2612822266e+003;4.2598715820e+003;4.2641025391e+003;4.2496152344e+003;4.2571796875e+003;4.2569228516e+003;
2.7968750000e+000;4.1887177734e+003;4.2520512695e+003;4.2473076172e+003;4.2476923828e+003;4.2541025391e+003;4.2641025391e+003;4.2637177734e+003;4.2717949219e+003;4.2666665039e+003;4.2630771484e+003;4.2662822266e+003;4.2476923828e+003;4.2583334961e+003;4.2569228516e+003;
2.8046875000e+000;4.1066665039e+003;4.1621796875e+003;4.1647436523e+003;4.1667949219e+003;4.1664101563e+003;4.1838461914e+003;4.1762822266e+003;4.1883334961e+003;4.1984614258e+003;4.1807690430e+003;4.1791025391e+003;4.1643588867e+003;4.1717949219e+003;4.1679487305e+003;
2.8125000000e+000;4.0591025391e+003;4.0985898438e+003;4.1058974609e+003;4.1096152344e+003;4.0969228516e+003;4.1028203125e+003;4.0889743652e+003;4.1074360352e+003;4.1237177734e+003;4.1119228516e+003;4.1160258789e+003;4.1065385742e+003;4.1046152344e+003;4.1106411133e+003;
2.8203125000e+000;4.0458974609e+003;4.0674357910e+003;4.0833332520e+003;4.0839743652e+003;4.0637180176e+003;4.0717949219e+003;4.0671794434e+003;4.0682050781e+003;4.0843588867e+003;4.0760256348e+003;4.0919230957e+003;4.0794870605e+003;4.0857692871e+003;4.0896154785e+003;
2.8281250000e+000;4.0385898438e+003;4.0582050781e+003;4.0733332520e+003;4.0765385742e+003;4.0564101563e+003;4.0692307129e+003;4.0641025391e+003;4.0615385742e+003;4.0788461914e+003;4.0708974609e+003;4.0841025391e+003;4.0728205566e+003;4.0770512695e+003;4.0832050781e+003;
2.8359375000e+000;3.9937180176e+003;4.0147436523e+003;4.0241025391e+003;4.0343588867e+003;4.0143588867e+003;4.0358974609e+003;4.0294870605e+003;4.0165385742e+003;4.0298718262e+003;4.0198718262e+003;4.0325642090e+003;4.0250000000e+003;4.0244870605e+003;4.0348718262e+003;
2.8437500000e+000;4.0011538086e+003;4.0247436523e+003;4.0294870605e+003;4.0407692871e+003;4.0243588867e+003;4.0452563477e+003;4.0401281738e+003;4.0246154785e+003;4.0350000000e+003;4.0226923828e+003;4.0370512695e+003;4.0292307129e+003;4.0308974609e+003;4.0387180176e+003;
2.8515625000e+000;3.9729487305e+003;3.9907692871e+003;4.0034614258e+003;4.0114101563e+003;3.9989743652e+003;4.0275642090e+003;4.0185898438e+003;4.0085898438e+003;4.0117949219e+003;3.9948718262e+003;4.0105129395e+003;4.0028205566e+003;4.0088461914e+003;4.0138461914e+003;
2.8593750000e+000;3.9560256348e+003;3.9698718262e+003;3.9867949219e+003;3.9955129395e+003;3.9805129395e+003;4.0133332520e+003;4.0038461914e+003;3.9924357910e+003;3.9943588867e+003;3.9780769043e+003;3.9932050781e+003;3.9869230957e+003;3.9915385742e+003;3.9988461914e+003;
2.8671875000e+000;3.9916667480e+003;4.0008974609e+003;4.0162819824e+003;4.0273076172e+003;4.0102563477e+003;4.0356411133e+003;4.0357692871e+003;4.0284614258e+003;4.0270512695e+003;4.0123076172e+003;4.0235898438e+003;4.0225642090e+003;4.0192307129e+003;4.0279487305e+003;
2.8750000000e+000;3.9733332520e+003;3.9789743652e+003;3.9962819824e+003;4.0062819824e+003;3.9882050781e+003;4.0141025391e+003;4.0138461914e+003;4.0083332520e+003;4.0056411133e+003;3.9882050781e+003;4.0014101563e+003;4.0021794434e+003;3.9966667480e+003;4.0051281738e+003;
2.8828125000e+000;3.9662819824e+003;3.9674357910e+003;3.9864101563e+003;3.9920512695e+003;3.9750000000e+003;4.0039743652e+003;3.9962819824e+003;3.9960256348e+003;3.9915385742e+003;3.9735898438e+003;3.9901281738e+003;3.9898718262e+003;3.9856411133e+003;3.9929487305e+003;
2.8906250000e+000;3.9778205566e+003;3.9797436523e+003;3.9975642090e+003;4.0025642090e+003;3.9860256348e+003;4.0150000000e+003;4.0037180176e+003;4.0092307129e+003;4.0047436523e+003;3.9898718262e+003;4.0033332520e+003;4.0016667480e+003;3.9987180176e+003;4.0057692871e+003;
2.8984375000e+000;3.9697436523e+003;3.9717949219e+003;3.9888461914e+003;3.9960256348e+003;3.9773076172e+003;4.0066667480e+003;3.9937180176e+003;4.0032050781e+003;4.0001281738e+003;3.9870512695e+003;3.9956411133e+003;3.9941025391e+003;3.9910256348e+003;3.9984614258e+003;
2.9062500000e+000;3.9439743652e+003;3.9439743652e+003;3.9607692871e+003;3.9720512695e+003;3.9491025391e+003;3.9791025391e+003;3.9657692871e+003;3.9750000000e+003;3.9748718262e+003;3.9602563477e+003;3.9661538086e+003;3.9657692871e+003;3.9620512695e+003;3.9698718262e+003;
2.9140625000e+000;3.9232050781e+003;3.9024357910e+003;3.9223076172e+003;3.9366667480e+003;3.9005129395e+003;3.9200000000e+003;3.9182050781e+003;3.9126923828e+003;3.9221794434e+003;3.9026923828e+003;3.9158974609e+003;3.9206411133e+003;3.9142307129e+003;3.9279487305e+003;
2.9218750000e+000;3.9444870605e+003;3.9225642090e+003;3.9405129395e+003;3.9558974609e+003;3.9226923828e+003;3.9426923828e+003;3.9426923828e+003;3.9335898438e+003;3.9379487305e+003;3.9196154785e+003;3.9338461914e+003;3.9383332520e+003;3.9346154785e+003;3.9469230957e+003;
2.9296875000e+000;3.9688461914e+003;3.9461538086e+003;3.9623076172e+003;3.9766667480e+003;3.9543588867e+003;3.9833332520e+003;3.9798718262e+003;3.9744870605e+003;3.9646154785e+003;3.9517949219e+003;3.9621794434e+003;3.9667949219e+003;3.9593588867e+003;3.9729487305e+003;
2.9375000000e+000;3.9380769043e+003;3.9155129395e+003;3.9326923828e+003;3.9498718262e+003;3.9287180176e+003;3.9623076172e+003;3.9575642090e+003;3.9483332520e+003;3.9364101563e+003;3.9214101563e+003;3.9334614258e+003;3.9379487305e+003;3.9285898438e+003;3.9435898438e+003;
2.9453125000e+000;3.9617949219e+003;3.9420512695e+003;3.9551281738e+003;3.9788461914e+003;3.9629487305e+003;3.9902563477e+003;3.9888461914e+003;3.9719230957e+003;3.9611538086e+003;3.9453845215e+003;3.9583332520e+003;3.9578205566e+003;3.9532050781e+003;3.9638461914e+003;
2.9531250000e+000;3.9580769043e+003;3.9334614258e+003;3.9474357910e+003;3.9691025391e+003;3.9456411133e+003;3.9747436523e+003;3.9729487305e+003;3.9621794434e+003;3.9494870605e+003;3.9314101563e+003;3.9437180176e+003;3.9517949219e+003;3.9414101563e+003;3.9478205566e+003;
2.9609375000e+000;3.9703845215e+003;3.9450000000e+003;3.9592307129e+003;3.9806411133e+003;3.9564101563e+003;3.9830769043e+003;3.9815385742e+003;3.9746154785e+003;3.9616667480e+003;3.9437180176e+003;3.9582050781e+003;3.9643588867e+003;3.9556411133e+003;3.9605129395e+003;
2.9687500000e+000;3.9487180176e+003;3.9194870605e+003;3.9337180176e+003;3.9625642090e+003;3.9350000000e+003;3.9543588867e+003;3.9469230957e+003;3.9492307129e+003;3.9474357910e+003;3.9306411133e+003;3.9414101563e+003;3.9400000000e+003;3.9419230957e+003;3.9324357910e+003;
2.9765625000e+000;3.9571794434e+003;3.9265385742e+003;3.9379487305e+003;3.9667949219e+003;3.9430769043e+003;3.9570512695e+003;3.9483332520e+003;3.9508974609e+003;3.9525642090e+003;3.9358974609e+003;3.9461538086e+003;3.9447436523e+003;3.9498718262e+003;3.9376923828e+003;
2.9843750000e+000;4.0106411133e+003;3.9791025391e+003;3.9885898438e+003;4.0100000000e+003;3.9898718262e+003;3.9951281738e+003;3.9856411133e+003;3.9934614258e+003;3.9975642090e+003;3.9839743652e+003;3.9975642090e+003;3.9984614258e+003;3.9996154785e+003;3.9930769043e+003;
2.9921875000e+000;4.0100000000e+003;3.9774357910e+003;3.9906411133e+003;4.0093588867e+003;3.9847436523e+003;3.9901281738e+003;3.9810256348e+003;3.9894870605e+003;3.9943588867e+003;3.9805129395e+003;3.9975642090e+003;3.9992307129e+003;3.9951281738e+003;3.9937180176e+003;
3.0000000000e+000;4.0096154785e+003;3.9800000000e+003;3.9898718262e+003;4.0148718262e+003;3.9839743652e+003;3.9824357910e+003;3.9789743652e+003;3.9850000000e+003;3.9955129395e+003;3.9794870605e+003;3.9978205566e+003;3.9925642090e+003;3.9925642090e+003;3.9885898438e+003;
3.0078125000e+000;4.0048718262e+003;3.9766667480e+003;3.9829487305e+003;4.0083332520e+003;3.9793588867e+003;3.9765385742e+003;3.9733332520e+003;3.9830769043e+003;3.9948718262e+003;3.9800000000e+003;3.9957692871e+003;3.9893588867e+003;3.9905129395e+003;3.9861538086e+003;
3.0156250000e+000;3.9316667480e+003;3.8984614258e+003;3.9071794434e+003;3.9294870605e+003;3.9002563477e+003;3.9070512695e+003;3.9043588867e+003;3.9106411133e+003;3.9192307129e+003;3.9024357910e+003;3.9215385742e+003;3.9180769043e+003;3.9126923828e+003;3.9157692871e+003;
3.0234375000e+000;3.9200000000e+003;3.8838461914e+003;3.8942307129e+003;3.9156411133e+003;3.8861538086e+003;3.8974357910e+003;3.8964101563e+003;3.8965385742e+003;3.9014101563e+003;3.8819230957e+003;3.9050000000e+003;3.9024357910e+003;3.8961538086e+003;3.9010256348e+003;
3.0312500000e+000;3.9398718262e+003;3.9035898438e+003;3.9135898438e+003;3.9350000000e+003;3.9066667480e+003;3.9197436523e+003;3.9192307129e+003;3.9167949219e+003;3.9176923828e+003;3.8969230957e+003;3.9206411133e+003;3.9185898438e+003;3.9141025391e+003;3.9174357910e+003;
3.0390625000e+000;3.9157692871e+003;3.8907692871e+003;3.8991025391e+003;3.9224357910e+003;3.9057692871e+003;3.9275642090e+003;3.9205129395e+003;3.9164101563e+003;3.9098718262e+003;3.8907692871e+003;3.9064101563e+003;3.9010256348e+003;3.9046154785e+003;3.8983332520e+003;
3.0468750000e+000;3.9297436523e+003;3.9053845215e+003;3.9116667480e+003;3.9369230957e+003;3.9207692871e+003;3.9420512695e+003;3.9382050781e+003;3.9325642090e+003;3.9235898438e+003;3.9064101563e+003;3.9242307129e+003;3.9169230957e+003;3.9212819824e+003;3.9143588867e+003;
3.0546875000e+000;3.9182050781e+003;3.8861538086e+003;3.8957692871e+003;3.9173076172e+003;3.9000000000e+003;3.9228205566e+003;3.9257692871e+003;3.9137180176e+003;3.8944870605e+003;3.8769230957e+003;3.9019230957e+003;3.9015385742e+003;3.9001281738e+003;3.8960256348e+003;
3.0625000000e+000;3.9688461914e+003;3.9342307129e+003;3.9496154785e+003;3.9619230957e+003;3.9447436523e+003;3.9652563477e+003;3.9657692871e+003;3.9597436523e+003;3.9470512695e+003;3.9343588867e+003;3.9497436523e+003;3.9543588867e+003;3.9420512695e+003;3.9452563477e+003;
3.0703125000e+000;3.9482050781e+003;3.9142307129e+003;3.9319230957e+003;3.9438461914e+003;3.9216667480e+003;3.9460256348e+003;3.9446154785e+003;3.9378205566e+003;3.9274357910e+003;3.9147436523e+003;3.9303845215e+003;3.9383332520e+003;3.9220512695e+003;3.9271794434e+003;
3.0781250000e+000;3.9729487305e+003;3.9387180176e+003;3.9543588867e+003;3.9610256348e+003;3.9378205566e+003;3.9535898438e+003;3.9507692871e+003;3.9441025391e+003;3.9479487305e+003;3.9320512695e+003;3.9534614258e+003;3.9594870605e+003;3.9502563477e+003;3.9501281738e+003;
3.0859375000e+000;3.9737180176e+003;3.9376923828e+003;3.9537180176e+003;3.9607692871e+003;3.9362819824e+003;3.9492307129e+003;3.9451281738e+003;3.9429487305e+003;3.9511538086e+003;3.9335898438e+003;3.9525642090e+003;3.9587180176e+003;3.9506411133e+003;3.9503845215e+003;
3.0937500000e+000;4.0296154785e+003;3.9955129395e+003;4.0067949219e+003;4.0203845215e+003;3.9902563477e+003;3.9933332520e+003;3.9941025391e+003;3.9921794434e+003;4.0015385742e+003;3.9857692871e+003;4.0032050781e+003;4.0105129395e+003;4.0046154785e+003;4.0084614258e+003;
3.1015625000e+000;4.0807692871e+003;4.0503845215e+003;4.0601281738e+003;4.0703845215e+003;4.0430769043e+003;4.0400000000e+003;4.0448718262e+003;4.0458974609e+003;4.0539743652e+003;4.0430769043e+003;4.0583332520e+003;4.0648718262e+003;4.0597436523e+003;4.0633332520e+003;
3.1093750000e+000;4.0682050781e+003;4.0393588867e+003;4.0520512695e+003;4.0574357910e+003;4.0341025391e+003;4.0296154785e+003;4.0389743652e+003;4.0474357910e+003;4.0535898438e+003;4.0430769043e+003;4.0520512695e+003;4.0614101563e+003;4.0521794434e+003;4.0532050781e+003;
3.1171875000e+000;4.0332050781e+003;4.0038461914e+003;4.0166667480e+003;4.0233332520e+003;4.0016667480e+003;3.9989743652e+003;4.0087180176e+003;4.0189743652e+003;4.0246154785e+003;4.0079487305e+003;4.0167949219e+003;4.0271794434e+003;4.0161538086e+003;4.0155129395e+003;
3.1250000000e+000;4.0141025391e+003;3.9875642090e+003;3.9992307129e+003;4.0060256348e+003;3.9864101563e+003;3.9933332520e+003;3.9978205566e+003;4.0147436523e+003;4.0170512695e+003;3.9906411133e+003;3.9998718262e+003;4.0082050781e+003;3.9997436523e+003;4.0001281738e+003;
3.1328125000e+000;3.9938461914e+003;3.9666667480e+003;3.9819230957e+003;3.9874357910e+003;3.9653845215e+003;3.9793588867e+003;3.9820512695e+003;3.9942307129e+003;3.9957692871e+003;3.9714101563e+003;3.9805129395e+003;3.9897436523e+003;3.9823076172e+003;3.9834614258e+003;
3.1406250000e+000;3.9889743652e+003;3.9593588867e+003;3.9765385742e+003;3.9824357910e+003;3.9594870605e+003;3.9766667480e+003;3.9806411133e+003;3.9787180176e+003;3.9807692871e+003;3.9596154785e+003;3.9743588867e+003;3.9842307129e+003;3.9775642090e+003;3.9779487305e+003;
3.1484375000e+000;4.0046154785e+003;3.9752563477e+003;3.9903845215e+003;3.9975642090e+003;3.9751281738e+003;3.9897436523e+003;3.9937180176e+003;3.9906411133e+003;3.9917949219e+003;3.9706411133e+003;3.9898718262e+003;4.0000000000e+003;3.9915385742e+003;3.9924357910e+003;
3.1562500000e+000;4.0029487305e+003;3.9746154785e+003;3.9875642090e+003;3.9967949219e+003;3.9730769043e+003;3.9875642090e+003;3.9897436523e+003;3.9869230957e+003;3.9860256348e+003;3.9642307129e+003;3.9876923828e+003;3.9989743652e+003;3.9878205566e+003;3.9902563477e+003;
3.1640625000e+000;3.9830769043e+003;3.9548718262e+003;3.9662819824e+003;3.9780769043e+003;3.9523076172e+003;3.9692307129e+003;3.9698718262e+003;3.9634614258e+003;3.9605129395e+003;3.9388461914e+003;3.9653845215e+003;3.9779487305e+003;3.9657692871e+003;3.9685898438e+003;
3.1718750000e+000;4.0043588867e+003;3.9741025391e+003;3.9848718262e+003;3.9965385742e+003;3.9762819824e+003;3.9894870605e+003;3.9958974609e+003;3.9717949219e+003;3.9698718262e+003;3.9616667480e+003;3.9866667480e+003;3.9933332520e+003;3.9917949219e+003;3.9898718262e+003;
3.1796875000e+000;3.9805129395e+003;3.9516667480e+003;3.9647436523e+003;3.9752563477e+003;3.9520512695e+003;3.9679487305e+003;3.9714101563e+003;3.9497436523e+003;3.9465385742e+003;3.9374357910e+003;3.9629487305e+003;3.9710256348e+003;3.9667949219e+003;3.9688461914e+003;
3.1875000000e+000;3.9683332520e+003;3.9379487305e+003;3.9497436523e+003;3.9603845215e+003;3.9364101563e+003;3.9498718262e+003;3.9478205566e+003;3.9255129395e+003;3.9320512695e+003;3.9138461914e+003;3.9385898438e+003;3.9453845215e+003;3.9432050781e+003;3.9488461914e+003;
3.1953125000e+000;3.9462819824e+003;3.9137180176e+003;3.9289743652e+003;3.9398718262e+003;3.9128205566e+003;3.9261538086e+003;3.9285898438e+003;3.9123076172e+003;3.9211538086e+003;3.9017949219e+003;3.9220512695e+003;3.9334614258e+003;3.9252563477e+003;3.9323076172e+003;
3.2031250000e+000;3.9635898438e+003;3.9351281738e+003;3.9467949219e+003;3.9594870605e+003;3.9311538086e+003;3.9402563477e+003;3.9479487305e+003;3.9369230957e+003;3.9423076172e+003;3.9247436523e+003;3.9432050781e+003;3.9565385742e+003;3.9464101563e+003;3.9524357910e+003;
3.2109375000e+000;3.9889743652e+003;3.9630769043e+003;3.9705129395e+003;3.9814101563e+003;3.9552563477e+003;3.9561538086e+003;3.9674357910e+003;3.9776923828e+003;3.9878205566e+003;3.9710256348e+003;3.9805129395e+003;3.9894870605e+003;3.9844870605e+003;3.9806411133e+003;
3.2187500000e+000;3.9647436523e+003;3.9352563477e+003;3.9441025391e+003;3.9538461914e+003;3.9278205566e+003;3.9315385742e+003;3.9415385742e+003;3.9511538086e+003;3.9634614258e+003;3.9433332520e+003;3.9558974609e+003;3.9619230957e+003;3.9584614258e+003;3.9538461914e+003;
3.2265625000e+000;3.9923076172e+003;3.9624357910e+003;3.9666667480e+003;3.9829487305e+003;3.9533332520e+003;3.9558974609e+003;3.9683332520e+003;3.9784614258e+003;3.9862819824e+003;3.9694870605e+003;3.9797436523e+003;3.9900000000e+003;3.9829487305e+003;3.9793588867e+003;
3.2343750000e+000;3.9720512695e+003;3.9402563477e+003;3.9478205566e+003;3.9666667480e+003;3.9335898438e+003;3.9391025391e+003;3.9515385742e+003;3.9607692871e+003;3.9673076172e+003;3.9515385742e+003;3.9579487305e+003;3.9717949219e+003;3.9620512695e+003;3.9596154785e+003;
3.2421875000e+000;3.9198718262e+003;3.8814101563e+003;3.8956411133e+003;3.9137180176e+003;3.8837180176e+003;3.8958974609e+003;3.9056411133e+003;3.9035898438e+003;3.9110256348e+003;3.8902563477e+003;3.8996154785e+003;3.9132050781e+003;3.9041025391e+003;3.9042307129e+003;
3.2500000000e+000;3.9182050781e+003;3.8797436523e+003;3.8924357910e+003;3.9092307129e+003;3.8843588867e+003;3.8969230957e+003;3.9044870605e+003;3.8982050781e+003;3.9061538086e+003;3.8837180176e+003;3.8967949219e+003;3.9084614258e+003;3.9003845215e+003;3.9014101563e+003;
3.2578125000e+000;3.8865385742e+003;3.8512819824e+003;3.8588461914e+003;3.8830769043e+003;3.8551281738e+003;3.8726923828e+003;3.8758974609e+003;3.8544870605e+003;3.8615385742e+003;3.8426923828e+003;3.8625642090e+003;3.8779487305e+003;3.8634614258e+003;3.8660256348e+003;
3.2656250000e+000;3.9129487305e+003;3.8782050781e+003;3.8851281738e+003;3.9091025391e+003;3.8817949219e+003;3.8983332520e+003;3.9024357910e+003;3.8735898438e+003;3.8811538086e+003;3.8651281738e+003;3.8862819824e+003;3.9014101563e+003;3.8892307129e+003;3.8903845215e+003;
3.2734375000e+000;4.0198718262e+003;3.9892307129e+003;3.9932050781e+003;4.0120512695e+003;3.9905129395e+003;4.0019230957e+003;4.0061538086e+003;3.9751281738e+003;3.9829487305e+003;3.9767949219e+003;3.9975642090e+003;4.0053845215e+003;4.0007692871e+003;3.9996154785e+003;
3.2812500000e+000;4.0361538086e+003;4.0075642090e+003;4.0101281738e+003;4.0303845215e+003;4.0083332520e+003;4.0196154785e+003;4.0230769043e+003;3.9935898438e+003;4.0002563477e+003;3.9980769043e+003;4.0176923828e+003;4.0225642090e+003;4.0192307129e+003;4.0174357910e+003;
3.2890625000e+000;4.0291025391e+003;4.0026923828e+003;4.0025642090e+003;4.0271794434e+003;4.0043588867e+003;4.0144870605e+003;4.0187180176e+003;3.9885898438e+003;3.9938461914e+003;3.9933332520e+003;4.0121794434e+003;4.0156411133e+003;4.0129487305e+003;4.0097436523e+003;
3.2968750000e+000;4.0328205566e+003;4.0157692871e+003;4.0194870605e+003;4.0307692871e+003;4.0155129395e+003;4.0150000000e+003;4.0196154785e+003;4.0111538086e+003;4.0219230957e+003;4.0185898438e+003;4.0305129395e+003;4.0334614258e+003;4.0321794434e+003;4.0229487305e+003;
3.3046875000e+000;4.0683332520e+003;4.0505129395e+003;4.0489743652e+003;4.0601281738e+003;4.0458974609e+003;4.0355129395e+003;4.0533332520e+003;4.0579487305e+003;4.0725642090e+003;4.0624357910e+003;4.0741025391e+003;4.0657692871e+003;4.0706411133e+003;4.0597436523e+003;
3.3125000000e+000;4.0575642090e+003;4.0392307129e+003;4.0421794434e+003;4.0508974609e+003;4.0356411133e+003;4.0237180176e+003;4.0432050781e+003;4.0505129395e+003;4.0617949219e+003;4.0493588867e+003;4.0602563477e+003;4.0555129395e+003;4.0580769043e+003;4.0478205566e+003;
3.3203125000e+000;4.0856411133e+003;4.0671794434e+003;4.0735898438e+003;4.0762819824e+003;4.0619230957e+003;4.0419230957e+003;4.0617949219e+003;4.0785898438e+003;4.0846154785e+003;4.0730769043e+003;4.0823076172e+003;4.0807692871e+003;4.0846154785e+003;4.0698718262e+003;
3.3281250000e+000;4.1188461914e+003;4.1064101563e+003;4.1037177734e+003;4.1114101563e+003;4.0960258789e+003;4.0748718262e+003;4.0939743652e+003;4.1019228516e+003;4.1150000000e+003;4.1115385742e+003;4.1146152344e+003;4.1179487305e+003;4.1174360352e+003;4.1066665039e+003;
3.3359375000e+000;4.1651284180e+003;4.1547436523e+003;4.1502563477e+003;4.1573076172e+003;4.1451284180e+003;4.1215385742e+003;4.1419228516e+003;4.1439741211e+003;4.1585898438e+003;4.1575639648e+003;4.1608974609e+003;4.1611538086e+003;4.1635898438e+003;4.1516665039e+003;
3.3437500000e+000;4.2128203125e+003;4.2055126953e+003;4.2011538086e+003;4.2055126953e+003;4.1975639648e+003;4.1724360352e+003;4.1921796875e+003;4.1925639648e+003;4.2055126953e+003;4.2089741211e+003;4.2108974609e+003;4.2074360352e+003;4.2129487305e+003;4.1994873047e+003;
3.3515625000e+000;4.2160258789e+003;4.2180771484e+003;4.2155126953e+003;4.2161538086e+003;4.2150000000e+003;4.1951284180e+003;4.2092309570e+003;4.2011538086e+003;4.2047436523e+003;4.2184614258e+003;4.2157690430e+003;4.2129487305e+003;4.2179487305e+003;4.2056411133e+003;
3.3593750000e+000;4.2515385742e+003;4.2673076172e+003;4.2543588867e+003;4.2556411133e+003;4.2664101563e+003;4.2428203125e+003;4.2565385742e+003;4.2269228516e+003;4.2319228516e+003;4.2500000000e+003;4.2493588867e+003;4.2543588867e+003;4.2517949219e+003;4.2461538086e+003;
3.3671875000e+000;4.2558974609e+003;4.2702563477e+003;4.2606411133e+003;4.2594873047e+003;4.2708974609e+003;4.2487177734e+003;4.2602563477e+003;4.2324360352e+003;4.2406411133e+003;4.2550000000e+003;4.2571796875e+003;4.2606411133e+003;4.2573076172e+003;4.2526923828e+003;
3.3750000000e+000;4.2387177734e+003;4.2501284180e+003;4.2464101563e+003;4.2441025391e+003;4.2578203125e+003;4.2402563477e+003;4.2475639648e+003;4.2241025391e+003;4.2298715820e+003;4.2384614258e+003;4.2473076172e+003;4.2423076172e+003;4.2458974609e+003;4.2360258789e+003;
3.3828125000e+000;4.2489741211e+003;4.2661538086e+003;4.2591025391e+003;4.2569228516e+003;4.2723076172e+003;4.2525639648e+003;4.2611538086e+003;4.2423076172e+003;4.2467949219e+003;4.2578203125e+003;4.2634614258e+003;4.2587177734e+003;4.2617949219e+003;4.2514101563e+003;
3.3906250000e+000;4.1907690430e+003;4.2129487305e+003;4.2103847656e+003;4.2041025391e+003;4.2148715820e+003;4.2016665039e+003;4.2124360352e+003;4.1998715820e+003;4.2076923828e+003;4.2151284180e+003;4.2166665039e+003;4.2143588867e+003;4.2115385742e+003;4.2056411133e+003;
3.3984375000e+000;4.1633334961e+003;4.1825639648e+003;4.1846152344e+003;4.1758974609e+003;4.1843588867e+003;4.1741025391e+003;4.1873076172e+003;4.1737177734e+003;4.1852563477e+003;4.1870512695e+003;4.1900000000e+003;4.1860258789e+003;4.1848715820e+003;4.1794873047e+003;
3.4062500000e+000;4.1743588867e+003;4.1914101563e+003;4.1946152344e+003;4.1841025391e+003;4.1934614258e+003;4.1806411133e+003;4.1967949219e+003;4.1843588867e+003;4.1989741211e+003;4.1971796875e+003;4.2007690430e+003;4.1938461914e+003;4.1973076172e+003;4.1897436523e+003;
3.4140625000e+000;4.2085898438e+003;4.2266665039e+003;4.2276923828e+003;4.2166665039e+003;4.2280771484e+003;4.2088461914e+003;4.2266665039e+003;4.2203847656e+003;4.2366665039e+003;4.2350000000e+003;4.2364101563e+003;4.2282050781e+003;4.2351284180e+003;4.2247436523e+003;
3.4218750000e+000;4.2660258789e+003;4.2951284180e+003;4.2853847656e+003;4.2761538086e+003;4.2823076172e+003;4.2461538086e+003;4.2628203125e+003;4.2794873047e+003;4.2989741211e+003;4.3041025391e+003;4.2984614258e+003;4.2914101563e+003;4.3000000000e+003;4.2865385742e+003;
3.4296875000e+000;4.2987177734e+003;4.3308974609e+003;4.3203847656e+003;4.3089741211e+003;4.3147436523e+003;4.2721796875e+003;4.2907690430e+003;4.3110258789e+003;4.3314101563e+003;4.3387177734e+003;4.3307690430e+003;4.3228203125e+003;4.3341025391e+003;4.3205126953e+003;
