Time (s);AF3;F7;F3;FC5;T7;P7;O1;O2;P8;T8;FC6;F4;F8;AF4;Sampling Rate
0.0000000000e+000;3.7825642090e+003;3.7171794434e+003;3.7369230957e+003;3.7605129395e+003;3.7142307129e+003;3.7382050781e+003;3.7365385742e+003;3.7266667480e+003;3.7296154785e+003;3.7270512695e+003;3.7269230957e+003;3.7433332520e+003;3.7305129395e+003;3.7421794434e+003;128
7.8125000000e-003;3.7825642090e+003;3.7152563477e+003;3.7330769043e+003;3.7580769043e+003;3.7123076172e+003;3.7355129395e+003;3.7307692871e+003;3.7215385742e+003;3.7273076172e+003;3.7265385742e+003;3.7260256348e+003;3.7437180176e+003;3.7329487305e+003;3.7405129395e+003;
1.5625000000e-002;3.8257692871e+003;3.7493588867e+003;3.7688461914e+003;3.7891025391e+003;3.7482050781e+003;3.7687180176e+003;3.7652563477e+003;3.7552563477e+003;3.7679487305e+003;3.7634614258e+003;3.7660256348e+003;3.7789743652e+003;3.7732050781e+003;3.7762819824e+003;
2.3437500000e-002;3.8392307129e+003;3.7625642090e+003;3.7807692871e+003;3.7994870605e+003;3.7603845215e+003;3.7803845215e+003;3.7775642090e+003;3.7701281738e+003;3.7838461914e+003;3.7812819824e+003;3.7829487305e+003;3.7930769043e+003;3.7869230957e+003;3.7915385742e+003;
3.1250000000e-002;3.8126923828e+003;3.7333332520e+003;3.7542307129e+003;3.7700000000e+003;3.7294870605e+003;3.7505129395e+003;3.7498718262e+003;3.7350000000e+003;3.7517949219e+003;3.7458974609e+003;3.7515385742e+003;3.7624357910e+003;3.7555129395e+003;3.7567949219e+003;
3.9062500000e-002;3.8093588867e+003;3.7226923828e+003;3.7469230957e+003;3.7650000000e+003;3.7206411133e+003;3.7453845215e+003;3.7380769043e+003;3.7242307129e+003;3.7373076172e+003;3.7308974609e+003;3.7315385742e+003;3.7525642090e+003;3.7387180176e+003;3.7452563477e+003;
4.6875000000e-002;3.7906411133e+003;3.7026923828e+003;3.7274357910e+003;3.7483332520e+003;3.7039743652e+003;3.7296154785e+003;3.7229487305e+003;3.7087180176e+003;3.7174357910e+003;3.7091025391e+003;3.7108974609e+003;3.7306411133e+003;3.7157692871e+003;3.7248718262e+003;
5.4687500000e-002;3.7960256348e+003;3.7092307129e+003;3.7338461914e+003;3.7544870605e+003;3.7130769043e+003;3.7370512695e+003;3.7337180176e+003;3.7203845215e+003;3.7248718262e+003;3.7141025391e+003;3.7179487305e+003;3.7334614258e+003;3.7200000000e+003;3.7288461914e+003;
6.2500000000e-002;3.8247436523e+003;3.7423076172e+003;3.7678205566e+003;3.7826923828e+003;3.7464101563e+003;3.7691025391e+003;3.7728205566e+003;3.7665385742e+003;3.7665385742e+003;3.7524357910e+003;3.7552563477e+003;3.7652563477e+003;3.7532050781e+003;3.7588461914e+003;
7.0312500000e-002;3.8021794434e+003;3.7150000000e+003;3.7356411133e+003;3.7575642090e+003;3.7183332520e+003;3.7412819824e+003;3.7523076172e+003;3.7419230957e+003;3.7442307129e+003;3.7280769043e+003;3.7303845215e+003;3.7411538086e+003;3.7294870605e+003;3.7352563477e+003;
7.8125000000e-002;3.8265385742e+003;3.7383332520e+003;3.7565385742e+003;3.7778205566e+003;3.7438461914e+003;3.7612819824e+003;3.7728205566e+003;3.7658974609e+003;3.7687180176e+003;3.7534614258e+003;3.7560256348e+003;3.7657692871e+003;3.7543588867e+003;3.7607692871e+003;
8.5937500000e-002;3.8373076172e+003;3.7483332520e+003;3.7665385742e+003;3.7852563477e+003;3.7561538086e+003;3.7708974609e+003;3.7806411133e+003;3.7798718262e+003;3.7814101563e+003;3.7671794434e+003;3.7693588867e+003;3.7791025391e+003;3.7658974609e+003;3.7734614258e+003;
9.3750000000e-002;3.8220512695e+003;3.7321794434e+003;3.7511538086e+003;3.7684614258e+003;3.7405129395e+003;3.7574357910e+003;3.7647436523e+003;3.7669230957e+003;3.7658974609e+003;3.7519230957e+003;3.7541025391e+003;3.7651281738e+003;3.7493588867e+003;3.7582050781e+003;
1.0156250000e-001;3.8382050781e+003;3.7492307129e+003;3.7569230957e+003;3.7817949219e+003;3.7428205566e+003;3.7629487305e+003;3.7684614258e+003;3.7629487305e+003;3.7675642090e+003;3.7557692871e+003;3.7566667480e+003;3.7685898438e+003;3.7567949219e+003;3.7641025391e+003;
1.0937500000e-001;3.8141025391e+003;3.7230769043e+003;3.7342307129e+003;3.7593588867e+003;3.7176923828e+003;3.7393588867e+003;3.7423076172e+003;3.7388461914e+003;3.7455129395e+003;3.7347436523e+003;3.7348718262e+003;3.7483332520e+003;3.7334614258e+003;3.7432050781e+003;
1.1718750000e-001;3.7875642090e+003;3.6901281738e+003;3.7055129395e+003;3.7293588867e+003;3.6926923828e+003;3.7035898438e+003;3.7050000000e+003;3.6938461914e+003;3.7079487305e+003;3.6969230957e+003;3.7021794434e+003;3.7188461914e+003;3.6991025391e+003;3.7133332520e+003;
1.2500000000e-001;3.8052563477e+003;3.7080769043e+003;3.7225642090e+003;3.7465385742e+003;3.7097436523e+003;3.7178205566e+003;3.7170512695e+003;3.7048718262e+003;3.7241025391e+003;3.7124357910e+003;3.7178205566e+003;3.7335898438e+003;3.7147436523e+003;3.7292307129e+003;
1.3281250000e-001;3.7838461914e+003;3.6851281738e+003;3.7014101563e+003;3.7270512695e+003;3.6817949219e+003;3.6988461914e+003;3.6943588867e+003;3.6707692871e+003;3.6916667480e+003;3.6846154785e+003;3.6939743652e+003;3.7056411133e+003;3.6914101563e+003;3.7046154785e+003;
1.4062500000e-001;3.8062819824e+003;3.7026923828e+003;3.7237180176e+003;3.7457692871e+003;3.7046154785e+003;3.7150000000e+003;3.7158974609e+003;3.6910256348e+003;3.7100000000e+003;3.7064101563e+003;3.7105129395e+003;3.7264101563e+003;3.7092307129e+003;3.7206411133e+003;
1.4843750000e-001;3.7788461914e+003;3.6733332520e+003;3.6980769043e+003;3.7200000000e+003;3.6764101563e+003;3.6910256348e+003;3.6897436523e+003;3.6658974609e+003;3.6857692871e+003;3.6774357910e+003;3.6800000000e+003;3.6985898438e+003;3.6787180176e+003;3.6898718262e+003;
1.5625000000e-001;3.8071794434e+003;3.7030769043e+003;3.7237180176e+003;3.7452563477e+003;3.7085898438e+003;3.7247436523e+003;3.7247436523e+003;3.7141025391e+003;3.7246154785e+003;3.7071794434e+003;3.7126923828e+003;3.7265385742e+003;3.7102563477e+003;3.7155129395e+003;
1.6406250000e-001;3.8017949219e+003;3.6969230957e+003;3.7171794434e+003;3.7389743652e+003;3.7044870605e+003;3.7214101563e+003;3.7239743652e+003;3.7179487305e+003;3.7229487305e+003;3.7047436523e+003;3.7084614258e+003;3.7232050781e+003;3.7060256348e+003;3.7120512695e+003;
1.7187500000e-001;3.7634614258e+003;3.6530769043e+003;3.6748718262e+003;3.6991025391e+003;3.6643588867e+003;3.6871794434e+003;3.6924357910e+003;3.6853845215e+003;3.6862819824e+003;3.6660256348e+003;3.6633332520e+003;3.6816667480e+003;3.6635898438e+003;3.6733332520e+003;
1.7968750000e-001;3.7739743652e+003;3.6617949219e+003;3.6834614258e+003;3.7088461914e+003;3.6735898438e+003;3.6970512695e+003;3.7026923828e+003;3.6957692871e+003;3.6982050781e+003;3.6775642090e+003;3.6728205566e+003;3.6901281738e+003;3.6739743652e+003;3.6846154785e+003;
1.8750000000e-001;3.7542307129e+003;3.6414101563e+003;3.6661538086e+003;3.6885898438e+003;3.6534614258e+003;3.6784614258e+003;3.6798718262e+003;3.6805129395e+003;3.6870512695e+003;3.6621794434e+003;3.6616667480e+003;3.6792307129e+003;3.6596154785e+003;3.6723076172e+003;
1.9531250000e-001;3.7316667480e+003;3.6189743652e+003;3.6412819824e+003;3.6629487305e+003;3.6301281738e+003;3.6539743652e+003;3.6553845215e+003;3.6558974609e+003;3.6630769043e+003;3.6366667480e+003;3.6366667480e+003;3.6553845215e+003;3.6350000000e+003;3.6483332520e+003;
2.0312500000e-001;3.7274357910e+003;3.6157692871e+003;3.6274357910e+003;3.6514101563e+003;3.6191025391e+003;3.6382050781e+003;3.6430769043e+003;3.6448718262e+003;3.6541025391e+003;3.6301281738e+003;3.6256411133e+003;3.6432050781e+003;3.6267949219e+003;3.6423076172e+003;
2.1093750000e-001;3.7117949219e+003;3.5984614258e+003;3.6089743652e+003;3.6364101563e+003;3.5984614258e+003;3.6185898438e+003;3.6239743652e+003;3.6256411133e+003;3.6348718262e+003;3.6121794434e+003;3.6069230957e+003;3.6253845215e+003;3.6092307129e+003;3.6275642090e+003;
2.1875000000e-001;3.7110256348e+003;3.5874357910e+003;3.6044870605e+003;3.6365385742e+003;3.5924357910e+003;3.6073076172e+003;3.6107692871e+003;3.6073076172e+003;3.6161538086e+003;3.5929487305e+003;3.5985898438e+003;3.6221794434e+003;3.5980769043e+003;3.6208974609e+003;
2.2656250000e-001;3.7416667480e+003;3.6167949219e+003;3.6346154785e+003;3.6646154785e+003;3.6224357910e+003;3.6310256348e+003;3.6347436523e+003;3.6342307129e+003;3.6456411133e+003;3.6251281738e+003;3.6303845215e+003;3.6547436523e+003;3.6282050781e+003;3.6493588867e+003;
2.3437500000e-001;3.7489743652e+003;3.6228205566e+003;3.6417949219e+003;3.6702563477e+003;3.6260256348e+003;3.6315385742e+003;3.6362819824e+003;3.6375642090e+003;3.6521794434e+003;3.6343588867e+003;3.6376923828e+003;3.6626923828e+003;3.6350000000e+003;3.6552563477e+003;
2.4218750000e-001;3.8169230957e+003;3.6928205566e+003;3.7087180176e+003;3.7266667480e+003;3.6841025391e+003;3.6846154785e+003;3.6856411133e+003;3.6773076172e+003;3.6961538086e+003;3.6951281738e+003;3.6988461914e+003;3.7244870605e+003;3.6980769043e+003;3.7202563477e+003;
2.5000000000e-001;3.8091025391e+003;3.6842307129e+003;3.7011538086e+003;3.7176923828e+003;3.6787180176e+003;3.6812819824e+003;3.6796154785e+003;3.6715385742e+003;3.6914101563e+003;3.6906411133e+003;3.6938461914e+003;3.7184614258e+003;3.6917949219e+003;3.7116667480e+003;
2.5781250000e-001;3.7942307129e+003;3.6739743652e+003;3.6869230957e+003;3.7065385742e+003;3.6752563477e+003;3.6793588867e+003;3.6807692871e+003;3.6646154785e+003;3.6896154785e+003;3.6792307129e+003;3.6805129395e+003;3.6975642090e+003;3.6824357910e+003;3.6965385742e+003;
2.6562500000e-001;3.7265385742e+003;3.6137180176e+003;3.6267949219e+003;3.6517949219e+003;3.6173076172e+003;3.6366667480e+003;3.6351281738e+003;3.6230769043e+003;3.6383332520e+003;3.6215385742e+003;3.6191025391e+003;3.6380769043e+003;3.6197436523e+003;3.6335898438e+003;
2.7343750000e-001;3.7544870605e+003;3.6420512695e+003;3.6523076172e+003;3.6793588867e+003;3.6462819824e+003;3.6639743652e+003;3.6665385742e+003;3.6539743652e+003;3.6688461914e+003;3.6496154785e+003;3.6476923828e+003;3.6652563477e+003;3.6485898438e+003;3.6605129395e+003;
2.8125000000e-001;3.7805129395e+003;3.6674357910e+003;3.6720512695e+003;3.7032050781e+003;3.6728205566e+003;3.6878205566e+003;3.6915385742e+003;3.6928205566e+003;3.7020512695e+003;3.6851281738e+003;3.6737180176e+003;3.6951281738e+003;3.6780769043e+003;3.6915385742e+003;
2.8906250000e-001;3.7711538086e+003;3.6579487305e+003;3.6615385742e+003;3.6941025391e+003;3.6650000000e+003;3.6812819824e+003;3.6842307129e+003;3.6850000000e+003;3.6914101563e+003;3.6746154785e+003;3.6629487305e+003;3.6855129395e+003;3.6679487305e+003;3.6820512695e+003;
2.9687500000e-001;3.8830769043e+003;3.7737180176e+003;3.7738461914e+003;3.8005129395e+003;3.7797436523e+003;3.7903845215e+003;3.7996154785e+003;3.7960256348e+003;3.8048718262e+003;3.7889743652e+003;3.7775642090e+003;3.7957692871e+003;3.7808974609e+003;3.7919230957e+003;
3.0468750000e-001;3.9437180176e+003;3.8371794434e+003;3.8382050781e+003;3.8589743652e+003;3.8397436523e+003;3.8480769043e+003;3.8619230957e+003;3.8584614258e+003;3.8698718262e+003;3.8557692871e+003;3.8419230957e+003;3.8584614258e+003;3.8437180176e+003;3.8533332520e+003;
3.1250000000e-001;3.9733332520e+003;3.8760256348e+003;3.8793588867e+003;3.8921794434e+003;3.8729487305e+003;3.8683332520e+003;3.8917949219e+003;3.8916667480e+003;3.9001281738e+003;3.8955129395e+003;3.8789743652e+003;3.8941025391e+003;3.8796154785e+003;3.8870512695e+003;
3.2031250000e-001;3.9983332520e+003;3.9032050781e+003;3.9055129395e+003;3.9166667480e+003;3.8993588867e+003;3.8882050781e+003;3.9119230957e+003;3.9150000000e+003;3.9228205566e+003;3.9235898438e+003;3.9076923828e+003;3.9217949219e+003;3.9064101563e+003;3.9147436523e+003;
3.2812500000e-001;4.0041025391e+003;3.9101281738e+003;3.9150000000e+003;3.9210256348e+003;3.8974357910e+003;3.8884614258e+003;3.9083332520e+003;3.9114101563e+003;3.9228205566e+003;3.9314101563e+003;3.9198718262e+003;3.9352563477e+003;3.9128205566e+003;3.9298718262e+003;
3.3593750000e-001;3.9866667480e+003;3.8939743652e+003;3.9002563477e+003;3.9047436523e+003;3.8752563477e+003;3.8688461914e+003;3.8883332520e+003;3.8858974609e+003;3.8997436523e+003;3.9105129395e+003;3.9024357910e+003;3.9188461914e+003;3.8962819824e+003;3.9158974609e+003;
3.4375000000e-001;4.0141025391e+003;3.9276923828e+003;3.9323076172e+003;3.9348718262e+003;3.9060256348e+003;3.8893588867e+003;3.9087180176e+003;3.9042307129e+003;3.9191025391e+003;3.9374357910e+003;3.9302563477e+003;3.9441025391e+003;3.9297436523e+003;3.9453845215e+003;
3.5156250000e-001;4.0001281738e+003;3.9135898438e+003;3.9176923828e+003;3.9217949219e+003;3.8946154785e+003;3.8812819824e+003;3.8955129395e+003;3.8914101563e+003;3.9057692871e+003;3.9246154785e+003;3.9162819824e+003;3.9311538086e+003;3.9139743652e+003;3.9303845215e+003;
3.5937500000e-001;3.9811538086e+003;3.8956411133e+003;3.8969230957e+003;3.9033332520e+003;3.8780769043e+003;3.8701281738e+003;3.8798718262e+003;3.8714101563e+003;3.8860256348e+003;3.9042307129e+003;3.8960256348e+003;3.9120512695e+003;3.8926923828e+003;3.9102563477e+003;
3.6718750000e-001;3.9838461914e+003;3.9016667480e+003;3.8983332520e+003;3.9060256348e+003;3.8843588867e+003;3.8787180176e+003;3.8871794434e+003;3.8723076172e+003;3.8878205566e+003;3.9060256348e+003;3.8975642090e+003;3.9139743652e+003;3.8957692871e+003;3.9130769043e+003;
3.7500000000e-001;4.0020512695e+003;3.9229487305e+003;3.9237180176e+003;3.9316667480e+003;3.9220512695e+003;3.9171794434e+003;3.9291025391e+003;3.9189743652e+003;3.9250000000e+003;3.9358974609e+003;3.9187180176e+003;3.9391025391e+003;3.9261538086e+003;3.9366667480e+003;
3.8281250000e-001;4.0392307129e+003;3.9762819824e+003;3.9680769043e+003;3.9782050781e+003;3.9767949219e+003;3.9726923828e+003;3.9907692871e+003;3.9932050781e+003;4.0012819824e+003;4.0055129395e+003;3.9720512695e+003;3.9837180176e+003;3.9767949219e+003;3.9800000000e+003;
3.9062500000e-001;4.0102563477e+003;3.9507692871e+003;3.9460256348e+003;3.9566667480e+003;3.9569230957e+003;3.9530769043e+003;3.9717949219e+003;3.9715385742e+003;3.9784614258e+003;3.9828205566e+003;3.9482050781e+003;3.9578205566e+003;3.9516667480e+003;3.9543588867e+003;
3.9843750000e-001;4.0192307129e+003;3.9597436523e+003;3.9567949219e+003;3.9696154785e+003;3.9730769043e+003;3.9664101563e+003;3.9870512695e+003;3.9832050781e+003;3.9860256348e+003;3.9934614258e+003;3.9603845215e+003;3.9688461914e+003;3.9630769043e+003;3.9619230957e+003;
4.0625000000e-001;4.1529487305e+003;4.1088461914e+003;4.0884614258e+003;4.1000000000e+003;4.1006411133e+003;4.0817949219e+003;4.1098715820e+003;4.1065385742e+003;4.1051284180e+003;4.1253847656e+003;4.0970512695e+003;4.1052563477e+003;4.1046152344e+003;4.0989741211e+003;
4.1406250000e-001;4.2147436523e+003;4.1765385742e+003;4.1546152344e+003;4.1619228516e+003;4.1674360352e+003;4.1397436523e+003;4.1678203125e+003;4.1664101563e+003;4.1646152344e+003;4.1902563477e+003;4.1641025391e+003;4.1684614258e+003;4.1710258789e+003;4.1643588867e+003;
4.2187500000e-001;4.2397436523e+003;4.2078203125e+003;4.1948715820e+003;4.1946152344e+003;4.1962822266e+003;4.1612822266e+003;4.1879487305e+003;4.1946152344e+003;4.1921796875e+003;4.2275639648e+003;4.2005126953e+003;4.2084614258e+003;4.2044873047e+003;4.2014101563e+003;
4.2968750000e-001;4.2126923828e+003;4.1812822266e+003;4.1721796875e+003;4.1708974609e+003;4.1661538086e+003;4.1308974609e+003;4.1587177734e+003;4.1637177734e+003;4.1619228516e+003;4.1991025391e+003;4.1732050781e+003;4.1860258789e+003;4.1767949219e+003;4.1770512695e+003;
4.3750000000e-001;4.3546152344e+003;4.3342309570e+003;4.3111538086e+003;4.3042309570e+003;4.3046152344e+003;4.2526923828e+003;4.2774360352e+003;4.2761538086e+003;4.2812822266e+003;4.3306411133e+003;4.3135898438e+003;4.3228203125e+003;4.3173076172e+003;4.3192309570e+003;
4.4531250000e-001;4.4066665039e+003;4.3923076172e+003;4.3670512695e+003;4.3556411133e+003;4.3594873047e+003;4.3052563477e+003;4.3261538086e+003;4.3247436523e+003;4.3317949219e+003;4.3865385742e+003;4.3720512695e+003;4.3792309570e+003;4.3730771484e+003;4.3747436523e+003;
4.5312500000e-001;4.4187177734e+003;4.4166665039e+003;4.3934614258e+003;4.3742309570e+003;4.3820512695e+003;4.3311538086e+003;4.3532050781e+003;4.3415385742e+003;4.3489741211e+003;4.4087177734e+003;4.3971796875e+003;4.4064101563e+003;4.3939741211e+003;4.3964101563e+003;
4.6093750000e-001;4.4130771484e+003;4.4193588867e+003;4.3951284180e+003;4.3739741211e+003;4.3860258789e+003;4.3367949219e+003;4.3610258789e+003;4.3462822266e+003;4.3520512695e+003;4.4117949219e+003;4.3982050781e+003;4.4080771484e+003;4.3941025391e+003;4.3979487305e+003;
4.6875000000e-001;4.3494873047e+003;4.3788461914e+003;4.3485898438e+003;4.3292309570e+003;4.3553847656e+003;4.3203847656e+003;4.3391025391e+003;4.3329487305e+003;4.3282050781e+003;4.3733334961e+003;4.3500000000e+003;4.3571796875e+003;4.3465385742e+003;4.3525639648e+003;
4.7656250000e-001;4.3602563477e+003;4.3939741211e+003;4.3623076172e+003;4.3423076172e+003;4.3738461914e+003;4.3407690430e+003;4.3616665039e+003;4.3553847656e+003;4.3478203125e+003;4.3858974609e+003;4.3621796875e+003;4.3674360352e+003;4.3608974609e+003;4.3628203125e+003;
4.8437500000e-001;4.4035898438e+003;4.4415385742e+003;4.4089741211e+003;4.3862822266e+003;4.4239741211e+003;4.3893588867e+003;4.4151284180e+003;4.4098715820e+003;4.4000000000e+003;4.4343588867e+003;4.4094873047e+003;4.4123076172e+003;4.4094873047e+003;4.4065385742e+003;
4.9218750000e-001;4.4466665039e+003;4.4947436523e+003;4.4650000000e+003;4.4374360352e+003;4.4825639648e+003;4.4505126953e+003;4.4732050781e+003;4.4832050781e+003;4.4693588867e+003;4.5048715820e+003;4.4741025391e+003;4.4744873047e+003;4.4712822266e+003;4.4684614258e+003;
5.0000000000e-001;4.4821796875e+003;4.5341025391e+003;4.5014101563e+003;4.4723076172e+003;4.5191025391e+003;4.4829487305e+003;4.5061538086e+003;4.5192309570e+003;4.5091025391e+003;4.5452563477e+003;4.5148715820e+003;4.5132050781e+003;4.5121796875e+003;4.5069228516e+003;
5.0781250000e-001;4.4242309570e+003;4.4873076172e+003;4.4614101563e+003;4.4257690430e+003;4.4679487305e+003;4.4325639648e+003;4.4543588867e+003;4.4689741211e+003;4.4626923828e+003;4.5034614258e+003;4.4755126953e+003;4.4757690430e+003;4.4757690430e+003;4.4667949219e+003;
5.1562500000e-001;4.4147436523e+003;4.4810258789e+003;4.4562822266e+003;4.4180771484e+003;4.4611538086e+003;4.4228203125e+003;4.4429487305e+003;4.4571796875e+003;4.4515385742e+003;4.4957690430e+003;4.4691025391e+003;4.4684614258e+003;4.4701284180e+003;4.4623076172e+003;
5.2343750000e-001;4.4252563477e+003;4.4993588867e+003;4.4723076172e+003;4.4308974609e+003;4.4735898438e+003;4.4273076172e+003;4.4450000000e+003;4.4630771484e+003;4.4600000000e+003;4.5129487305e+003;4.4861538086e+003;4.4861538086e+003;4.4846152344e+003;4.4823076172e+003;
5.3125000000e-001;4.3791025391e+003;4.4534614258e+003;4.4334614258e+003;4.3896152344e+003;4.4146152344e+003;4.3616665039e+003;4.3865385742e+003;4.3975639648e+003;4.3978203125e+003;4.4583334961e+003;4.4426923828e+003;4.4451284180e+003;4.4470512695e+003;4.4417949219e+003;
5.3906250000e-001;4.3597436523e+003;4.4324360352e+003;4.4175639648e+003;4.3717949219e+003;4.3934614258e+003;4.3407690430e+003;4.3638461914e+003;4.3775639648e+003;4.3794873047e+003;4.4414101563e+003;4.4262822266e+003;4.4310258789e+003;4.4315385742e+003;4.4267949219e+003;
5.4687500000e-001;4.2867949219e+003;4.3624360352e+003;4.3511538086e+003;4.3100000000e+003;4.3269228516e+003;4.2821796875e+003;4.2966665039e+003;4.3030771484e+003;4.3089741211e+003;4.3684614258e+003;4.3565385742e+003;4.3647436523e+003;4.3596152344e+003;4.3585898438e+003;
5.5468750000e-001;4.2757690430e+003;4.3556411133e+003;4.3411538086e+003;4.3044873047e+003;4.3232050781e+003;4.2817949219e+003;4.2932050781e+003;4.2920512695e+003;4.2992309570e+003;4.3556411133e+003;4.3456411133e+003;4.3520512695e+003;4.3467949219e+003;4.3458974609e+003;
5.6250000000e-001;4.2078203125e+003;4.2893588867e+003;4.2765385742e+003;4.2500000000e+003;4.2737177734e+003;4.2520512695e+003;4.2630771484e+003;4.2616665039e+003;4.2629487305e+003;4.2982050781e+003;4.2803847656e+003;4.2826923828e+003;4.2758974609e+003;4.2748715820e+003;
5.7031250000e-001;4.1650000000e+003;4.2450000000e+003;4.2339741211e+003;4.2112822266e+003;4.2371796875e+003;4.2220512695e+003;4.2342309570e+003;4.2371796875e+003;4.2347436523e+003;4.2589741211e+003;4.2380771484e+003;4.2397436523e+003;4.2338461914e+003;4.2325639648e+003;
5.7812500000e-001;4.1593588867e+003;4.2412822266e+003;4.2238461914e+003;4.2061538086e+003;4.2429487305e+003;4.2287177734e+003;4.2411538086e+003;4.2542309570e+003;4.2467949219e+003;4.2569228516e+003;4.2334614258e+003;4.2312822266e+003;4.2316665039e+003;4.2270512695e+003;
5.8593750000e-001;4.1575639648e+003;4.2385898438e+003;4.2189741211e+003;4.2021796875e+003;4.2410258789e+003;4.2285898438e+003;4.2389741211e+003;4.2547436523e+003;4.2456411133e+003;4.2539741211e+003;4.2303847656e+003;4.2278203125e+003;4.2288461914e+003;4.2233334961e+003;
5.9375000000e-001;4.1162822266e+003;4.1832050781e+003;4.1661538086e+003;4.1523076172e+003;4.1832050781e+003;4.1803847656e+003;4.1893588867e+003;4.1948715820e+003;4.1851284180e+003;4.1943588867e+003;4.1742309570e+003;4.1737177734e+003;4.1732050781e+003;4.1688461914e+003;
6.0156250000e-001;4.1419228516e+003;4.2075639648e+003;4.1893588867e+003;4.1761538086e+003;4.2062822266e+003;4.1997436523e+003;4.2088461914e+003;4.2153847656e+003;4.2085898438e+003;4.2184614258e+003;4.1973076172e+003;4.1970512695e+003;4.1971796875e+003;4.1934614258e+003;
6.0937500000e-001;4.1575639648e+003;4.2233334961e+003;4.2048715820e+003;4.1925639648e+003;4.2207690430e+003;4.2105126953e+003;4.2185898438e+003;4.2280771484e+003;4.2247436523e+003;4.2347436523e+003;4.2115385742e+003;4.2133334961e+003;4.2120512695e+003;4.2098715820e+003;
6.1718750000e-001;4.1473076172e+003;4.2129487305e+003;4.1957690430e+003;4.1846152344e+003;4.2088461914e+003;4.1976923828e+003;4.2046152344e+003;4.2139741211e+003;4.2133334961e+003;4.2232050781e+003;4.1992309570e+003;4.2042309570e+003;4.1998715820e+003;4.1994873047e+003;
6.2500000000e-001;4.1267949219e+003;4.1920512695e+003;4.1770512695e+003;4.1646152344e+003;4.1775639648e+003;4.1610258789e+003;4.1760258789e+003;4.1725639648e+003;4.1758974609e+003;4.1897436523e+003;4.1743588867e+003;4.1811538086e+003;4.1730771484e+003;4.1707690430e+003;
6.3281250000e-001;4.1705126953e+003;4.2266665039e+003;4.2133334961e+003;4.1974360352e+003;4.2048715820e+003;4.1773076172e+003;4.1896152344e+003;4.1835898438e+003;4.1864101563e+003;4.2147436523e+003;4.2097436523e+003;4.2193588867e+003;4.2061538086e+003;4.2124360352e+003;
6.4062500000e-001;4.1992309570e+003;4.2556411133e+003;4.2419228516e+003;4.2224360352e+003;4.2303847656e+003;4.1997436523e+003;4.2128203125e+003;4.2102563477e+003;4.2144873047e+003;4.2480771484e+003;4.2405126953e+003;4.2497436523e+003;4.2366665039e+003;4.2433334961e+003;
6.4843750000e-001;4.1705126953e+003;4.2251284180e+003;4.2233334961e+003;4.1925639648e+003;4.1976923828e+003;4.1660258789e+003;4.1802563477e+003;4.1788461914e+003;4.1861538086e+003;4.2212822266e+003;4.2164101563e+003;4.2264101563e+003;4.2129487305e+003;4.2185898438e+003;
6.5625000000e-001;4.2462822266e+003;4.3025639648e+003;4.2962822266e+003;4.2655126953e+003;4.2770512695e+003;4.2415385742e+003;4.2498715820e+003;4.2446152344e+003;4.2585898438e+003;4.2984614258e+003;4.2923076172e+003;4.2998715820e+003;4.2876923828e+003;4.2891025391e+003;
6.6406250000e-001;4.2006411133e+003;4.2593588867e+003;4.2511538086e+003;4.2258974609e+003;4.2375639648e+003;4.2112822266e+003;4.2175639648e+003;4.2107690430e+003;4.2212822266e+003;4.2567949219e+003;4.2492309570e+003;4.2544873047e+003;4.2420512695e+003;4.2457690430e+003;
6.7187500000e-001;4.1502563477e+003;4.2142309570e+003;4.2046152344e+003;4.1842309570e+003;4.2029487305e+003;4.1876923828e+003;4.1982050781e+003;4.1902563477e+003;4.1926923828e+003;4.2135898438e+003;4.2044873047e+003;4.2030771484e+003;4.1958974609e+003;4.1961538086e+003;
6.7968750000e-001;4.1533334961e+003;4.2180771484e+003;4.2106411133e+003;4.1893588867e+003;4.2114101563e+003;4.1996152344e+003;4.2126923828e+003;4.2093588867e+003;4.2091025391e+003;4.2238461914e+003;4.2101284180e+003;4.2087177734e+003;4.2025639648e+003;4.2000000000e+003;
6.8750000000e-001;4.1066665039e+003;4.1619228516e+003;4.1610258789e+003;4.1465385742e+003;4.1648715820e+003;4.1678203125e+003;4.1825639648e+003;4.1874360352e+003;4.1855126953e+003;4.1865385742e+003;4.1648715820e+003;4.1657690430e+003;4.1542309570e+003;4.1570512695e+003;
6.9531250000e-001;4.1117949219e+003;4.1632050781e+003;4.1607690430e+003;4.1479487305e+003;4.1676923828e+003;4.1694873047e+003;4.1851284180e+003;4.1898715820e+003;4.1891025391e+003;4.1894873047e+003;4.1691025391e+003;4.1660258789e+003;4.1569228516e+003;4.1603847656e+003;
7.0312500000e-001;4.1183334961e+003;4.1638461914e+003;4.1621796875e+003;4.1457690430e+003;4.1679487305e+003;4.1676923828e+003;4.1811538086e+003;4.1852563477e+003;4.1862822266e+003;4.1916665039e+003;4.1715385742e+003;4.1662822266e+003;4.1629487305e+003;4.1610258789e+003;
7.1093750000e-001;4.1080771484e+003;4.1524360352e+003;4.1516665039e+003;4.1348715820e+003;4.1551284180e+003;4.1553847656e+003;4.1674360352e+003;4.1680771484e+003;4.1691025391e+003;4.1770512695e+003;4.1576923828e+003;4.1558974609e+003;4.1532050781e+003;4.1492309570e+003;
7.1875000000e-001;4.1664101563e+003;4.2187177734e+003;4.2110258789e+003;4.1992309570e+003;4.2120512695e+003;4.1998715820e+003;4.2165385742e+003;4.2156411133e+003;4.2153847656e+003;4.2326923828e+003;4.2178203125e+003;4.2211538086e+003;4.2146152344e+003;4.2176923828e+003;
7.2656250000e-001;4.1675639648e+003;4.2211538086e+003;4.2135898438e+003;4.2016665039e+003;4.2106411133e+003;4.1958974609e+003;4.2126923828e+003;4.2155126953e+003;4.2147436523e+003;4.2343588867e+003;4.2212822266e+003;4.2237177734e+003;4.2148715820e+003;4.2207690430e+003;
7.3437500000e-001;4.1534614258e+003;4.2060258789e+003;4.1998715820e+003;4.1870512695e+003;4.1923076172e+003;4.1765385742e+003;4.1929487305e+003;4.1962822266e+003;4.1944873047e+003;4.2155126953e+003;4.2052563477e+003;4.2071796875e+003;4.1970512695e+003;4.2034614258e+003;
7.4218750000e-001;4.1541025391e+003;4.2047436523e+003;4.1996152344e+003;4.1852563477e+003;4.1889741211e+003;4.1705126953e+003;4.1874360352e+003;4.1885898438e+003;4.1856411133e+003;4.2080771484e+003;4.2006411133e+003;4.2026923828e+003;4.1932050781e+003;4.1979487305e+003;
7.5000000000e-001;4.1838461914e+003;4.2314101563e+003;4.2329487305e+003;4.2132050781e+003;4.2144873047e+003;4.1911538086e+003;4.2097436523e+003;4.2146152344e+003;4.2124360352e+003;4.2401284180e+003;4.2362822266e+003;4.2401284180e+003;4.2241025391e+003;4.2307690430e+003;
7.5781250000e-001;4.1755126953e+003;4.2211538086e+003;4.2234614258e+003;4.2021796875e+003;4.2043588867e+003;4.1816665039e+003;4.2005126953e+003;4.2025639648e+003;4.2032050781e+003;4.2296152344e+003;4.2276923828e+003;4.2311538086e+003;4.2134614258e+003;4.2216665039e+003;
7.6562500000e-001;4.2162822266e+003;4.2656411133e+003;4.2639741211e+003;4.2411538086e+003;4.2523076172e+003;4.2269228516e+003;4.2391025391e+003;4.2456411133e+003;4.2506411133e+003;4.2766665039e+003;4.2675639648e+003;4.2733334961e+003;4.2546152344e+003;4.2623076172e+003;
7.7343750000e-001;4.1624360352e+003;4.2166665039e+003;4.2102563477e+003;4.1994873047e+003;4.2139741211e+003;4.2003847656e+003;4.2071796875e+003;4.2058974609e+003;4.2087177734e+003;4.2291025391e+003;4.2192309570e+003;4.2202563477e+003;4.2078203125e+003;4.2103847656e+003;
7.8125000000e-001;4.1802563477e+003;4.2328203125e+003;4.2255126953e+003;4.2142309570e+003;4.2314101563e+003;4.2171796875e+003;4.2266665039e+003;4.2273076172e+003;4.2279487305e+003;4.2488461914e+003;4.2364101563e+003;4.2358974609e+003;4.2237177734e+003;4.2266665039e+003;
7.8906250000e-001;4.1521796875e+003;4.1939741211e+003;4.1902563477e+003;4.1793588867e+003;4.1978203125e+003;4.1891025391e+003;4.2020512695e+003;4.2050000000e+003;4.2039741211e+003;4.2180771484e+003;4.1966665039e+003;4.2014101563e+003;4.1853847656e+003;4.1946152344e+003;
7.9687500000e-001;4.2087177734e+003;4.2521796875e+003;4.2425639648e+003;4.2348715820e+003;4.2575639648e+003;4.2469228516e+003;4.2633334961e+003;4.2667949219e+003;4.2706411133e+003;4.2839741211e+003;4.2660258789e+003;4.2592309570e+003;4.2515385742e+003;4.2558974609e+003;
8.0468750000e-001;4.1830771484e+003;4.2267949219e+003;4.2175639648e+003;4.2105126953e+003;4.2301284180e+003;4.2217949219e+003;4.2371796875e+003;4.2423076172e+003;4.2446152344e+003;4.2583334961e+003;4.2408974609e+003;4.2366665039e+003;4.2265385742e+003;4.2306411133e+003;
8.1250000000e-001;4.1944873047e+003;4.2346152344e+003;4.2230771484e+003;4.2130771484e+003;4.2329487305e+003;4.2191025391e+003;4.2323076172e+003;4.2333334961e+003;4.2362822266e+003;4.2520512695e+003;4.2364101563e+003;4.2394873047e+003;4.2280771484e+003;4.2314101563e+003;
8.2031250000e-001;4.2224360352e+003;4.2621796875e+003;4.2506411133e+003;4.2405126953e+003;4.2574360352e+003;4.2421796875e+003;4.2561538086e+003;4.2579487305e+003;4.2606411133e+003;4.2805126953e+003;4.2644873047e+003;4.2655126953e+003;4.2553847656e+003;4.2582050781e+003;
8.2812500000e-001;4.2265385742e+003;4.2685898438e+003;4.2565385742e+003;4.2493588867e+003;4.2570512695e+003;4.2408974609e+003;4.2600000000e+003;4.2623076172e+003;4.2592309570e+003;4.2838461914e+003;4.2691025391e+003;4.2684614258e+003;4.2616665039e+003;4.2606411133e+003;
8.3593750000e-001;4.2383334961e+003;4.2839741211e+003;4.2684614258e+003;4.2619228516e+003;4.2703847656e+003;4.2488461914e+003;4.2710258789e+003;4.2735898438e+003;4.2692309570e+003;4.2941025391e+003;4.2798715820e+003;4.2802563477e+003;4.2751284180e+003;4.2721796875e+003;
8.4375000000e-001;4.2715385742e+003;4.3253847656e+003;4.3078203125e+003;4.2987177734e+003;4.3106411133e+003;4.2796152344e+003;4.3014101563e+003;4.3038461914e+003;4.3065385742e+003;4.3319228516e+003;4.3155126953e+003;4.3196152344e+003;4.3096152344e+003;4.3098715820e+003;
8.5156250000e-001;4.2764101563e+003;4.3311538086e+003;4.3146152344e+003;4.3060258789e+003;4.3173076172e+003;4.2862822266e+003;4.3078203125e+003;4.3091025391e+003;4.3119228516e+003;4.3367949219e+003;4.3220512695e+003;4.3229487305e+003;4.3151284180e+003;4.3138461914e+003;
8.5937500000e-001;4.3055126953e+003;4.3617949219e+003;4.3442309570e+003;4.3355126953e+003;4.3492309570e+003;4.3146152344e+003;4.3370512695e+003;4.3394873047e+003;4.3411538086e+003;4.3661538086e+003;4.3534614258e+003;4.3492309570e+003;4.3469228516e+003;4.3410258789e+003;
8.6718750000e-001;4.3443588867e+003;4.4026923828e+003;4.3841025391e+003;4.3733334961e+003;4.3912822266e+003;4.3512822266e+003;4.3741025391e+003;4.3802563477e+003;4.3811538086e+003;4.4082050781e+003;4.3961538086e+003;4.3883334961e+003;4.3905126953e+003;4.3794873047e+003;
8.7500000000e-001;4.2905126953e+003;4.3533334961e+003;4.3392309570e+003;4.3294873047e+003;4.3419228516e+003;4.3073076172e+003;4.3266665039e+003;4.3246152344e+003;4.3348715820e+003;4.3648715820e+003;4.3524360352e+003;4.3458974609e+003;4.3451284180e+003;4.3243588867e+003;
8.8281250000e-001;4.2850000000e+003;4.3512822266e+003;4.3346152344e+003;4.3279487305e+003;4.3420512695e+003;4.3085898438e+003;4.3258974609e+003;4.3270512695e+003;4.3365385742e+003;4.3629487305e+003;4.3485898438e+003;4.3406411133e+003;4.3438461914e+003;4.3184614258e+003;
8.9062500000e-001;4.2342309570e+003;4.3019228516e+003;4.2844873047e+003;4.2805126953e+003;4.2985898438e+003;4.2751284180e+003;4.2821796875e+003;4.2892309570e+003;4.2903847656e+003;4.3089741211e+003;4.2934614258e+003;4.2944873047e+003;4.2926923828e+003;4.2697436523e+003;
8.9843750000e-001;4.3435898438e+003;4.4056411133e+003;4.3902563477e+003;4.3738461914e+003;4.3970512695e+003;4.3653847656e+003;4.3769228516e+003;4.3744873047e+003;4.3838461914e+003;4.4114101563e+003;4.3951284180e+003;4.3955126953e+003;4.3932050781e+003;4.3762822266e+003;
9.0625000000e-001;4.3357690430e+003;4.3958974609e+003;4.3850000000e+003;4.3648715820e+003;4.3891025391e+003;4.3583334961e+003;4.3692309570e+003;4.3712822266e+003;4.3785898438e+003;4.4074360352e+003;4.3887177734e+003;4.3897436523e+003;4.3862822266e+003;4.3700000000e+003;
9.1406250000e-001;4.3241025391e+003;4.3823076172e+003;4.3737177734e+003;4.3552563477e+003;4.3764101563e+003;4.3517949219e+003;4.3660258789e+003;4.3661538086e+003;4.3661538086e+003;4.3929487305e+003;4.3782050781e+003;4.3806411133e+003;4.3794873047e+003;4.3629487305e+003;
9.2187500000e-001;4.3166665039e+003;4.3805126953e+003;4.3715385742e+003;4.3524360352e+003;4.3746152344e+003;4.3498715820e+003;4.3644873047e+003;4.3655126953e+003;4.3674360352e+003;4.3969228516e+003;4.3835898438e+003;4.3852563477e+003;4.3828203125e+003;4.3661538086e+003;
9.2968750000e-001;4.2952563477e+003;4.3602563477e+003;4.3512822266e+003;4.3339741211e+003;4.3569228516e+003;4.3307690430e+003;4.3462822266e+003;4.3448715820e+003;4.3457690430e+003;4.3757690430e+003;4.3634614258e+003;4.3642309570e+003;4.3616665039e+003;4.3430771484e+003;
9.3750000000e-001;4.2639741211e+003;4.3355126953e+003;4.3225639648e+003;4.3153847656e+003;4.3298715820e+003;4.3048715820e+003;4.3220512695e+003;4.3182050781e+003;4.3189741211e+003;4.3489741211e+003;4.3373076172e+003;4.3300000000e+003;4.3333334961e+003;4.3139741211e+003;
9.4531250000e-001;4.2512822266e+003;4.3234614258e+003;4.3096152344e+003;4.3046152344e+003;4.3176923828e+003;4.2938461914e+003;4.3123076172e+003;4.3060258789e+003;4.3070512695e+003;4.3348715820e+003;4.3230771484e+003;4.3141025391e+003;4.3203847656e+003;4.3014101563e+003;
9.5312500000e-001;4.3057690430e+003;4.3778203125e+003;4.3602563477e+003;4.3529487305e+003;4.3774360352e+003;4.3437177734e+003;4.3670512695e+003;4.3606411133e+003;4.3612822266e+003;4.3894873047e+003;4.3730771484e+003;4.3647436523e+003;4.3724360352e+003;4.3496152344e+003;
9.6093750000e-001;4.3333334961e+003;4.4060258789e+003;4.3880771484e+003;4.3783334961e+003;4.4079487305e+003;4.3700000000e+003;4.3932050781e+003;4.3916665039e+003;4.3919228516e+003;4.4224360352e+003;4.4019228516e+003;4.3961538086e+003;4.4010258789e+003;4.3765385742e+003;
9.6875000000e-001;4.3252563477e+003;4.3988461914e+003;4.3817949219e+003;4.3712822266e+003;4.4015385742e+003;4.3642309570e+003;4.3852563477e+003;4.3879487305e+003;4.3875639648e+003;4.4189741211e+003;4.3966665039e+003;4.3929487305e+003;4.3951284180e+003;4.3706411133e+003;
9.7656250000e-001;4.2996152344e+003;4.3738461914e+003;4.3573076172e+003;4.3476923828e+003;4.3764101563e+003;4.3416665039e+003;4.3607690430e+003;4.3642309570e+003;4.3630771484e+003;4.3932050781e+003;4.3730771484e+003;4.3691025391e+003;4.3716665039e+003;4.3478203125e+003;
9.8437500000e-001;4.3776923828e+003;4.4528203125e+003;4.4339741211e+003;4.4173076172e+003;4.4441025391e+003;4.4115385742e+003;4.4282050781e+003;4.4411538086e+003;4.4446152344e+003;4.4728203125e+003;4.4571796875e+003;4.4474360352e+003;4.4553847656e+003;4.4284614258e+003;
9.9218750000e-001;4.3651284180e+003;4.4376923828e+003;4.4228203125e+003;4.4035898438e+003;4.4275639648e+003;4.3987177734e+003;4.4156411133e+003;4.4257690430e+003;4.4314101563e+003;4.4584614258e+003;4.4425639648e+003;4.4352563477e+003;4.4400000000e+003;4.4144873047e+003;
1.0000000000e+000;4.4106411133e+003;4.4817949219e+003;4.4673076172e+003;4.4424360352e+003;4.4706411133e+003;4.4344873047e+003;4.4578203125e+003;4.4585898438e+003;4.4616665039e+003;4.4885898438e+003;4.4756411133e+003;4.4710258789e+003;4.4765385742e+003;4.4614101563e+003;
1.0078125000e+000;4.4083334961e+003;4.4794873047e+003;4.4683334961e+003;4.4416665039e+003;4.4675639648e+003;4.4335898438e+003;4.4548715820e+003;4.4591025391e+003;4.4601284180e+003;4.4866665039e+003;4.4737177734e+003;4.4716665039e+003;4.4755126953e+003;4.4638461914e+003;
1.0156250000e+000;4.3342309570e+003;4.4010258789e+003;4.4037177734e+003;4.3720512695e+003;4.3955126953e+003;4.3742309570e+003;4.3917949219e+003;4.3935898438e+003;4.3929487305e+003;4.4150000000e+003;4.4102563477e+003;4.4052563477e+003;4.4067949219e+003;4.3942309570e+003;
1.0234375000e+000;4.2303847656e+003;4.3010258789e+003;4.3039741211e+003;4.2789741211e+003;4.3048715820e+003;4.2870512695e+003;4.3061538086e+003;4.3058974609e+003;4.3008974609e+003;4.3212822266e+003;4.3132050781e+003;4.3044873047e+003;4.3101284180e+003;4.2987177734e+003;
1.0312500000e+000;4.1711538086e+003;4.2402563477e+003;4.2457690430e+003;4.2253847656e+003;4.2473076172e+003;4.2329487305e+003;4.2491025391e+003;4.2466665039e+003;4.2408974609e+003;4.2573076172e+003;4.2507690430e+003;4.2438461914e+003;4.2476923828e+003;4.2382050781e+003;
1.0390625000e+000;4.0953845215e+003;4.1600000000e+003;4.1653847656e+003;4.1529487305e+003;4.1682050781e+003;4.1619228516e+003;4.1692309570e+003;4.1719228516e+003;4.1600000000e+003;4.1734614258e+003;4.1710258789e+003;4.1689741211e+003;4.1630771484e+003;4.1569228516e+003;
1.0468750000e+000;4.0105129395e+003;4.0770512695e+003;4.0661538086e+003;4.0712819824e+003;4.0782050781e+003;4.0846154785e+003;4.0880769043e+003;4.0876923828e+003;4.0803845215e+003;4.0851281738e+003;4.0828205566e+003;4.0778205566e+003;4.0758974609e+003;4.0655129395e+003;
1.0546875000e+000;4.0089743652e+003;4.0725642090e+003;4.0617949219e+003;4.0675642090e+003;4.0732050781e+003;4.0791025391e+003;4.0803845215e+003;4.0826923828e+003;4.0780769043e+003;4.0821794434e+003;4.0789743652e+003;4.0712819824e+003;4.0728205566e+003;4.0606411133e+003;
1.0625000000e+000;3.9911538086e+003;4.0474357910e+003;4.0421794434e+003;4.0464101563e+003;4.0485898438e+003;4.0550000000e+003;4.0542307129e+003;4.0603845215e+003;4.0558974609e+003;4.0603845215e+003;4.0562819824e+003;4.0497436523e+003;4.0508974609e+003;4.0389743652e+003;
1.0703125000e+000;3.9278205566e+003;3.9647436523e+003;3.9728205566e+003;3.9755129395e+003;3.9670512695e+003;3.9788461914e+003;3.9791025391e+003;3.9853845215e+003;3.9775642090e+003;3.9798718262e+003;3.9787180176e+003;3.9805129395e+003;3.9758974609e+003;3.9669230957e+003;
1.0781250000e+000;3.9298718262e+003;3.9603845215e+003;3.9706411133e+003;3.9729487305e+003;3.9621794434e+003;3.9752563477e+003;3.9776923828e+003;3.9832050781e+003;3.9760256348e+003;3.9765385742e+003;3.9771794434e+003;3.9805129395e+003;3.9751281738e+003;3.9666667480e+003;
1.0859375000e+000;3.9491025391e+003;3.9719230957e+003;3.9848718262e+003;3.9857692871e+003;3.9734614258e+003;3.9887180176e+003;3.9920512695e+003;3.9985898438e+003;3.9958974609e+003;3.9960256348e+003;3.9957692871e+003;3.9984614258e+003;3.9923076172e+003;3.9862819824e+003;
1.0937500000e+000;3.9274357910e+003;3.9464101563e+003;3.9615385742e+003;3.9633332520e+003;3.9488461914e+003;3.9662819824e+003;3.9688461914e+003;3.9721794434e+003;3.9701281738e+003;3.9702563477e+003;3.9702563477e+003;3.9737180176e+003;3.9669230957e+003;3.9630769043e+003;
1.1015625000e+000;3.9450000000e+003;3.9598718262e+003;3.9694870605e+003;3.9756411133e+003;3.9629487305e+003;3.9728205566e+003;3.9756411133e+003;3.9742307129e+003;3.9665385742e+003;3.9670512695e+003;3.9741025391e+003;3.9779487305e+003;3.9762819824e+003;3.9700000000e+003;
1.1093750000e+000;3.9670512695e+003;3.9811538086e+003;3.9896154785e+003;3.9958974609e+003;3.9839743652e+003;3.9928205566e+003;3.9934614258e+003;3.9971794434e+003;3.9878205566e+003;3.9888461914e+003;3.9958974609e+003;3.9997436523e+003;3.9983332520e+003;3.9911538086e+003;
1.1171875000e+000;3.9725642090e+003;3.9844870605e+003;3.9938461914e+003;4.0002563477e+003;3.9873076172e+003;3.9983332520e+003;3.9965385742e+003;4.0017949219e+003;3.9917949219e+003;3.9937180176e+003;3.9994870605e+003;4.0038461914e+003;4.0017949219e+003;3.9957692871e+003;
1.1250000000e+000;3.9975642090e+003;4.0082050781e+003;4.0176923828e+003;4.0189743652e+003;4.0052563477e+003;4.0129487305e+003;4.0201281738e+003;4.0239743652e+003;4.0179487305e+003;4.0137180176e+003;4.0142307129e+003;4.0219230957e+003;4.0121794434e+003;4.0078205566e+003;
1.1328125000e+000;3.9503845215e+003;3.9553845215e+003;3.9666667480e+003;3.9698718262e+003;3.9544870605e+003;3.9671794434e+003;3.9725642090e+003;3.9770512695e+003;3.9688461914e+003;3.9593588867e+003;3.9614101563e+003;3.9711538086e+003;3.9602563477e+003;3.9564101563e+003;
1.1406250000e+000;3.9964101563e+003;3.9928205566e+003;4.0020512695e+003;4.0073076172e+003;3.9950000000e+003;4.0080769043e+003;4.0167949219e+003;4.0161538086e+003;4.0062819824e+003;3.9983332520e+003;3.9998718262e+003;4.0050000000e+003;3.9992307129e+003;3.9957692871e+003;
1.1484375000e+000;4.0944870605e+003;4.0911538086e+003;4.1079487305e+003;4.0985898438e+003;4.0897436523e+003;4.0984614258e+003;4.1128203125e+003;4.1120512695e+003;4.1051284180e+003;4.0979487305e+003;4.1043588867e+003;4.1126923828e+003;4.1020512695e+003;4.0944870605e+003;
1.1562500000e+000;4.1523076172e+003;4.1474360352e+003;4.1634614258e+003;4.1483334961e+003;4.1469228516e+003;4.1494873047e+003;4.1650000000e+003;4.1683334961e+003;4.1634614258e+003;4.1582050781e+003;4.1619228516e+003;4.1711538086e+003;4.1605126953e+003;4.1512822266e+003;
1.1640625000e+000;4.1483334961e+003;4.1389741211e+003;4.1603847656e+003;4.1402563477e+003;4.1408974609e+003;4.1448715820e+003;4.1557690430e+003;4.1692309570e+003;4.1676923828e+003;4.1647436523e+003;4.1598715820e+003;4.1702563477e+003;4.1566665039e+003;4.1508974609e+003;
1.1718750000e+000;4.1420512695e+003;4.1337177734e+003;4.1548715820e+003;4.1353847656e+003;4.1333334961e+003;4.1383334961e+003;4.1497436523e+003;4.1602563477e+003;4.1569228516e+003;4.1539741211e+003;4.1532050781e+003;4.1625639648e+003;4.1501284180e+003;4.1439741211e+003;
1.1796875000e+000;4.2066665039e+003;4.2050000000e+003;4.2182050781e+003;4.1974360352e+003;4.1969228516e+003;4.1983334961e+003;4.2106411133e+003;4.2187177734e+003;4.2102563477e+003;4.2135898438e+003;4.2169228516e+003;4.2257690430e+003;4.2157690430e+003;4.2083334961e+003;
1.1875000000e+000;4.2234614258e+003;4.2261538086e+003;4.2357690430e+003;4.2144873047e+003;4.2166665039e+003;4.2178203125e+003;4.2280771484e+003;4.2355126953e+003;4.2260258789e+003;4.2315385742e+003;4.2334614258e+003;4.2432050781e+003;4.2324360352e+003;4.2258974609e+003;
1.1953125000e+000;4.2123076172e+003;4.2246152344e+003;4.2305126953e+003;4.2151284180e+003;4.2250000000e+003;4.2203847656e+003;4.2284614258e+003;4.2339741211e+003;4.2285898438e+003;4.2273076172e+003;4.2247436523e+003;4.2288461914e+003;4.2241025391e+003;4.2097436523e+003;
1.2031250000e+000;4.1993588867e+003;4.2123076172e+003;4.2189741211e+003;4.2057690430e+003;4.2141025391e+003;4.2094873047e+003;4.2182050781e+003;4.2262822266e+003;4.2207690430e+003;4.2179487305e+003;4.2156411133e+003;4.2179487305e+003;4.2151284180e+003;4.1969228516e+003;
1.2109375000e+000;4.1526923828e+003;4.1644873047e+003;4.1726923828e+003;4.1588461914e+003;4.1652563477e+003;4.1664101563e+003;4.1752563477e+003;4.1800000000e+003;4.1684614258e+003;4.1687177734e+003;4.1723076172e+003;4.1775639648e+003;4.1711538086e+003;4.1541025391e+003;
1.2187500000e+000;4.1653847656e+003;4.1788461914e+003;4.1848715820e+003;4.1685898438e+003;4.1787177734e+003;4.1784614258e+003;4.1878203125e+003;4.1878203125e+003;4.1737177734e+003;4.1788461914e+003;4.1839741211e+003;4.1910258789e+003;4.1829487305e+003;4.1685898438e+003;
1.2265625000e+000;4.2020512695e+003;4.2194873047e+003;4.2225639648e+003;4.2042309570e+003;4.2183334961e+003;4.2138461914e+003;4.2232050781e+003;4.2216665039e+003;4.2075639648e+003;4.2182050781e+003;4.2217949219e+003;4.2287177734e+003;4.2203847656e+003;4.2078203125e+003;
1.2343750000e+000;4.1452563477e+003;4.1647436523e+003;4.1693588867e+003;4.1576923828e+003;4.1593588867e+003;4.1596152344e+003;4.1692309570e+003;4.1694873047e+003;4.1593588867e+003;4.1621796875e+003;4.1696152344e+003;4.1679487305e+003;4.1674360352e+003;4.1526923828e+003;
1.2421875000e+000;4.1607690430e+003;4.1785898438e+003;4.1829487305e+003;4.1696152344e+003;4.1728203125e+003;4.1724360352e+003;4.1792309570e+003;4.1803847656e+003;4.1706411133e+003;4.1743588867e+003;4.1802563477e+003;4.1814101563e+003;4.1782050781e+003;4.1650000000e+003;
1.2500000000e+000;4.1558974609e+003;4.1723076172e+003;4.1784614258e+003;4.1667949219e+003;4.1660258789e+003;4.1675639648e+003;4.1734614258e+003;4.1652563477e+003;4.1574360352e+003;4.1637177734e+003;4.1687177734e+003;4.1742309570e+003;4.1650000000e+003;4.1557690430e+003;
1.2578125000e+000;4.1882050781e+003;4.2058974609e+003;4.2093588867e+003;4.1975639648e+003;4.1989741211e+003;4.1950000000e+003;4.2048715820e+003;4.1960258789e+003;4.1884614258e+003;4.1952563477e+003;4.2023076172e+003;4.2052563477e+003;4.1987177734e+003;4.1885898438e+003;
1.2656250000e+000;4.2039741211e+003;4.2229487305e+003;4.2303847656e+003;4.2146152344e+003;4.2139741211e+003;4.2062822266e+003;4.2164101563e+003;4.2166665039e+003;4.2084614258e+003;4.2175639648e+003;4.2196152344e+003;4.2274360352e+003;4.2221796875e+003;4.2082050781e+003;
1.2734375000e+000;4.2519228516e+003;4.2710258789e+003;4.2771796875e+003;4.2588461914e+003;4.2624360352e+003;4.2533334961e+003;4.2611538086e+003;4.2652563477e+003;4.2560258789e+003;4.2675639648e+003;4.2635898438e+003;4.2689741211e+003;4.2691025391e+003;4.2519228516e+003;
1.2812500000e+000;4.2437177734e+003;4.2650000000e+003;4.2680771484e+003;4.2500000000e+003;4.2571796875e+003;4.2480771484e+003;4.2555126953e+003;4.2625639648e+003;4.2525639648e+003;4.2639741211e+003;4.2612822266e+003;4.2650000000e+003;4.2637177734e+003;4.2488461914e+003;
1.2890625000e+000;4.1307690430e+003;4.1523076172e+003;4.1560258789e+003;4.1451284180e+003;4.1434614258e+003;4.1435898438e+003;4.1521796875e+003;4.1514101563e+003;4.1438461914e+003;4.1503847656e+003;4.1582050781e+003;4.1600000000e+003;4.1578203125e+003;4.1470512695e+003;
1.2968750000e+000;4.1211538086e+003;4.1396152344e+003;4.1461538086e+003;4.1350000000e+003;4.1298715820e+003;4.1310258789e+003;4.1387177734e+003;4.1400000000e+003;4.1333334961e+003;4.1411538086e+003;4.1480771484e+003;4.1507690430e+003;4.1489741211e+003;4.1376923828e+003;
1.3046875000e+000;4.0497436523e+003;4.0607692871e+003;4.0700000000e+003;4.0610256348e+003;4.0535898438e+003;4.0598718262e+003;4.0605129395e+003;4.0641025391e+003;4.0573076172e+003;4.0655129395e+003;4.0684614258e+003;4.0776923828e+003;4.0728205566e+003;4.0616667480e+003;
1.3125000000e+000;4.0148718262e+003;4.0238461914e+003;4.0298718262e+003;4.0252563477e+003;4.0193588867e+003;4.0266667480e+003;4.0241025391e+003;4.0224357910e+003;4.0166667480e+003;4.0220512695e+003;4.0264101563e+003;4.0374357910e+003;4.0329487305e+003;4.0216667480e+003;
1.3203125000e+000;4.0612819824e+003;4.0674357910e+003;4.0710256348e+003;4.0716667480e+003;4.0629487305e+003;4.0642307129e+003;4.0641025391e+003;4.0569230957e+003;4.0547436523e+003;4.0574357910e+003;4.0660256348e+003;4.0732050781e+003;4.0696154785e+003;4.0632050781e+003;
1.3281250000e+000;4.0666667480e+003;4.0715385742e+003;4.0770512695e+003;4.0766667480e+003;4.0657692871e+003;4.0683332520e+003;4.0692307129e+003;4.0630769043e+003;4.0601281738e+003;4.0633332520e+003;4.0721794434e+003;4.0789743652e+003;4.0733332520e+003;4.0703845215e+003;
1.3359375000e+000;4.1055126953e+003;4.1103847656e+003;4.1083334961e+003;4.1079487305e+003;4.1073076172e+003;4.1058974609e+003;4.1101284180e+003;4.1012822266e+003;4.0987177734e+003;4.1019228516e+003;4.1083334961e+003;4.1143588867e+003;4.1128203125e+003;4.1085898438e+003;
1.3437500000e+000;4.1410258789e+003;4.1479487305e+003;4.1408974609e+003;4.1406411133e+003;4.1475639648e+003;4.1420512695e+003;4.1480771484e+003;4.1405126953e+003;4.1383334961e+003;4.1421796875e+003;4.1433334961e+003;4.1497436523e+003;4.1521796875e+003;4.1439741211e+003;
1.3515625000e+000;4.1824360352e+003;4.1911538086e+003;4.1873076172e+003;4.1819228516e+003;4.1892309570e+003;4.1871796875e+003;4.1923076172e+003;4.1917949219e+003;4.1876923828e+003;4.1888461914e+003;4.1841025391e+003;4.1921796875e+003;4.1960258789e+003;4.1842309570e+003;
1.3593750000e+000;4.2373076172e+003;4.2478203125e+003;4.2405126953e+003;4.2323076172e+003;4.2410258789e+003;4.2348715820e+003;4.2412822266e+003;4.2414101563e+003;4.2389741211e+003;4.2419228516e+003;4.2382050781e+003;4.2434614258e+003;4.2501284180e+003;4.2374360352e+003;
1.3671875000e+000;4.3042309570e+003;4.3194873047e+003;4.3066665039e+003;4.2955126953e+003;4.3071796875e+003;4.2944873047e+003;4.3025639648e+003;4.3051284180e+003;4.3060258789e+003;4.3133334961e+003;4.3074360352e+003;4.3093588867e+003;4.3208974609e+003;4.3053847656e+003;
1.3750000000e+000;4.3047436523e+003;4.3301284180e+003;4.3252563477e+003;4.3030771484e+003;4.3208974609e+003;4.3091025391e+003;4.3146152344e+003;4.3241025391e+003;4.3262822266e+003;4.3335898438e+003;4.3310258789e+003;4.3234614258e+003;4.3414101563e+003;4.3205126953e+003;
1.3828125000e+000;4.3203847656e+003;4.3478203125e+003;4.3412822266e+003;4.3184614258e+003;4.3362822266e+003;4.3242309570e+003;4.3283334961e+003;4.3410258789e+003;4.3403847656e+003;4.3514101563e+003;4.3487177734e+003;4.3407690430e+003;4.3574360352e+003;4.3385898438e+003;
1.3906250000e+000;4.2908974609e+003;4.3238461914e+003;4.3158974609e+003;4.2929487305e+003;4.3134614258e+003;4.2956411133e+003;4.3015385742e+003;4.3093588867e+003;4.3085898438e+003;4.3221796875e+003;4.3196152344e+003;4.3144873047e+003;4.3315385742e+003;4.3061538086e+003;
1.3984375000e+000;4.2848715820e+003;4.3180771484e+003;4.3119228516e+003;4.2878203125e+003;4.3098715820e+003;4.2889741211e+003;4.2957690430e+003;4.3038461914e+003;4.3061538086e+003;4.3158974609e+003;4.3151284180e+003;4.3096152344e+003;4.3273076172e+003;4.2996152344e+003;
1.4062500000e+000;4.2337177734e+003;4.2634614258e+003;4.2641025391e+003;4.2402563477e+003;4.2550000000e+003;4.2402563477e+003;4.2446152344e+003;4.2537177734e+003;4.2567949219e+003;4.2611538086e+003;4.2634614258e+003;4.2615385742e+003;4.2725639648e+003;4.2524360352e+003;
1.4140625000e+000;4.2221796875e+003;4.2496152344e+003;4.2507690430e+003;4.2287177734e+003;4.2398715820e+003;4.2291025391e+003;4.2344873047e+003;4.2391025391e+003;4.2384614258e+003;4.2443588867e+003;4.2476923828e+003;4.2483334961e+003;4.2560258789e+003;4.2406411133e+003;
1.4218750000e+000;4.3393588867e+003;4.3732050781e+003;4.3666665039e+003;4.3384614258e+003;4.3616665039e+003;4.3433334961e+003;4.3538461914e+003;4.3578203125e+003;4.3485898438e+003;4.3655126953e+003;4.3651284180e+003;4.3674360352e+003;4.3750000000e+003;4.3594873047e+003;
1.4296875000e+000;4.2423076172e+003;4.2788461914e+003;4.2775639648e+003;4.2546152344e+003;4.2726923828e+003;4.2597436523e+003;4.2610258789e+003;4.2638461914e+003;4.2617949219e+003;4.2725639648e+003;4.2711538086e+003;4.2760258789e+003;4.2767949219e+003;4.2662822266e+003;
1.4375000000e+000;4.2434614258e+003;4.2792309570e+003;4.2771796875e+003;4.2573076172e+003;4.2750000000e+003;4.2603847656e+003;4.2621796875e+003;4.2650000000e+003;4.2632050781e+003;4.2730771484e+003;4.2719228516e+003;4.2757690430e+003;4.2764101563e+003;4.2665385742e+003;
1.4453125000e+000;4.2425639648e+003;4.2812822266e+003;4.2802563477e+003;4.2573076172e+003;4.2729487305e+003;4.2638461914e+003;4.2679487305e+003;4.2720512695e+003;4.2675639648e+003;4.2741025391e+003;4.2723076172e+003;4.2776923828e+003;4.2769228516e+003;4.2707690430e+003;
1.4531250000e+000;4.2548715820e+003;4.2974360352e+003;4.2944873047e+003;4.2707690430e+003;4.2879487305e+003;4.2784614258e+003;4.2825639648e+003;4.2850000000e+003;4.2820512695e+003;4.2874360352e+003;4.2850000000e+003;4.2894873047e+003;4.2920512695e+003;4.2844873047e+003;
1.4609375000e+000;4.3089741211e+003;4.3562822266e+003;4.3492309570e+003;4.3262822266e+003;4.3494873047e+003;4.3335898438e+003;4.3373076172e+003;4.3430771484e+003;4.3457690430e+003;4.3511538086e+003;4.3466665039e+003;4.3456411133e+003;4.3541025391e+003;4.3410258789e+003;
1.4687500000e+000;4.3042309570e+003;4.3496152344e+003;4.3437177734e+003;4.3220512695e+003;4.3451284180e+003;4.3294873047e+003;4.3338461914e+003;4.3394873047e+003;4.3441025391e+003;4.3491025391e+003;4.3450000000e+003;4.3428203125e+003;4.3497436523e+003;4.3352563477e+003;
1.4765625000e+000;4.3017949219e+003;4.3465385742e+003;4.3421796875e+003;4.3207690430e+003;4.3401284180e+003;4.3279487305e+003;4.3367949219e+003;4.3358974609e+003;4.3389741211e+003;4.3448715820e+003;4.3426923828e+003;4.3412822266e+003;4.3430771484e+003;4.3248715820e+003;
1.4843750000e+000;4.3091025391e+003;4.3557690430e+003;4.3533334961e+003;4.3303847656e+003;4.3498715820e+003;4.3403847656e+003;4.3467949219e+003;4.3515385742e+003;4.3524360352e+003;4.3601284180e+003;4.3544873047e+003;4.3542309570e+003;4.3542309570e+003;4.3339741211e+003;
1.4921875000e+000;4.2921796875e+003;4.3379487305e+003;4.3393588867e+003;4.3158974609e+003;4.3356411133e+003;4.3308974609e+003;4.3347436523e+003;4.3434614258e+003;4.3424360352e+003;4.3497436523e+003;4.3415385742e+003;4.3428203125e+003;4.3403847656e+003;4.3193588867e+003;
1.5000000000e+000;4.2725639648e+003;4.3158974609e+003;4.3191025391e+003;4.2967949219e+003;4.3176923828e+003;4.3165385742e+003;4.3206411133e+003;4.3275639648e+003;4.3257690430e+003;4.3302563477e+003;4.3224360352e+003;4.3243588867e+003;4.3215385742e+003;4.3008974609e+003;
1.5078125000e+000;4.3523076172e+003;4.4053847656e+003;4.3898715820e+003;4.3750000000e+003;4.3941025391e+003;4.3843588867e+003;4.3953847656e+003;4.3971796875e+003;4.3971796875e+003;4.4083334961e+003;4.4032050781e+003;4.4008974609e+003;4.4020512695e+003;4.3896152344e+003;
1.5156250000e+000;4.3176923828e+003;4.3689741211e+003;4.3557690430e+003;4.3438461914e+003;4.3565385742e+003;4.3487177734e+003;4.3585898438e+003;4.3605126953e+003;4.3592309570e+003;4.3724360352e+003;4.3682050781e+003;4.3685898438e+003;4.3655126953e+003;4.3548715820e+003;
1.5234375000e+000;4.3739741211e+003;4.4201284180e+003;4.4073076172e+003;4.3882050781e+003;4.4052563477e+003;4.3856411133e+003;4.4021796875e+003;4.4047436523e+003;4.4028203125e+003;4.4183334961e+003;4.4189741211e+003;4.4194873047e+003;4.4174360352e+003;4.4087177734e+003;
1.5312500000e+000;4.3847436523e+003;4.4332050781e+003;4.4264101563e+003;4.4008974609e+003;4.4144873047e+003;4.3952563477e+003;4.4089741211e+003;4.4193588867e+003;4.4164101563e+003;4.4306411133e+003;4.4373076172e+003;4.4346152344e+003;4.4326923828e+003;4.4228203125e+003;
1.5390625000e+000;4.3289741211e+003;4.3798715820e+003;4.3747436523e+003;4.3482050781e+003;4.3712822266e+003;4.3517949219e+003;4.3657690430e+003;4.3774360352e+003;4.3726923828e+003;4.3883334961e+003;4.3906411133e+003;4.3855126953e+003;4.3814101563e+003;4.3730771484e+003;
1.5468750000e+000;4.2920512695e+003;4.3455126953e+003;4.3397436523e+003;4.3156411133e+003;4.3355126953e+003;4.3233334961e+003;4.3352563477e+003;4.3441025391e+003;4.3383334961e+003;4.3506411133e+003;4.3550000000e+003;4.3488461914e+003;4.3476923828e+003;4.3384614258e+003;
1.5546875000e+000;4.2574360352e+003;4.3096152344e+003;4.3047436523e+003;4.2847436523e+003;4.2976923828e+003;4.2930771484e+003;4.3010258789e+003;4.3087177734e+003;4.3055126953e+003;4.3112822266e+003;4.3153847656e+003;4.3132050781e+003;4.3148715820e+003;4.3005126953e+003;
1.5625000000e+000;4.2333334961e+003;4.2806411133e+003;4.2797436523e+003;4.2603847656e+003;4.2702563477e+003;4.2678203125e+003;4.2746152344e+003;4.2834614258e+003;4.2806411133e+003;4.2844873047e+003;4.2864101563e+003;4.2884614258e+003;4.2871796875e+003;4.2733334961e+003;
1.5703125000e+000;4.2520512695e+003;4.2956411133e+003;4.2974360352e+003;4.2783334961e+003;4.2928203125e+003;4.2883334961e+003;4.2978203125e+003;4.2987177734e+003;4.2939741211e+003;4.2985898438e+003;4.3021796875e+003;4.3014101563e+003;4.2983334961e+003;4.2892309570e+003;
1.5781250000e+000;4.3093588867e+003;4.3588461914e+003;4.3562822266e+003;4.3366665039e+003;4.3557690430e+003;4.3464101563e+003;4.3569228516e+003;4.3580771484e+003;4.3542309570e+003;4.3612822266e+003;4.3638461914e+003;4.3606411133e+003;4.3596152344e+003;4.3503847656e+003;
1.5859375000e+000;4.3626923828e+003;4.4221796875e+003;4.4151284180e+003;4.3929487305e+003;4.4158974609e+003;4.4016665039e+003;4.4114101563e+003;4.4174360352e+003;4.4133334961e+003;4.4215385742e+003;4.4212822266e+003;4.4216665039e+003;4.4196152344e+003;4.4123076172e+003;
1.5937500000e+000;4.3735898438e+003;4.4338461914e+003;4.4266665039e+003;4.4020512695e+003;4.4269228516e+003;4.4112822266e+003;4.4202563477e+003;4.4271796875e+003;4.4224360352e+003;4.4310258789e+003;4.4308974609e+003;4.4321796875e+003;4.4307690430e+003;4.4232050781e+003;
1.6015625000e+000;4.4169228516e+003;4.4784614258e+003;4.4714101563e+003;4.4438461914e+003;4.4703847656e+003;4.4480771484e+003;4.4560258789e+003;4.4665385742e+003;4.4647436523e+003;4.4823076172e+003;4.4807690430e+003;4.4755126953e+003;4.4774360352e+003;4.4646152344e+003;
1.6093750000e+000;4.3896152344e+003;4.4550000000e+003;4.4464101563e+003;4.4217949219e+003;4.4441025391e+003;4.4237177734e+003;4.4320512695e+003;4.4410258789e+003;4.4385898438e+003;4.4560258789e+003;4.4558974609e+003;4.4515385742e+003;4.4508974609e+003;4.4391025391e+003;
1.6171875000e+000;4.3676923828e+003;4.4366665039e+003;4.4257690430e+003;4.4029487305e+003;4.4226923828e+003;4.4042309570e+003;4.4137177734e+003;4.4205126953e+003;4.4161538086e+003;4.4310258789e+003;4.4346152344e+003;4.4306411133e+003;4.4287177734e+003;4.4178203125e+003;
1.6250000000e+000;4.3712822266e+003;4.4416665039e+003;4.4288461914e+003;4.4055126953e+003;4.4258974609e+003;4.4075639648e+003;4.4178203125e+003;4.4253847656e+003;4.4194873047e+003;4.4314101563e+003;4.4384614258e+003;4.4337177734e+003;4.4326923828e+003;4.4215385742e+003;
1.6328125000e+000;4.2816665039e+003;4.3398715820e+003;4.3369228516e+003;4.3169228516e+003;4.3301284180e+003;4.3187177734e+003;4.3270512695e+003;4.3352563477e+003;4.3348715820e+003;4.3464101563e+003;4.3466665039e+003;4.3446152344e+003;4.3479487305e+003;4.3329487305e+003;
1.6406250000e+000;4.2760258789e+003;4.3341025391e+003;4.3310258789e+003;4.3124360352e+003;4.3265385742e+003;4.3121796875e+003;4.3239741211e+003;4.3269228516e+003;4.3266665039e+003;4.3375639648e+003;4.3385898438e+003;4.3362822266e+003;4.3398715820e+003;4.3244873047e+003;
1.6484375000e+000;4.3024360352e+003;4.3607690430e+003;4.3584614258e+003;4.3384614258e+003;4.3620512695e+003;4.3492309570e+003;4.3579487305e+003;4.3701284180e+003;4.3673076172e+003;4.3691025391e+003;4.3687177734e+003;4.3674360352e+003;4.3642309570e+003;4.3492309570e+003;
1.6562500000e+000;4.3152563477e+003;4.3798715820e+003;4.3648715820e+003;4.3570512695e+003;4.3812822266e+003;4.3615385742e+003;4.3724360352e+003;4.3797436523e+003;4.3824360352e+003;4.3735898438e+003;4.3675639648e+003;4.3682050781e+003;4.3694873047e+003;4.3494873047e+003;
1.6640625000e+000;4.3302563477e+003;4.3993588867e+003;4.3801284180e+003;4.3748715820e+003;4.3957690430e+003;4.3742309570e+003;4.3866665039e+003;4.3952563477e+003;4.3970512695e+003;4.3888461914e+003;4.3820512695e+003;4.3821796875e+003;4.3833334961e+003;4.3637177734e+003;
1.6718750000e+000;4.2800000000e+003;4.3420512695e+003;4.3280771484e+003;4.3230771484e+003;4.3382050781e+003;4.3288461914e+003;4.3382050781e+003;4.3453847656e+003;4.3389741211e+003;4.3353847656e+003;4.3323076172e+003;4.3319228516e+003;4.3301284180e+003;4.3133334961e+003;
1.6796875000e+000;4.2403847656e+003;4.3005126953e+003;4.2932050781e+003;4.2855126953e+003;4.3026923828e+003;4.2941025391e+003;4.2953847656e+003;4.3003847656e+003;4.3025639648e+003;4.2958974609e+003;4.2997436523e+003;4.2993588867e+003;4.2955126953e+003;4.2783334961e+003;
1.6875000000e+000;4.2030771484e+003;4.2614101563e+003;4.2569228516e+003;4.2497436523e+003;4.2635898438e+003;4.2576923828e+003;4.2591025391e+003;4.2600000000e+003;4.2633334961e+003;4.2535898438e+003;4.2615385742e+003;4.2623076172e+003;4.2558974609e+003;4.2408974609e+003;
1.6953125000e+000;4.1826923828e+003;4.2229487305e+003;4.2260258789e+003;4.2158974609e+003;4.2274360352e+003;4.2251284180e+003;4.2302563477e+003;4.2333334961e+003;4.2293588867e+003;4.2252563477e+003;4.2350000000e+003;4.2373076172e+003;4.2266665039e+003;4.2161538086e+003;
1.7031250000e+000;4.1462822266e+003;4.1814101563e+003;4.1888461914e+003;4.1791025391e+003;4.1874360352e+003;4.1897436523e+003;4.1915385742e+003;4.1955126953e+003;4.1911538086e+003;4.1865385742e+003;4.1965385742e+003;4.2020512695e+003;4.1887177734e+003;4.1780771484e+003;
1.7109375000e+000;4.1002563477e+003;4.1360258789e+003;4.1432050781e+003;4.1383334961e+003;4.1415385742e+003;4.1466665039e+003;4.1451284180e+003;4.1378203125e+003;4.1397436523e+003;4.1274360352e+003;4.1410258789e+003;4.1523076172e+003;4.1388461914e+003;4.1256411133e+003;
1.7187500000e+000;4.1375639648e+003;4.1757690430e+003;4.1784614258e+003;4.1747436523e+003;4.1803847656e+003;4.1802563477e+003;4.1803847656e+003;4.1706411133e+003;4.1752563477e+003;4.1620512695e+003;4.1750000000e+003;4.1861538086e+003;4.1748715820e+003;4.1603847656e+003;
1.7265625000e+000;4.1883334961e+003;4.2256411133e+003;4.2255126953e+003;4.2214101563e+003;4.2310258789e+003;4.2255126953e+003;4.2275639648e+003;4.2206411133e+003;4.2255126953e+003;4.2141025391e+003;4.2248715820e+003;4.2341025391e+003;4.2241025391e+003;4.2091025391e+003;
1.7343750000e+000;4.2397436523e+003;4.2675639648e+003;4.2674360352e+003;4.2623076172e+003;4.2755126953e+003;4.2687177734e+003;4.2729487305e+003;4.2738461914e+003;4.2733334961e+003;4.2653847656e+003;4.2748715820e+003;4.2779487305e+003;4.2692309570e+003;4.2533334961e+003;
1.7421875000e+000;4.2616665039e+003;4.2879487305e+003;4.2865385742e+003;4.2806411133e+003;4.2944873047e+003;4.2882050781e+003;4.2933334961e+003;4.2957690430e+003;4.2932050781e+003;4.2857690430e+003;4.2952563477e+003;4.2955126953e+003;4.2900000000e+003;4.2721796875e+003;
1.7500000000e+000;4.2903847656e+003;4.3201284180e+003;4.3166665039e+003;4.3089741211e+003;4.3235898438e+003;4.3164101563e+003;4.3219228516e+003;4.3273076172e+003;4.3243588867e+003;4.3175639648e+003;4.3242309570e+003;4.3234614258e+003;4.3216665039e+003;4.3023076172e+003;
1.7578125000e+000;4.2414101563e+003;4.2787177734e+003;4.2769228516e+003;4.2689741211e+003;4.2857690430e+003;4.2761538086e+003;4.2810258789e+003;4.2852563477e+003;4.2800000000e+003;4.2720512695e+003;4.2785898438e+003;4.2778203125e+003;4.2778203125e+003;4.2648715820e+003;
1.7656250000e+000;4.2515385742e+003;4.2893588867e+003;4.2852563477e+003;4.2782050781e+003;4.2938461914e+003;4.2850000000e+003;4.2903847656e+003;4.2925639648e+003;4.2875639648e+003;4.2798715820e+003;4.2891025391e+003;4.2861538086e+003;4.2866665039e+003;4.2746152344e+003;
1.7734375000e+000;4.2829487305e+003;4.3182050781e+003;4.3155126953e+003;4.3082050781e+003;4.3210258789e+003;4.3121796875e+003;4.3166665039e+003;4.3148715820e+003;4.3093588867e+003;4.3019228516e+003;4.3139741211e+003;4.3155126953e+003;4.3137177734e+003;4.3028203125e+003;
1.7812500000e+000;4.4185898438e+003;4.4611538086e+003;4.4598715820e+003;4.4374360352e+003;4.4602563477e+003;4.4353847656e+003;4.4473076172e+003;4.4567949219e+003;4.4538461914e+003;4.4529487305e+003;4.4567949219e+003;4.4578203125e+003;4.4560258789e+003;4.4435898438e+003;
1.7890625000e+000;4.3821796875e+003;4.4265385742e+003;4.4280771484e+003;4.4051284180e+003;4.4233334961e+003;4.4037177734e+003;4.4157690430e+003;4.4255126953e+003;4.4228203125e+003;4.4215385742e+003;4.4223076172e+003;4.4253847656e+003;4.4203847656e+003;4.4102563477e+003;
1.7968750000e+000;4.3023076172e+003;4.3410258789e+003;4.3442309570e+003;4.3289741211e+003;4.3394873047e+003;4.3287177734e+003;4.3369228516e+003;4.3461538086e+003;4.3414101563e+003;4.3379487305e+003;4.3407690430e+003;4.3437177734e+003;4.3391025391e+003;4.3288461914e+003;
1.8046875000e+000;4.2453847656e+003;4.2898715820e+003;4.2923076172e+003;4.2775639648e+003;4.2867949219e+003;4.2761538086e+003;4.2832050781e+003;4.2906411133e+003;4.2878203125e+003;4.2821796875e+003;4.2860258789e+003;4.2879487305e+003;4.2842309570e+003;4.2796152344e+003;
1.8125000000e+000;4.2578203125e+003;4.3062822266e+003;4.3039741211e+003;4.2915385742e+003;4.2991025391e+003;4.2858974609e+003;4.2944873047e+003;4.3002563477e+003;4.2983334961e+003;4.2944873047e+003;4.2983334961e+003;4.2992309570e+003;4.2961538086e+003;4.2926923828e+003;
1.8203125000e+000;4.2696152344e+003;4.3194873047e+003;4.3135898438e+003;4.3046152344e+003;4.3089741211e+003;4.2947436523e+003;4.3037177734e+003;4.3102563477e+003;4.3079487305e+003;4.3070512695e+003;4.3098715820e+003;4.3105126953e+003;4.3074360352e+003;4.3037177734e+003;
1.8281250000e+000;4.2250000000e+003;4.2684614258e+003;4.2646152344e+003;4.2628203125e+003;4.2629487305e+003;4.2539741211e+003;4.2597436523e+003;4.2650000000e+003;4.2598715820e+003;4.2579487305e+003;4.2597436523e+003;4.2635898438e+003;4.2598715820e+003;4.2541025391e+003;
1.8359375000e+000;4.2969228516e+003;4.3462822266e+003;4.3397436523e+003;4.3308974609e+003;4.3473076172e+003;4.3328203125e+003;4.3393588867e+003;4.3355126953e+003;4.3389741211e+003;4.3278203125e+003;4.3302563477e+003;4.3337177734e+003;4.3320512695e+003;4.3265385742e+003;
1.8437500000e+000;4.3261538086e+003;4.3787177734e+003;4.3711538086e+003;4.3600000000e+003;4.3748715820e+003;4.3605126953e+003;4.3678203125e+003;4.3667949219e+003;4.3715385742e+003;4.3610258789e+003;4.3634614258e+003;4.3662822266e+003;4.3620512695e+003;4.3582050781e+003;
1.8515625000e+000;4.3205126953e+003;4.3726923828e+003;4.3657690430e+003;4.3556411133e+003;4.3651284180e+003;4.3533334961e+003;4.3611538086e+003;4.3626923828e+003;4.3665385742e+003;4.3562822266e+003;4.3598715820e+003;4.3616665039e+003;4.3558974609e+003;4.3528203125e+003;
1.8593750000e+000;4.3011538086e+003;4.3480771484e+003;4.3428203125e+003;4.3378203125e+003;4.3442309570e+003;4.3314101563e+003;4.3400000000e+003;4.3447436523e+003;4.3455126953e+003;4.3346152344e+003;4.3403847656e+003;4.3361538086e+003;4.3366665039e+003;4.3288461914e+003;
1.8671875000e+000;4.3080771484e+003;4.3542309570e+003;4.3497436523e+003;4.3450000000e+003;4.3546152344e+003;4.3387177734e+003;4.3466665039e+003;4.3546152344e+003;4.3555126953e+003;4.3455126953e+003;4.3494873047e+003;4.3423076172e+003;4.3461538086e+003;4.3362822266e+003;
1.8750000000e+000;4.3020512695e+003;4.3488461914e+003;4.3453847656e+003;4.3393588867e+003;4.3506411133e+003;4.3348715820e+003;4.3420512695e+003;4.3521796875e+003;4.3541025391e+003;4.3447436523e+003;4.3469228516e+003;4.3389741211e+003;4.3420512695e+003;4.3332050781e+003;
1.8828125000e+000;4.2569228516e+003;4.3011538086e+003;4.2997436523e+003;4.2934614258e+003;4.2974360352e+003;4.2925639648e+003;4.2989741211e+003;4.3121796875e+003;4.3106411133e+003;4.3076923828e+003;4.3070512695e+003;4.3019228516e+003;4.3034614258e+003;4.2984614258e+003;
1.8906250000e+000;4.2273076172e+003;4.2714101563e+003;4.2726923828e+003;4.2674360352e+003;4.2702563477e+003;4.2653847656e+003;4.2705126953e+003;4.2844873047e+003;4.2811538086e+003;4.2776923828e+003;4.2769228516e+003;4.2739741211e+003;4.2747436523e+003;4.2692309570e+003;
1.8984375000e+000;4.2642309570e+003;4.3123076172e+003;4.3047436523e+003;4.3024360352e+003;4.3083334961e+003;4.2937177734e+003;4.3032050781e+003;4.3080771484e+003;4.3075639648e+003;4.3043588867e+003;4.3103847656e+003;4.3093588867e+003;4.3060258789e+003;4.3023076172e+003;
1.9062500000e+000;4.2110258789e+003;4.2476923828e+003;4.2529487305e+003;4.2453847656e+003;4.2428203125e+003;4.2396152344e+003;4.2416665039e+003;4.2530771484e+003;4.2498715820e+003;4.2516665039e+003;4.2569228516e+003;4.2557690430e+003;4.2478203125e+003;4.2480771484e+003;
1.9140625000e+000;4.1846152344e+003;4.2202563477e+003;4.2261538086e+003;4.2196152344e+003;4.2158974609e+003;4.2130771484e+003;4.2158974609e+003;4.2244873047e+003;4.2200000000e+003;4.2214101563e+003;4.2283334961e+003;4.2243588867e+003;4.2193588867e+003;4.2169228516e+003;
1.9218750000e+000;4.1621796875e+003;4.2010258789e+003;4.2019228516e+003;4.2007690430e+003;4.1983334961e+003;4.1942309570e+003;4.1985898438e+003;4.2037177734e+003;4.1993588867e+003;4.1974360352e+003;4.2133334961e+003;4.2046152344e+003;4.2008974609e+003;4.1921796875e+003;
1.9296875000e+000;4.1929487305e+003;4.2253847656e+003;4.2232050781e+003;4.2212822266e+003;4.2232050781e+003;4.2224360352e+003;4.2284614258e+003;4.2337177734e+003;4.2202563477e+003;4.2194873047e+003;4.2338461914e+003;4.2271796875e+003;4.2278203125e+003;4.2223076172e+003;
1.9375000000e+000;4.1991025391e+003;4.2323076172e+003;4.2282050781e+003;4.2274360352e+003;4.2296152344e+003;4.2289741211e+003;4.2344873047e+003;4.2425639648e+003;4.2292309570e+003;4.2275639648e+003;4.2387177734e+003;4.2319228516e+003;4.2330771484e+003;4.2283334961e+003;
1.9453125000e+000;4.1734614258e+003;4.2067949219e+003;4.2042309570e+003;4.2050000000e+003;4.2053847656e+003;4.2064101563e+003;4.2098715820e+003;4.2184614258e+003;4.2070512695e+003;4.2023076172e+003;4.2128203125e+003;4.2069228516e+003;4.2056411133e+003;4.2010258789e+003;
1.9531250000e+000;4.1323076172e+003;4.1623076172e+003;4.1653847656e+003;4.1655126953e+003;4.1643588867e+003;4.1657690430e+003;4.1666665039e+003;4.1696152344e+003;4.1592309570e+003;4.1506411133e+003;4.1673076172e+003;4.1629487305e+003;4.1560258789e+003;4.1511538086e+003;
1.9609375000e+000;4.1639741211e+003;4.1900000000e+003;4.1921796875e+003;4.1905126953e+003;4.1832050781e+003;4.1833334961e+003;4.1896152344e+003;4.1957690430e+003;4.1794873047e+003;4.1712822266e+003;4.1914101563e+003;4.1891025391e+003;4.1820512695e+003;4.1811538086e+003;
1.9687500000e+000;4.1591025391e+003;4.1829487305e+003;4.1875639648e+003;4.1865385742e+003;4.1746152344e+003;4.1767949219e+003;4.1844873047e+003;4.1893588867e+003;4.1739741211e+003;4.1637177734e+003;4.1847436523e+003;4.1820512695e+003;4.1773076172e+003;4.1748715820e+003;
1.9765625000e+000;4.1720512695e+003;4.1951284180e+003;4.2016665039e+003;4.1997436523e+003;4.1875639648e+003;4.1885898438e+003;4.1964101563e+003;4.2003847656e+003;4.1874360352e+003;4.1762822266e+003;4.1982050781e+003;4.1934614258e+003;4.1919228516e+003;4.1856411133e+003;
1.9843750000e+000;4.2052563477e+003;4.2319228516e+003;4.2385898438e+003;4.2335898438e+003;4.2273076172e+003;4.2226923828e+003;4.2276923828e+003;4.2351284180e+003;4.2253847656e+003;4.2187177734e+003;4.2380771484e+003;4.2319228516e+003;4.2319228516e+003;4.2212822266e+003;
1.9921875000e+000;4.1897436523e+003;4.2173076172e+003;4.2230771484e+003;4.2201284180e+003;4.2129487305e+003;4.2092309570e+003;4.2134614258e+003;4.2184614258e+003;4.2087177734e+003;4.2041025391e+003;4.2229487305e+003;4.2183334961e+003;4.2167949219e+003;4.2085898438e+003;
2.0000000000e+000;4.1785898438e+003;4.2052563477e+003;4.2093588867e+003;4.2098715820e+003;4.2003847656e+003;4.1976923828e+003;4.2035898438e+003;4.2010258789e+003;4.1916665039e+003;4.1875639648e+003;4.2074360352e+003;4.2038461914e+003;4.2028203125e+003;4.1967949219e+003;
2.0078125000e+000;4.3080771484e+003;4.3412822266e+003;4.3485898438e+003;4.3338461914e+003;4.3353847656e+003;4.3261538086e+003;4.3357690430e+003;4.3366665039e+003;4.3179487305e+003;4.3315385742e+003;4.3444873047e+003;4.3423076172e+003;4.3391025391e+003;4.3279487305e+003;
2.0156250000e+000;4.3153847656e+003;4.3493588867e+003;4.3548715820e+003;4.3430771484e+003;4.3446152344e+003;4.3347436523e+003;4.3446152344e+003;4.3450000000e+003;4.3256411133e+003;4.3415385742e+003;4.3557690430e+003;4.3510258789e+003;4.3479487305e+003;4.3378203125e+003;
2.0234375000e+000;4.4025639648e+003;4.4444873047e+003;4.4425639648e+003;4.4270512695e+003;4.4353847656e+003;4.4216665039e+003;4.4280771484e+003;4.4375639648e+003;4.4321796875e+003;4.4453847656e+003;4.4480771484e+003;4.4373076172e+003;4.4419228516e+003;4.4297436523e+003;
2.0312500000e+000;4.3385898438e+003;4.3903847656e+003;4.3833334961e+003;4.3729487305e+003;4.3826923828e+003;4.3721796875e+003;4.3807690430e+003;4.3873076172e+003;4.3829487305e+003;4.3914101563e+003;4.3941025391e+003;4.3783334961e+003;4.3802563477e+003;4.3685898438e+003;
2.0390625000e+000;4.3129487305e+003;4.3656411133e+003;4.3585898438e+003;4.3519228516e+003;4.3603847656e+003;4.3503847656e+003;4.3584614258e+003;4.3647436523e+003;4.3589741211e+003;4.3671796875e+003;4.3726923828e+003;4.3562822266e+003;4.3552563477e+003;4.3447436523e+003;
2.0468750000e+000;4.2373076172e+003;4.2876923828e+003;4.2823076172e+003;4.2807690430e+003;4.2837177734e+003;4.2811538086e+003;4.2848715820e+003;4.2803847656e+003;4.2724360352e+003;4.2761538086e+003;4.2882050781e+003;4.2789741211e+003;4.2797436523e+003;4.2670512695e+003;
2.0546875000e+000;4.2866665039e+003;4.3373076172e+003;4.3288461914e+003;4.3260258789e+003;4.3328203125e+003;4.3248715820e+003;4.3298715820e+003;4.3235898438e+003;4.3171796875e+003;4.3223076172e+003;4.3351284180e+003;4.3242309570e+003;4.3301284180e+003;4.3153847656e+003;
2.0625000000e+000;4.3778203125e+003;4.4298715820e+003;4.4250000000e+003;4.4147436523e+003;4.4260258789e+003;4.4124360352e+003;4.4160258789e+003;4.4169228516e+003;4.4123076172e+003;4.4248715820e+003;4.4342309570e+003;4.4202563477e+003;4.4269228516e+003;4.4134614258e+003;
2.0703125000e+000;4.3801284180e+003;4.4342309570e+003;4.4329487305e+003;4.4202563477e+003;4.4302563477e+003;4.4188461914e+003;4.4210258789e+003;4.4234614258e+003;4.4179487305e+003;4.4324360352e+003;4.4414101563e+003;4.4275639648e+003;4.4324360352e+003;4.4196152344e+003;
2.0781250000e+000;4.4446152344e+003;4.5123076172e+003;4.4976923828e+003;4.4871796875e+003;4.4997436523e+003;4.4794873047e+003;4.4888461914e+003;4.4905126953e+003;4.4842309570e+003;4.5007690430e+003;4.5082050781e+003;4.4942309570e+003;4.5037177734e+003;4.4866665039e+003;
2.0859375000e+000;4.4511538086e+003;4.5208974609e+003;4.5043588867e+003;4.4950000000e+003;4.5076923828e+003;4.4857690430e+003;4.4957690430e+003;4.5011538086e+003;4.4950000000e+003;4.5114101563e+003;4.5169228516e+003;4.5032050781e+003;4.5128203125e+003;4.4962822266e+003;
2.0937500000e+000;4.4098715820e+003;4.4805126953e+003;4.4682050781e+003;4.4591025391e+003;4.4723076172e+003;4.4547436523e+003;4.4623076172e+003;4.4711538086e+003;4.4638461914e+003;4.4756411133e+003;4.4838461914e+003;4.4679487305e+003;4.4782050781e+003;4.4630771484e+003;
2.1015625000e+000;4.4100000000e+003;4.4830771484e+003;4.4698715820e+003;4.4598715820e+003;4.4756411133e+003;4.4578203125e+003;4.4653847656e+003;4.4748715820e+003;4.4671796875e+003;4.4787177734e+003;4.4878203125e+003;4.4696152344e+003;4.4820512695e+003;4.4664101563e+003;
2.1093750000e+000;4.4192309570e+003;4.4956411133e+003;4.4789741211e+003;4.4682050781e+003;4.4857690430e+003;4.4662822266e+003;4.4744873047e+003;4.4855126953e+003;4.4778203125e+003;4.4910258789e+003;4.4985898438e+003;4.4788461914e+003;4.4930771484e+003;4.4770512695e+003;
2.1171875000e+000;4.4402563477e+003;4.5212822266e+003;4.4985898438e+003;4.4865385742e+003;4.5097436523e+003;4.4857690430e+003;4.4896152344e+003;4.4962822266e+003;4.4902563477e+003;4.5034614258e+003;4.5103847656e+003;4.4937177734e+003;4.5132050781e+003;4.5010258789e+003;
2.1250000000e+000;4.4638461914e+003;4.5482050781e+003;4.5250000000e+003;4.5137177734e+003;4.5370512695e+003;4.5112822266e+003;4.5130771484e+003;4.5225639648e+003;4.5196152344e+003;4.5355126953e+003;4.5411538086e+003;4.5233334961e+003;4.5429487305e+003;4.5311538086e+003;
2.1328125000e+000;4.4182050781e+003;4.5073076172e+003;4.4842309570e+003;4.4739741211e+003;4.4929487305e+003;4.4728203125e+003;4.4767949219e+003;4.4828203125e+003;4.4789741211e+003;4.4980771484e+003;4.4982050781e+003;4.4841025391e+003;4.4974360352e+003;4.4882050781e+003;
2.1406250000e+000;4.4146152344e+003;4.5048715820e+003;4.4842309570e+003;4.4698715820e+003;4.4914101563e+003;4.4721796875e+003;4.4775639648e+003;4.4850000000e+003;4.4775639648e+003;4.4956411133e+003;4.4947436523e+003;4.4823076172e+003;4.4951284180e+003;4.4852563477e+003;
2.1484375000e+000;4.3242309570e+003;4.4075639648e+003;4.3973076172e+003;4.3839741211e+003;4.4006411133e+003;4.3952563477e+003;4.3930771484e+003;4.4038461914e+003;4.3920512695e+003;4.4058974609e+003;4.4074360352e+003;4.3958974609e+003;4.4056411133e+003;4.3975639648e+003;
2.1562500000e+000;4.2805126953e+003;4.3556411133e+003;4.3451284180e+003;4.3385898438e+003;4.3511538086e+003;4.3458974609e+003;4.3517949219e+003;4.3534614258e+003;4.3465385742e+003;4.3541025391e+003;4.3610258789e+003;4.3515385742e+003;4.3570512695e+003;4.3560258789e+003;
2.1640625000e+000;4.2703847656e+003;4.3430771484e+003;4.3361538086e+003;4.3287177734e+003;4.3400000000e+003;4.3351284180e+003;4.3442309570e+003;4.3424360352e+003;4.3335898438e+003;4.3385898438e+003;4.3500000000e+003;4.3415385742e+003;4.3456411133e+003;4.3444873047e+003;
2.1718750000e+000;4.4120512695e+003;4.4828203125e+003;4.4762822266e+003;4.4608974609e+003;4.4782050781e+003;4.4660258789e+003;4.4766665039e+003;4.4761538086e+003;4.4646152344e+003;4.4778203125e+003;4.4898715820e+003;4.4721796875e+003;4.4866665039e+003;4.4720512695e+003;
2.1796875000e+000;4.4564101563e+003;4.5303847656e+003;4.5198715820e+003;4.5035898438e+003;4.5225639648e+003;4.5079487305e+003;4.5182050781e+003;4.5246152344e+003;4.5151284180e+003;4.5308974609e+003;4.5369228516e+003;4.5189741211e+003;4.5333334961e+003;4.5189741211e+003;
2.1875000000e+000;4.4562822266e+003;4.5369228516e+003;4.5203847656e+003;4.5064101563e+003;4.5251284180e+003;4.5105126953e+003;4.5221796875e+003;4.5320512695e+003;4.5241025391e+003;4.5362822266e+003;4.5389741211e+003;4.5253847656e+003;4.5342309570e+003;4.5273076172e+003;
2.1953125000e+000;4.4734614258e+003;4.5580771484e+003;4.5384614258e+003;4.5244873047e+003;4.5460258789e+003;4.5291025391e+003;4.5426923828e+003;4.5498715820e+003;4.5417949219e+003;4.5528203125e+003;4.5576923828e+003;4.5434614258e+003;4.5523076172e+003;4.5458974609e+003;
2.2031250000e+000;4.5178203125e+003;4.6129487305e+003;4.5898715820e+003;4.5720512695e+003;4.5993588867e+003;4.5824360352e+003;4.5961538086e+003;4.6074360352e+003;4.6017949219e+003;4.6182050781e+003;4.6193588867e+003;4.5976923828e+003;4.6096152344e+003;4.5971796875e+003;
2.2109375000e+000;4.4969228516e+003;4.5926923828e+003;4.5692309570e+003;4.5524360352e+003;4.5788461914e+003;4.5626923828e+003;4.5775639648e+003;4.5888461914e+003;4.5839741211e+003;4.5997436523e+003;4.5997436523e+003;4.5780771484e+003;4.5898715820e+003;4.5778203125e+003;
2.2187500000e+000;4.5215385742e+003;4.6182050781e+003;4.5916665039e+003;4.5761538086e+003;4.6026923828e+003;4.5783334961e+003;4.5961538086e+003;4.6103847656e+003;4.6041025391e+003;4.6201284180e+003;4.6198715820e+003;4.6020512695e+003;4.6114101563e+003;4.6020512695e+003;
2.2265625000e+000;4.5320512695e+003;4.6276923828e+003;4.6038461914e+003;4.5861538086e+003;4.6105126953e+003;4.5846152344e+003;4.6008974609e+003;4.6189741211e+003;4.6111538086e+003;4.6291025391e+003;4.6292309570e+003;4.6141025391e+003;4.6198715820e+003;4.6125639648e+003;
2.2343750000e+000;4.5107690430e+003;4.5964101563e+003;4.5829487305e+003;4.5588461914e+003;4.5748715820e+003;4.5544873047e+003;4.5679487305e+003;4.5757690430e+003;4.5715385742e+003;4.5898715820e+003;4.5985898438e+003;4.5855126953e+003;4.5893588867e+003;4.5833334961e+003;
2.2421875000e+000;4.5602563477e+003;4.6453847656e+003;4.6293588867e+003;4.6033334961e+003;4.6226923828e+003;4.5976923828e+003;4.6135898438e+003;4.6180771484e+003;4.6166665039e+003;4.6367949219e+003;4.6443588867e+003;4.6314101563e+003;4.6382050781e+003;4.6307690430e+003;
2.2500000000e+000;4.6047436523e+003;4.6921796875e+003;4.6742309570e+003;4.6460258789e+003;4.6687177734e+003;4.6396152344e+003;4.6565385742e+003;4.6617949219e+003;4.6608974609e+003;4.6847436523e+003;4.6876923828e+003;4.6767949219e+003;4.6850000000e+003;4.6771796875e+003;
2.2578125000e+000;4.6112822266e+003;4.7030771484e+003;4.6858974609e+003;4.6557690430e+003;4.6794873047e+003;4.6497436523e+003;4.6657690430e+003;4.6725639648e+003;4.6700000000e+003;4.6969228516e+003;4.6957690430e+003;4.6878203125e+003;4.6952563477e+003;4.6882050781e+003;
2.2656250000e+000;4.5456411133e+003;4.6444873047e+003;4.6332050781e+003;4.6044873047e+003;4.6262822266e+003;4.6089741211e+003;4.6170512695e+003;4.6283334961e+003;4.6215385742e+003;4.6438461914e+003;4.6419228516e+003;4.6283334961e+003;4.6332050781e+003;4.6275639648e+003;
2.2734375000e+000;4.5441025391e+003;4.6441025391e+003;4.6348715820e+003;4.6069228516e+003;4.6389741211e+003;4.6202563477e+003;4.6321796875e+003;4.6401284180e+003;4.6328203125e+003;4.6466665039e+003;4.6330771484e+003;4.6250000000e+003;4.6326923828e+003;4.6282050781e+003;
2.2812500000e+000;4.5662822266e+003;4.6712822266e+003;4.6574360352e+003;4.6303847656e+003;4.6652563477e+003;4.6429487305e+003;4.6543588867e+003;4.6644873047e+003;4.6578203125e+003;4.6751284180e+003;4.6612822266e+003;4.6502563477e+003;4.6592309570e+003;4.6541025391e+003;
2.2890625000e+000;4.5038461914e+003;4.6096152344e+003;4.5937177734e+003;4.5700000000e+003;4.6014101563e+003;4.5847436523e+003;4.5951284180e+003;4.6056411133e+003;4.6008974609e+003;4.6193588867e+003;4.6097436523e+003;4.5967949219e+003;4.6016665039e+003;4.5952563477e+003;
2.2968750000e+000;4.4525639648e+003;4.5508974609e+003;4.5488461914e+003;4.5146152344e+003;4.5344873047e+003;4.5202563477e+003;4.5262822266e+003;4.5438461914e+003;4.5415385742e+003;4.5547436523e+003;4.5507690430e+003;4.5376923828e+003;4.5506411133e+003;4.5437177734e+003;
2.3046875000e+000;4.4382050781e+003;4.5362822266e+003;4.5330771484e+003;4.5019228516e+003;4.5157690430e+003;4.5037177734e+003;4.5076923828e+003;4.5246152344e+003;4.5206411133e+003;4.5348715820e+003;4.5323076172e+003;4.5207690430e+003;4.5292309570e+003;4.5258974609e+003;
2.3125000000e+000;4.4564101563e+003;4.5550000000e+003;4.5426923828e+003;4.5193588867e+003;4.5287177734e+003;4.5111538086e+003;4.5211538086e+003;4.5338461914e+003;4.5253847656e+003;4.5423076172e+003;4.5437177734e+003;4.5334614258e+003;4.5335898438e+003;4.5311538086e+003;
2.3203125000e+000;4.4703847656e+003;4.5692309570e+003;4.5558974609e+003;4.5326923828e+003;4.5421796875e+003;4.5201284180e+003;4.5338461914e+003;4.5478203125e+003;4.5380771484e+003;4.5558974609e+003;4.5567949219e+003;4.5476923828e+003;4.5469228516e+003;4.5423076172e+003;
2.3281250000e+000;4.4467949219e+003;4.5394873047e+003;4.5394873047e+003;4.5083334961e+003;4.5233334961e+003;4.5017949219e+003;4.5152563477e+003;4.5224360352e+003;4.5174360352e+003;4.5306411133e+003;4.5271796875e+003;4.5233334961e+003;4.5273076172e+003;4.5223076172e+003;
2.3359375000e+000;4.4774360352e+003;4.5703847656e+003;4.5705126953e+003;4.5375639648e+003;4.5579487305e+003;4.5342309570e+003;4.5482050781e+003;4.5534614258e+003;4.5502563477e+003;4.5641025391e+003;4.5596152344e+003;4.5533334961e+003;4.5589741211e+003;4.5552563477e+003;
2.3437500000e+000;4.4862822266e+003;4.5858974609e+003;4.5828203125e+003;4.5517949219e+003;4.5739741211e+003;4.5521796875e+003;4.5664101563e+003;4.5782050781e+003;4.5706411133e+003;4.5876923828e+003;4.5823076172e+003;4.5710258789e+003;4.5732050781e+003;4.5715385742e+003;
2.3515625000e+000;4.4383334961e+003;4.5403847656e+003;4.5350000000e+003;4.5091025391e+003;4.5278203125e+003;4.5121796875e+003;4.5250000000e+003;4.5367949219e+003;4.5251284180e+003;4.5407690430e+003;4.5376923828e+003;4.5251284180e+003;4.5264101563e+003;4.5239741211e+003;
2.3593750000e+000;4.4198715820e+003;4.5197436523e+003;4.5048715820e+003;4.4901284180e+003;4.5120512695e+003;4.4996152344e+003;4.5073076172e+003;4.5107690430e+003;4.5032050781e+003;4.5128203125e+003;4.5120512695e+003;4.4932050781e+003;4.5066665039e+003;4.4965385742e+003;
2.3671875000e+000;4.4180771484e+003;4.5148715820e+003;4.5034614258e+003;4.4878203125e+003;4.5097436523e+003;4.4988461914e+003;4.5037177734e+003;4.5098715820e+003;4.5034614258e+003;4.5142309570e+003;4.5112822266e+003;4.4919228516e+003;4.5050000000e+003;4.4965385742e+003;
2.3750000000e+000;4.3857690430e+003;4.4798715820e+003;4.4742309570e+003;4.4571796875e+003;4.4761538086e+003;4.4693588867e+003;4.4717949219e+003;4.4791025391e+003;4.4708974609e+003;4.4833334961e+003;4.4805126953e+003;4.4619228516e+003;4.4725639648e+003;4.4667949219e+003;
2.3828125000e+000;4.3162822266e+003;4.4010258789e+003;4.4000000000e+003;4.3851284180e+003;4.3955126953e+003;4.3901284180e+003;4.3947436523e+003;4.3948715820e+003;4.3937177734e+003;4.3943588867e+003;4.3966665039e+003;4.3874360352e+003;4.3883334961e+003;4.3921796875e+003;
2.3906250000e+000;4.3046152344e+003;4.3842309570e+003;4.3852563477e+003;4.3723076172e+003;4.3789741211e+003;4.3750000000e+003;4.3805126953e+003;4.3791025391e+003;4.3784614258e+003;4.3771796875e+003;4.3789741211e+003;4.3712822266e+003;4.3711538086e+003;4.3771796875e+003;
2.3984375000e+000;4.4129487305e+003;4.4935898438e+003;4.4889741211e+003;4.4716665039e+003;4.4794873047e+003;4.4673076172e+003;4.4776923828e+003;4.4866665039e+003;4.4810258789e+003;4.4902563477e+003;4.4947436523e+003;4.4842309570e+003;4.4880771484e+003;4.4894873047e+003;
2.4062500000e+000;4.4348715820e+003;4.5170512695e+003;4.5146152344e+003;4.4941025391e+003;4.5028203125e+003;4.4892309570e+003;4.5007690430e+003;4.5121796875e+003;4.5064101563e+003;4.5174360352e+003;4.5242309570e+003;4.5120512695e+003;4.5152563477e+003;4.5147436523e+003;
2.4140625000e+000;4.4671796875e+003;4.5492309570e+003;4.5534614258e+003;4.5269228516e+003;4.5384614258e+003;4.5192309570e+003;4.5358974609e+003;4.5471796875e+003;4.5428203125e+003;4.5546152344e+003;4.5615385742e+003;4.5453847656e+003;4.5511538086e+003;4.5464101563e+003;
2.4218750000e+000;4.4530771484e+003;4.5346152344e+003;4.5416665039e+003;4.5111538086e+003;4.5267949219e+003;4.5100000000e+003;4.5235898438e+003;4.5353847656e+003;4.5253847656e+003;4.5355126953e+003;4.5429487305e+003;4.5343588867e+003;4.5341025391e+003;4.5288461914e+003;
2.4296875000e+000;4.4698715820e+003;4.5526923828e+003;4.5573076172e+003;4.5279487305e+003;4.5493588867e+003;4.5306411133e+003;4.5443588867e+003;4.5521796875e+003;4.5420512695e+003;4.5515385742e+003;4.5632050781e+003;4.5516665039e+003;4.5525639648e+003;4.5446152344e+003;
2.4375000000e+000;4.4757690430e+003;4.5592309570e+003;4.5648715820e+003;4.5378203125e+003;4.5650000000e+003;4.5437177734e+003;4.5578203125e+003;4.5637177734e+003;4.5524360352e+003;4.5644873047e+003;4.5758974609e+003;4.5602563477e+003;4.5643588867e+003;4.5542309570e+003;
2.4453125000e+000;4.4370512695e+003;4.5196152344e+003;4.5279487305e+003;4.5023076172e+003;4.5274360352e+003;4.5088461914e+003;4.5223076172e+003;4.5248715820e+003;4.5130771484e+003;4.5239741211e+003;4.5339741211e+003;4.5215385742e+003;4.5252563477e+003;4.5171796875e+003;
2.4531250000e+000;4.4903847656e+003;4.5798715820e+003;4.5789741211e+003;4.5526923828e+003;4.5858974609e+003;4.5598715820e+003;4.5735898438e+003;4.5673076172e+003;4.5606411133e+003;4.5680771484e+003;4.5767949219e+003;4.5689741211e+003;4.5753847656e+003;4.5665385742e+003;
2.4609375000e+000;4.5283334961e+003;4.6226923828e+003;4.6182050781e+003;4.5919228516e+003;4.6274360352e+003;4.5988461914e+003;4.6106411133e+003;4.6101284180e+003;4.6053847656e+003;4.6144873047e+003;4.6207690430e+003;4.6107690430e+003;4.6167949219e+003;4.6061538086e+003;
2.4687500000e+000;4.4897436523e+003;4.5871796875e+003;4.5823076172e+003;4.5620512695e+003;4.5893588867e+003;4.5676923828e+003;4.5746152344e+003;4.5796152344e+003;4.5782050781e+003;4.5830771484e+003;4.5889741211e+003;4.5774360352e+003;4.5825639648e+003;4.5716665039e+003;
2.4765625000e+000;4.4705126953e+003;4.5675639648e+003;4.5617949219e+003;4.5442309570e+003;4.5680771484e+003;4.5480771484e+003;4.5548715820e+003;4.5588461914e+003;4.5582050781e+003;4.5598715820e+003;4.5679487305e+003;4.5561538086e+003;4.5625639648e+003;4.5520512695e+003;
2.4843750000e+000;4.4637177734e+003;4.5602563477e+003;4.5551284180e+003;4.5383334961e+003;4.5576923828e+003;4.5335898438e+003;4.5402563477e+003;4.5470512695e+003;4.5458974609e+003;4.5507690430e+003;4.5587177734e+003;4.5452563477e+003;4.5492309570e+003;4.5369228516e+003;
2.4921875000e+000;4.4441025391e+003;4.5382050781e+003;4.5369228516e+003;4.5217949219e+003;4.5360258789e+003;4.5146152344e+003;4.5205126953e+003;4.5251284180e+003;4.5252563477e+003;4.5285898438e+003;4.5373076172e+003;4.5232050781e+003;4.5262822266e+003;4.5125639648e+003;
2.5000000000e+000;4.4434614258e+003;4.5344873047e+003;4.5360258789e+003;4.5217949219e+003;4.5325639648e+003;4.5138461914e+003;4.5200000000e+003;4.5215385742e+003;4.5230771484e+003;4.5228203125e+003;4.5332050781e+003;4.5187177734e+003;4.5225639648e+003;4.5080771484e+003;
2.5078125000e+000;4.4643588867e+003;4.5530771484e+003;4.5552563477e+003;4.5402563477e+003;4.5512822266e+003;4.5339741211e+003;4.5405126953e+003;4.5416665039e+003;4.5433334961e+003;4.5391025391e+003;4.5506411133e+003;4.5370512695e+003;4.5408974609e+003;4.5280771484e+003;
2.5156250000e+000;4.5746152344e+003;4.6723076172e+003;4.6596152344e+003;4.6373076172e+003;4.6723076172e+003;4.6451284180e+003;4.6562822266e+003;4.6626923828e+003;4.6480771484e+003;4.6473076172e+003;4.6611538086e+003;4.6492309570e+003;4.6493588867e+003;4.6414101563e+003;
2.5234375000e+000;4.6434614258e+003;4.7458974609e+003;4.7289741211e+003;4.7050000000e+003;4.7443588867e+003;4.7108974609e+003;4.7261538086e+003;4.7343588867e+003;4.7184614258e+003;4.7234614258e+003;4.7357690430e+003;4.7192309570e+003;4.7239741211e+003;4.7112822266e+003;
2.5312500000e+000;4.6126923828e+003;4.7228203125e+003;4.7096152344e+003;4.6828203125e+003;4.7198715820e+003;4.6919228516e+003;4.7056411133e+003;4.7228203125e+003;4.7050000000e+003;4.7143588867e+003;4.7182050781e+003;4.7034614258e+003;4.7111538086e+003;4.6969228516e+003;
2.5390625000e+000;4.6003847656e+003;4.7184614258e+003;4.6975639648e+003;4.6719228516e+003;4.7124360352e+003;4.6807690430e+003;4.6930771484e+003;4.6997436523e+003;4.6901284180e+003;4.6960258789e+003;4.7041025391e+003;4.6852563477e+003;4.6975639648e+003;4.6855126953e+003;
2.5468750000e+000;4.6111538086e+003;4.7312822266e+003;4.7108974609e+003;4.6852563477e+003;4.7203847656e+003;4.6903847656e+003;4.7037177734e+003;4.7084614258e+003;4.7021796875e+003;4.7088461914e+003;4.7165385742e+003;4.6980771484e+003;4.7084614258e+003;4.6984614258e+003;
2.5546875000e+000;4.6210258789e+003;4.7435898438e+003;4.7246152344e+003;4.6988461914e+003;4.7261538086e+003;4.6969228516e+003;4.7075639648e+003;4.7125639648e+003;4.7088461914e+003;4.7178203125e+003;4.7248715820e+003;4.7125639648e+003;4.7235898438e+003;4.7100000000e+003;
2.5625000000e+000;4.6362822266e+003;4.7615385742e+003;4.7402563477e+003;4.7116665039e+003;4.7398715820e+003;4.7102563477e+003;4.7152563477e+003;4.7192309570e+003;4.7205126953e+003;4.7335898438e+003;4.7428203125e+003;4.7216665039e+003;4.7455126953e+003;4.7279487305e+003;
2.5703125000e+000;4.6644873047e+003;4.7942309570e+003;4.7689741211e+003;4.7407690430e+003;4.7710258789e+003;4.7380771484e+003;4.7462822266e+003;4.7456411133e+003;4.7493588867e+003;4.7623076172e+003;4.7712822266e+003;4.7475639648e+003;4.7737177734e+003;4.7587177734e+003;
2.5781250000e+000;4.7816665039e+003;4.9274360352e+003;4.8951284180e+003;4.8601284180e+003;4.9065385742e+003;4.8560258789e+003;4.8647436523e+003;4.8787177734e+003;4.8842309570e+003;4.8976923828e+003;4.8939741211e+003;4.8737177734e+003;4.8997436523e+003;4.8855126953e+003;
2.5859375000e+000;4.7550000000e+003;4.9007690430e+003;4.8733334961e+003;4.8350000000e+003;4.8839741211e+003;4.8360258789e+003;4.8414101563e+003;4.8575639648e+003;4.8611538086e+003;4.8728203125e+003;4.8689741211e+003;4.8505126953e+003;4.8757690430e+003;4.8598715820e+003;
2.5937500000e+000;4.7353847656e+003;4.8824360352e+003;4.8589741211e+003;4.8187177734e+003;4.8719228516e+003;4.8300000000e+003;4.8355126953e+003;4.8470512695e+003;4.8455126953e+003;4.8519228516e+003;4.8539741211e+003;4.8342309570e+003;4.8589741211e+003;4.8435898438e+003;
2.6015625000e+000;4.7569228516e+003;4.9066665039e+003;4.8817949219e+003;4.8428203125e+003;4.8967949219e+003;4.8561538086e+003;4.8647436523e+003;4.8776923828e+003;4.8711538086e+003;4.8773076172e+003;4.8798715820e+003;4.8594873047e+003;4.8828203125e+003;4.8697436523e+003;
2.6093750000e+000;4.7975639648e+003;4.9483334961e+003;4.9246152344e+003;4.8876923828e+003;4.9388461914e+003;4.8969228516e+003;4.9187177734e+003;4.9325639648e+003;4.9130771484e+003;4.9225639648e+003;4.9252563477e+003;4.9050000000e+003;4.9288461914e+003;4.9175639648e+003;
2.6171875000e+000;4.8378203125e+003;4.9889741211e+003;4.9641025391e+003;4.9242309570e+003;4.9788461914e+003;4.9316665039e+003;4.9565385742e+003;4.9697436523e+003;4.9519228516e+003;4.9630771484e+003;4.9661538086e+003;4.9439741211e+003;4.9698715820e+003;4.9579487305e+003;
2.6250000000e+000;4.8723076172e+003;5.0248715820e+003;4.9988461914e+003;4.9551284180e+003;5.0132050781e+003;4.9630771484e+003;4.9873076172e+003;5.0038461914e+003;4.9888461914e+003;5.0015385742e+003;5.0035898438e+003;4.9800000000e+003;5.0053847656e+003;4.9943588867e+003;
2.6328125000e+000;4.8735898438e+003;5.0276923828e+003;5.0025639648e+003;4.9553847656e+003;5.0142309570e+003;4.9664101563e+003;4.9869228516e+003;5.0079487305e+003;4.9944873047e+003;5.0073076172e+003;5.0078203125e+003;4.9851284180e+003;5.0071796875e+003;4.9987177734e+003;
2.6406250000e+000;4.8752563477e+003;5.0361538086e+003;5.0194873047e+003;4.9580771484e+003;5.0162822266e+003;4.9715385742e+003;4.9921796875e+003;5.0060258789e+003;4.9924360352e+003;5.0041025391e+003;5.0058974609e+003;4.9857690430e+003;5.0080771484e+003;5.0043588867e+003;
2.6484375000e+000;4.8862822266e+003;5.0501284180e+003;5.0329487305e+003;4.9708974609e+003;5.0283334961e+003;4.9821796875e+003;5.0028203125e+003;5.0166665039e+003;5.0043588867e+003;5.0175639648e+003;5.0187177734e+003;4.9980771484e+003;5.0202563477e+003;5.0173076172e+003;
2.6562500000e+000;4.9330771484e+003;5.1006411133e+003;5.0793588867e+003;5.0198715820e+003;5.0780771484e+003;5.0279487305e+003;5.0466665039e+003;5.0605126953e+003;5.0492309570e+003;5.0608974609e+003;5.0679487305e+003;5.0457690430e+003;5.0710258789e+003;5.0664101563e+003;
2.6640625000e+000;4.9160258789e+003;5.0943588867e+003;5.0756411133e+003;5.0107690430e+003;5.0712822266e+003;5.0201284180e+003;5.0387177734e+003;5.0534614258e+003;5.0482050781e+003;5.0630771484e+003;5.0656411133e+003;5.0448715820e+003;5.0701284180e+003;5.0655126953e+003;
2.6718750000e+000;4.8824360352e+003;5.0638461914e+003;5.0450000000e+003;4.9823076172e+003;5.0406411133e+003;4.9915385742e+003;5.0091025391e+003;5.0174360352e+003;5.0167949219e+003;5.0288461914e+003;5.0344873047e+003;5.0126923828e+003;5.0365385742e+003;5.0341025391e+003;
2.6796875000e+000;4.9710258789e+003;5.1574360352e+003;5.1385898438e+003;5.0725639648e+003;5.1366665039e+003;5.0796152344e+003;5.0867949219e+003;5.1033334961e+003;5.1135898438e+003;5.1224360352e+003;5.1292309570e+003;5.1032050781e+003;5.1298715820e+003;5.1291025391e+003;
2.6875000000e+000;4.9035898438e+003;5.1001284180e+003;5.0766665039e+003;5.0182050781e+003;5.0862822266e+003;5.0387177734e+003;5.0437177734e+003;5.0602563477e+003;5.0656411133e+003;5.0725639648e+003;5.0765385742e+003;5.0546152344e+003;5.0815385742e+003;5.0743588867e+003;
2.6953125000e+000;4.8775639648e+003;5.0784614258e+003;5.0519228516e+003;4.9967949219e+003;5.0647436523e+003;5.0196152344e+003;5.0262822266e+003;5.0425639648e+003;5.0447436523e+003;5.0511538086e+003;5.0565385742e+003;5.0329487305e+003;5.0594873047e+003;5.0520512695e+003;
2.7031250000e+000;4.8467949219e+003;5.0497436523e+003;5.0238461914e+003;4.9698715820e+003;5.0348715820e+003;4.9933334961e+003;5.0001284180e+003;5.0178203125e+003;5.0167949219e+003;5.0206411133e+003;5.0279487305e+003;5.0038461914e+003;5.0280771484e+003;5.0235898438e+003;
2.7109375000e+000;4.8110258789e+003;5.0100000000e+003;4.9893588867e+003;4.9362822266e+003;4.9942309570e+003;4.9598715820e+003;4.9683334961e+003;4.9805126953e+003;4.9739741211e+003;4.9688461914e+003;4.9789741211e+003;4.9573076172e+003;4.9794873047e+003;4.9814101563e+003;
2.7187500000e+000;4.8741025391e+003;5.0705126953e+003;5.0497436523e+003;4.9979487305e+003;5.0591025391e+003;5.0225639648e+003;5.0438461914e+003;5.0529487305e+003;5.0412822266e+003;5.0339741211e+003;5.0411538086e+003;5.0203847656e+003;5.0437177734e+003;5.0405126953e+003;
2.7265625000e+000;4.8407690430e+003;5.0344873047e+003;5.0198715820e+003;4.9673076172e+003;5.0257690430e+003;4.9926923828e+003;5.0139741211e+003;5.0258974609e+003;5.0119228516e+003;5.0029487305e+003;5.0119228516e+003;4.9941025391e+003;5.0124360352e+003;5.0105126953e+003;
2.7343750000e+000;4.8533334961e+003;5.0417949219e+003;5.0310258789e+003;4.9747436523e+003;5.0321796875e+003;4.9991025391e+003;5.0179487305e+003;5.0291025391e+003;5.0112822266e+003;5.0050000000e+003;5.0166665039e+003;5.0012822266e+003;5.0202563477e+003;5.0196152344e+003;
2.7421875000e+000;4.8926923828e+003;5.0825639648e+003;5.0689741211e+003;5.0117949219e+003;5.0716665039e+003;5.0365385742e+003;5.0548715820e+003;5.0660258789e+003;5.0485898438e+003;5.0467949219e+003;5.0562822266e+003;5.0391025391e+003;5.0591025391e+003;5.0587177734e+003;
2.7500000000e+000;4.9098715820e+003;5.1005126953e+003;5.0855126953e+003;5.0288461914e+003;5.0903847656e+003;5.0539741211e+003;5.0723076172e+003;5.0820512695e+003;5.0653847656e+003;5.0669228516e+003;5.0757690430e+003;5.0569228516e+003;5.0757690430e+003;5.0765385742e+003;
2.7578125000e+000;4.9180771484e+003;5.1093588867e+003;5.0926923828e+003;5.0378203125e+003;5.1010258789e+003;5.0619228516e+003;5.0812822266e+003;5.0888461914e+003;5.0726923828e+003;5.0756411133e+003;5.0867949219e+003;5.0661538086e+003;5.0835898438e+003;5.0855126953e+003;
2.7656250000e+000;4.9523076172e+003;5.1511538086e+003;5.1330771484e+003;5.0750000000e+003;5.1346152344e+003;5.0916665039e+003;5.1073076172e+003;5.1257690430e+003;5.1205126953e+003;5.1196152344e+003;5.1335898438e+003;5.1103847656e+003;5.1269228516e+003;5.1284614258e+003;
2.7734375000e+000;4.9157690430e+003;5.1160258789e+003;5.1010258789e+003;5.0398715820e+003;5.0988461914e+003;5.0607690430e+003;5.0728203125e+003;5.0902563477e+003;5.0878203125e+003;5.0846152344e+003;5.0980771484e+003;5.0753847656e+003;5.0917949219e+003;5.0938461914e+003;
2.7812500000e+000;4.9153847656e+003;5.1126923828e+003;5.0989741211e+003;5.0353847656e+003;5.1039741211e+003;5.0597436523e+003;5.0697436523e+003;5.0891025391e+003;5.0875639648e+003;5.0839741211e+003;5.1011538086e+003;5.0780771484e+003;5.0946152344e+003;5.0997436523e+003;
2.7890625000e+000;4.8437177734e+003;5.0356411133e+003;5.0266665039e+003;4.9688461914e+003;5.0232050781e+003;4.9941025391e+003;5.0007690430e+003;5.0146152344e+003;5.0082050781e+003;5.0007690430e+003;5.0206411133e+003;4.9993588867e+003;5.0182050781e+003;5.0265385742e+003;
2.7968750000e+000;4.8693588867e+003;5.0646152344e+003;5.0548715820e+003;4.9966665039e+003;5.0512822266e+003;5.0200000000e+003;5.0276923828e+003;5.0403847656e+003;5.0350000000e+003;5.0267949219e+003;5.0451284180e+003;5.0208974609e+003;5.0438461914e+003;5.0506411133e+003;
2.8046875000e+000;4.8724360352e+003;5.0726923828e+003;5.0651284180e+003;5.0107690430e+003;5.0656411133e+003;5.0321796875e+003;5.0441025391e+003;5.0602563477e+003;5.0506411133e+003;5.0428203125e+003;5.0530771484e+003;5.0267949219e+003;5.0461538086e+003;5.0523076172e+003;
2.8125000000e+000;4.8869228516e+003;5.0844873047e+003;5.0761538086e+003;5.0241025391e+003;5.0764101563e+003;5.0465385742e+003;5.0630771484e+003;5.0789741211e+003;5.0567949219e+003;5.0467949219e+003;5.0582050781e+003;5.0414101563e+003;5.0571796875e+003;5.0603847656e+003;
2.8203125000e+000;4.8676923828e+003;5.0647436523e+003;5.0597436523e+003;5.0091025391e+003;5.0575639648e+003;5.0292309570e+003;5.0447436523e+003;5.0633334961e+003;5.0407690430e+003;5.0301284180e+003;5.0424360352e+003;5.0271796875e+003;5.0410258789e+003;5.0451284180e+003;
2.8281250000e+000;4.8150000000e+003;5.0094873047e+003;5.0085898438e+003;4.9624360352e+003;5.0048715820e+003;4.9803847656e+003;4.9934614258e+003;5.0116665039e+003;4.9911538086e+003;4.9785898438e+003;4.9938461914e+003;4.9778203125e+003;4.9898715820e+003;4.9955126953e+003;
2.8359375000e+000;4.7067949219e+003;4.8911538086e+003;4.8934614258e+003;4.8555126953e+003;4.8916665039e+003;4.8734614258e+003;4.8802563477e+003;4.8942309570e+003;4.8788461914e+003;4.8619228516e+003;4.8837177734e+003;4.8634614258e+003;4.8757690430e+003;4.8820512695e+003;
2.8437500000e+000;4.5774360352e+003;4.7480771484e+003;4.7555126953e+003;4.7157690430e+003;4.7461538086e+003;4.7342309570e+003;4.7333334961e+003;4.7478203125e+003;4.7305126953e+003;4.7053847656e+003;4.7314101563e+003;4.7191025391e+003;4.7300000000e+003;4.7371796875e+003;
2.8515625000e+000;4.5743588867e+003;4.7423076172e+003;4.7484614258e+003;4.7121796875e+003;4.7402563477e+003;4.7274360352e+003;4.7273076172e+003;4.7373076172e+003;4.7220512695e+003;4.6953847656e+003;4.7244873047e+003;4.7105126953e+003;4.7230771484e+003;4.7311538086e+003;
2.8593750000e+000;4.6112822266e+003;4.7776923828e+003;4.7797436523e+003;4.7479487305e+003;4.7761538086e+003;4.7600000000e+003;4.7608974609e+003;4.7687177734e+003;4.7571796875e+003;4.7324360352e+003;4.7617949219e+003;4.7424360352e+003;4.7588461914e+003;4.7669228516e+003;
2.8671875000e+000;4.6920512695e+003;4.8555126953e+003;4.8514101563e+003;4.8226923828e+003;4.8542309570e+003;4.8351284180e+003;4.8337177734e+003;4.8483334961e+003;4.8416665039e+003;4.8239741211e+003;4.8458974609e+003;4.8188461914e+003;4.8421796875e+003;4.8480771484e+003;
2.8750000000e+000;4.7039741211e+003;4.8652563477e+003;4.8621796875e+003;4.8312822266e+003;4.8641025391e+003;4.8455126953e+003;4.8421796875e+003;4.8601284180e+003;4.8532050781e+003;4.8365385742e+003;4.8557690430e+003;4.8302563477e+003;4.8546152344e+003;4.8591025391e+003;
2.8828125000e+000;4.7179487305e+003;4.8779487305e+003;4.8767949219e+003;4.8423076172e+003;4.8766665039e+003;4.8566665039e+003;4.8532050781e+003;4.8726923828e+003;4.8648715820e+003;4.8482050781e+003;4.8669228516e+003;4.8434614258e+003;4.8680771484e+003;4.8710258789e+003;
2.8906250000e+000;4.8167949219e+003;4.9805126953e+003;4.9808974609e+003;4.9380771484e+003;4.9732050781e+003;4.9535898438e+003;4.9626923828e+003;4.9744873047e+003;4.9703847656e+003;4.9538461914e+003;4.9634614258e+003;4.9365385742e+003;4.9665385742e+003;4.9693588867e+003;
2.8984375000e+000;4.8615385742e+003;5.0260258789e+003;5.0250000000e+003;4.9782050781e+003;5.0206411133e+003;4.9961538086e+003;5.0065385742e+003;5.0183334961e+003;5.0158974609e+003;4.9996152344e+003;5.0083334961e+003;4.9780771484e+003;5.0129487305e+003;5.0144873047e+003;
2.9062500000e+000;4.8521796875e+003;5.0130771484e+003;5.0228203125e+003;4.9715385742e+003;5.0180771484e+003;4.9974360352e+003;5.0028203125e+003;5.0200000000e+003;5.0170512695e+003;5.0016665039e+003;5.0058974609e+003;4.9838461914e+003;5.0092309570e+003;5.0107690430e+003;
2.9140625000e+000;4.8579487305e+003;5.0194873047e+003;5.0241025391e+003;4.9743588867e+003;5.0248715820e+003;5.0014101563e+003;5.0166665039e+003;5.0269228516e+003;5.0171796875e+003;4.9983334961e+003;5.0116665039e+003;4.9897436523e+003;5.0160258789e+003;5.0151284180e+003;
2.9218750000e+000;4.8661538086e+003;5.0288461914e+003;5.0325639648e+003;4.9816665039e+003;5.0324360352e+003;5.0062822266e+003;5.0215385742e+003;5.0367949219e+003;5.0250000000e+003;5.0066665039e+003;5.0226923828e+003;4.9987177734e+003;5.0238461914e+003;5.0270512695e+003;
2.9296875000e+000;4.8744873047e+003;5.0317949219e+003;5.0405126953e+003;4.9866665039e+003;5.0317949219e+003;5.0041025391e+003;5.0153847656e+003;5.0310258789e+003;5.0192309570e+003;5.0050000000e+003;5.0219228516e+003;5.0014101563e+003;5.0224360352e+003;5.0291025391e+003;
2.9375000000e+000;4.9064101563e+003;5.0662822266e+003;5.0723076172e+003;5.0171796875e+003;5.0642309570e+003;5.0334614258e+003;5.0452563477e+003;5.0620512695e+003;5.0512822266e+003;5.0406411133e+003;5.0555126953e+003;5.0347436523e+003;5.0578203125e+003;5.0611538086e+003;
2.9453125000e+000;4.8573076172e+003;5.0250000000e+003;5.0256411133e+003;4.9748715820e+003;5.0203847656e+003;4.9942309570e+003;5.0011538086e+003;5.0246152344e+003;5.0130771484e+003;5.0026923828e+003;5.0201284180e+003;4.9951284180e+003;5.0201284180e+003;5.0239741211e+003;
2.9531250000e+000;4.7998715820e+003;4.9670512695e+003;4.9676923828e+003;4.9202563477e+003;4.9626923828e+003;4.9417949219e+003;4.9452563477e+003;4.9689741211e+003;4.9573076172e+003;4.9429487305e+003;4.9652563477e+003;4.9370512695e+003;4.9635898438e+003;4.9691025391e+003;
2.9609375000e+000;4.7980771484e+003;4.9551284180e+003;4.9614101563e+003;4.9121796875e+003;4.9478203125e+003;4.9267949219e+003;4.9307690430e+003;4.9543588867e+003;4.9478203125e+003;4.9310258789e+003;4.9519228516e+003;4.9241025391e+003;4.9526923828e+003;4.9591025391e+003;
2.9687500000e+000;4.7879487305e+003;4.9464101563e+003;4.9519228516e+003;4.9098715820e+003;4.9357690430e+003;4.9196152344e+003;4.9293588867e+003;4.9467949219e+003;4.9391025391e+003;4.9178203125e+003;4.9344873047e+003;4.9073076172e+003;4.9373076172e+003;4.9432050781e+003;
2.9765625000e+000;4.7982050781e+003;4.9550000000e+003;4.9585898438e+003;4.9182050781e+003;4.9482050781e+003;4.9326923828e+003;4.9428203125e+003;4.9566665039e+003;4.9506411133e+003;4.9250000000e+003;4.9420512695e+003;4.9121796875e+003;4.9464101563e+003;4.9502563477e+003;
2.9843750000e+000;4.8029487305e+003;4.9573076172e+003;4.9607690430e+003;4.9208974609e+003;4.9557690430e+003;4.9410258789e+003;4.9493588867e+003;4.9603847656e+003;4.9556411133e+003;4.9278203125e+003;4.9438461914e+003;4.9129487305e+003;4.9494873047e+003;4.9528203125e+003;
2.9921875000e+000;4.8030771484e+003;4.9578203125e+003;4.9605126953e+003;4.9220512695e+003;4.9620512695e+003;4.9460258789e+003;4.9514101563e+003;4.9547436523e+003;4.9488461914e+003;4.9260258789e+003;4.9384614258e+003;4.9102563477e+003;4.9453847656e+003;4.9535898438e+003;
3.0000000000e+000;4.8285898438e+003;4.9871796875e+003;4.9871796875e+003;4.9482050781e+003;4.9897436523e+003;4.9697436523e+003;4.9764101563e+003;4.9773076172e+003;4.9717949219e+003;4.9532050781e+003;4.9643588867e+003;4.9373076172e+003;4.9711538086e+003;4.9820512695e+003;
3.0078125000e+000;4.8580771484e+003;5.0197436523e+003;5.0188461914e+003;4.9770512695e+003;5.0189741211e+003;4.9961538086e+003;5.0041025391e+003;5.0057690430e+003;5.0025639648e+003;4.9861538086e+003;4.9967949219e+003;4.9708974609e+003;5.0028203125e+003;5.0151284180e+003;
3.0156250000e+000;4.7830771484e+003;4.9389741211e+003;4.9475639648e+003;4.9044873047e+003;4.9384614258e+003;4.9237177734e+003;4.9294873047e+003;4.9334614258e+003;4.9269228516e+003;4.9041025391e+003;4.9266665039e+003;4.8989741211e+003;4.9247436523e+003;4.9384614258e+003;
3.0234375000e+000;4.7855126953e+003;4.9414101563e+003;4.9520512695e+003;4.9096152344e+003;4.9417949219e+003;4.9278203125e+003;4.9343588867e+003;4.9438461914e+003;4.9378203125e+003;4.9138461914e+003;4.9338461914e+003;4.9057690430e+003;4.9303847656e+003;4.9438461914e+003;
3.0312500000e+000;4.7807690430e+003;4.9273076172e+003;4.9430771484e+003;4.9030771484e+003;4.9274360352e+003;4.9247436523e+003;4.9305126953e+003;4.9406411133e+003;4.9348715820e+003;4.9044873047e+003;4.9270512695e+003;4.9037177734e+003;4.9271796875e+003;4.9369228516e+003;
3.0390625000e+000;4.8916665039e+003;5.0442309570e+003;5.0446152344e+003;5.0021796875e+003;5.0306411133e+003;5.0139741211e+003;5.0235898438e+003;5.0453847656e+003;5.0312822266e+003;5.0184614258e+003;5.0408974609e+003;5.0128203125e+003;5.0382050781e+003;5.0475639648e+003;
3.0468750000e+000;4.8547436523e+003;5.0074360352e+003;5.0103847656e+003;4.9664101563e+003;4.9917949219e+003;4.9770512695e+003;4.9864101563e+003;5.0094873047e+003;4.9969228516e+003;4.9811538086e+003;5.0043588867e+003;4.9760258789e+003;5.0001284180e+003;5.0106411133e+003;
3.0546875000e+000;4.7993588867e+003;4.9494873047e+003;4.9565385742e+003;4.9137177734e+003;4.9342309570e+003;4.9258974609e+003;4.9280771484e+003;4.9456411133e+003;4.9347436523e+003;4.9129487305e+003;4.9328203125e+003;4.9076923828e+003;4.9364101563e+003;4.9478203125e+003;
3.0625000000e+000;4.8179487305e+003;4.9682050781e+003;4.9729487305e+003;4.9314101563e+003;4.9534614258e+003;4.9444873047e+003;4.9451284180e+003;4.9578203125e+003;4.9456411133e+003;4.9257690430e+003;4.9451284180e+003;4.9207690430e+003;4.9502563477e+003;4.9621796875e+003;
3.0703125000e+000;4.9576923828e+003;5.1129487305e+003;5.1070512695e+003;5.0657690430e+003;5.1006411133e+003;5.0771796875e+003;5.0825639648e+003;5.0834614258e+003;5.0753847656e+003;5.0569228516e+003;5.0789741211e+003;5.0483334961e+003;5.0823076172e+003;5.0925639648e+003;
3.0781250000e+000;5.0629487305e+003;5.2235898438e+003;5.2126923828e+003;5.1680771484e+003;5.2120512695e+003;5.1778203125e+003;5.1864101563e+003;5.1900000000e+003;5.1855126953e+003;5.1688461914e+003;5.1878203125e+003;5.1529487305e+003;5.1902563477e+003;5.1980771484e+003;
3.0859375000e+000;5.0096152344e+003;5.1817949219e+003;5.1766665039e+003;5.1253847656e+003;5.1676923828e+003;5.1432050781e+003;5.1444873047e+003;5.1674360352e+003;5.1639741211e+003;5.1521796875e+003;5.1574360352e+003;5.1293588867e+003;5.1634614258e+003;5.1667949219e+003;
3.0937500000e+000;4.9074360352e+003;5.0789741211e+003;5.0762822266e+003;5.0279487305e+003;5.0650000000e+003;5.0505126953e+003;5.0492309570e+003;5.0680771484e+003;5.0634614258e+003;5.0500000000e+003;5.0585898438e+003;5.0334614258e+003;5.0647436523e+003;5.0692309570e+003;
3.1015625000e+000;4.7721796875e+003;4.9380771484e+003;4.9401284180e+003;4.8971796875e+003;4.9282050781e+003;4.9226923828e+003;4.9207690430e+003;4.9338461914e+003;4.9283334961e+003;4.9087177734e+003;4.9261538086e+003;4.9021796875e+003;4.9282050781e+003;4.9394873047e+003;
3.1093750000e+000;4.7124360352e+003;4.8734614258e+003;4.8808974609e+003;4.8389741211e+003;4.8657690430e+003;4.8639741211e+003;4.8620512695e+003;4.8755126953e+003;4.8693588867e+003;4.8448715820e+003;4.8653847656e+003;4.8425639648e+003;4.8660258789e+003;4.8807690430e+003;
3.1171875000e+000;4.6462822266e+003;4.7961538086e+003;4.8075639648e+003;4.7717949219e+003;4.7894873047e+003;4.7948715820e+003;4.7952563477e+003;4.8066665039e+003;4.7970512695e+003;4.7603847656e+003;4.7907690430e+003;4.7669228516e+003;4.7932050781e+003;4.8047436523e+003;
3.1250000000e+000;4.6688461914e+003;4.8201284180e+003;4.8274360352e+003;4.7955126953e+003;4.8134614258e+003;4.8188461914e+003;4.8182050781e+003;4.8330771484e+003;4.8221796875e+003;4.7858974609e+003;4.8164101563e+003;4.7902563477e+003;4.8175639648e+003;4.8280771484e+003;
3.1328125000e+000;4.6652563477e+003;4.8180771484e+003;4.8229487305e+003;4.7953847656e+003;4.8132050781e+003;4.8194873047e+003;4.8171796875e+003;4.8347436523e+003;4.8226923828e+003;4.7874360352e+003;4.8164101563e+003;4.7898715820e+003;4.8158974609e+003;4.8280771484e+003;
3.1406250000e+000;4.6335898438e+003;4.7855126953e+003;4.7903847656e+003;4.7665385742e+003;4.7837177734e+003;4.7906411133e+003;4.7883334961e+003;4.8048715820e+003;4.7920512695e+003;4.7571796875e+003;4.7847436523e+003;4.7593588867e+003;4.7838461914e+003;4.7991025391e+003;
3.1484375000e+000;4.6224360352e+003;4.7570512695e+003;4.7664101563e+003;4.7389741211e+003;4.7474360352e+003;4.7532050781e+003;4.7506411133e+003;4.7678203125e+003;4.7605126953e+003;4.7247436523e+003;4.7562822266e+003;4.7328203125e+003;4.7570512695e+003;4.7703847656e+003;
3.1562500000e+000;4.6684614258e+003;4.7873076172e+003;4.7988461914e+003;4.7726923828e+003;4.7717949219e+003;4.7758974609e+003;4.7717949219e+003;4.7800000000e+003;4.7723076172e+003;4.7426923828e+003;4.7788461914e+003;4.7535898438e+003;4.7791025391e+003;4.7938461914e+003;
3.1640625000e+000;4.6500000000e+003;4.7669228516e+003;4.7825639648e+003;4.7561538086e+003;4.7520512695e+003;4.7582050781e+003;4.7546152344e+003;4.7574360352e+003;4.7488461914e+003;4.7180771484e+003;4.7507690430e+003;4.7312822266e+003;4.7548715820e+003;4.7710258789e+003;
3.1718750000e+000;4.7006411133e+003;4.8208974609e+003;4.8338461914e+003;4.8062822266e+003;4.8062822266e+003;4.8084614258e+003;4.8073076172e+003;4.8093588867e+003;4.8016665039e+003;4.7711538086e+003;4.8035898438e+003;4.7812822266e+003;4.8082050781e+003;4.8208974609e+003;
3.1796875000e+000;4.8566665039e+003;4.9852563477e+003;4.9920512695e+003;4.9584614258e+003;4.9726923828e+003;4.9680771484e+003;4.9679487305e+003;4.9764101563e+003;4.9719228516e+003;4.9464101563e+003;4.9723076172e+003;4.9417949219e+003;4.9743588867e+003;4.9856411133e+003;
3.1875000000e+000;4.8603847656e+003;4.9894873047e+003;4.9958974609e+003;4.9603847656e+003;4.9779487305e+003;4.9732050781e+003;4.9734614258e+003;4.9825639648e+003;4.9776923828e+003;4.9515385742e+003;4.9767949219e+003;4.9456411133e+003;4.9782050781e+003;4.9896152344e+003;
3.1953125000e+000;4.8079487305e+003;4.9380771484e+003;4.9475639648e+003;4.9085898438e+003;4.9280771484e+003;4.9237177734e+003;4.9224360352e+003;4.9378203125e+003;4.9337177734e+003;4.9026923828e+003;4.9274360352e+003;4.8969228516e+003;4.9260258789e+003;4.9348715820e+003;
3.2031250000e+000;4.7346152344e+003;4.8630771484e+003;4.8774360352e+003;4.8397436523e+003;4.8538461914e+003;4.8556411133e+003;4.8503847656e+003;4.8674360352e+003;4.8653847656e+003;4.8289741211e+003;4.8550000000e+003;4.8270512695e+003;4.8510258789e+003;4.8610258789e+003;
3.2109375000e+000;4.6819228516e+003;4.7997436523e+003;4.8167949219e+003;4.7880771484e+003;4.7948715820e+003;4.8039741211e+003;4.7997436523e+003;4.7950000000e+003;4.7929487305e+003;4.7491025391e+003;4.7875639648e+003;4.7632050781e+003;4.7832050781e+003;4.8001284180e+003;
3.2187500000e+000;4.8083334961e+003;4.9275639648e+003;4.9393588867e+003;4.9071796875e+003;4.9244873047e+003;4.9221796875e+003;4.9242309570e+003;4.9158974609e+003;4.9106411133e+003;4.8741025391e+003;4.9112822266e+003;4.8843588867e+003;4.9088461914e+003;4.9243588867e+003;
3.2265625000e+000;5.0547436523e+003;5.1828203125e+003;5.1896152344e+003;5.1415385742e+003;5.1794873047e+003;5.1588461914e+003;5.1673076172e+003;5.1653847656e+003;5.1567949219e+003;5.1348715820e+003;5.1612822266e+003;5.1319228516e+003;5.1615385742e+003;5.1714101563e+003;
3.2343750000e+000;5.1142309570e+003;5.2465385742e+003;5.2537177734e+003;5.1976923828e+003;5.2411538086e+003;5.2174360352e+003;5.2243588867e+003;5.2279487305e+003;5.2212822266e+003;5.2010258789e+003;5.2244873047e+003;5.1946152344e+003;5.2251284180e+003;5.2321796875e+003;
3.2421875000e+000;5.0856411133e+003;5.2279487305e+003;5.2373076172e+003;5.1733334961e+003;5.2146152344e+003;5.1921796875e+003;5.1943588867e+003;5.2167949219e+003;5.2112822266e+003;5.1879487305e+003;5.2144873047e+003;5.1841025391e+003;5.2108974609e+003;5.2167949219e+003;
3.2500000000e+000;5.0347436523e+003;5.1779487305e+003;5.1885898438e+003;5.1283334961e+003;5.1647436523e+003;5.1464101563e+003;5.1492309570e+003;5.1734614258e+003;5.1632050781e+003;5.1380771484e+003;5.1679487305e+003;5.1391025391e+003;5.1628203125e+003;5.1693588867e+003;
3.2578125000e+000;5.0078203125e+003;5.1519228516e+003;5.1619228516e+003;5.1057690430e+003;5.1408974609e+003;5.1247436523e+003;5.1289741211e+003;5.1517949219e+003;5.1374360352e+003;5.1100000000e+003;5.1434614258e+003;5.1151284180e+003;5.1376923828e+003;5.1434614258e+003;
3.2656250000e+000;5.0202563477e+003;5.1666665039e+003;5.1741025391e+003;5.1197436523e+003;5.1584614258e+003;5.1408974609e+003;5.1466665039e+003;5.1684614258e+003;5.1532050781e+003;5.1235898438e+003;5.1582050781e+003;5.1292309570e+003;5.1526923828e+003;5.1567949219e+003;
3.2734375000e+000;4.9473076172e+003;5.1052563477e+003;5.1187177734e+003;5.0641025391e+003;5.1029487305e+003;5.0944873047e+003;5.0976923828e+003;5.1210258789e+003;5.1078203125e+003;5.0711538086e+003;5.0962822266e+003;5.0702563477e+003;5.0955126953e+003;5.1010258789e+003;
3.2812500000e+000;4.9456411133e+003;5.1034614258e+003;5.1162822266e+003;5.0629487305e+003;5.1014101563e+003;5.0925639648e+003;5.0957690430e+003;5.1156411133e+003;5.1001284180e+003;5.0642309570e+003;5.0910258789e+003;5.0637177734e+003;5.0925639648e+003;5.0976923828e+003;
3.2890625000e+000;4.9684614258e+003;5.1176923828e+003;5.1371796875e+003;5.0784614258e+003;5.1207690430e+003;5.1103847656e+003;5.1089741211e+003;5.1291025391e+003;5.1193588867e+003;5.0887177734e+003;5.1147436523e+003;5.0857690430e+003;5.1107690430e+003;5.1187177734e+003;
3.2968750000e+000;4.8888461914e+003;5.0389741211e+003;5.0562822266e+003;5.0048715820e+003;5.0458974609e+003;5.0433334961e+003;5.0483334961e+003;5.0534614258e+003;5.0453847656e+003;5.0073076172e+003;5.0358974609e+003;5.0025639648e+003;5.0360258789e+003;5.0371796875e+003;
3.3046875000e+000;4.9035898438e+003;5.0547436523e+003;5.0688461914e+003;5.0185898438e+003;5.0611538086e+003;5.0565385742e+003;5.0614101563e+003;5.0706411133e+003;5.0602563477e+003;5.0214101563e+003;5.0503847656e+003;5.0162822266e+003;5.0533334961e+003;5.0533334961e+003;
3.3125000000e+000;4.8601284180e+003;5.0065385742e+003;5.0211538086e+003;4.9706411133e+003;5.0123076172e+003;5.0108974609e+003;5.0110258789e+003;5.0255126953e+003;5.0121796875e+003;4.9705126953e+003;4.9996152344e+003;4.9701284180e+003;5.0032050781e+003;5.0133334961e+003;
3.3203125000e+000;4.8201284180e+003;4.9678203125e+003;4.9847436523e+003;4.9378203125e+003;4.9750000000e+003;4.9767949219e+003;4.9764101563e+003;4.9864101563e+003;4.9714101563e+003;4.9307690430e+003;4.9603847656e+003;4.9289741211e+003;4.9606411133e+003;4.9708974609e+003;
3.3281250000e+000;4.8074360352e+003;4.9524360352e+003;4.9715385742e+003;4.9256411133e+003;4.9600000000e+003;4.9639741211e+003;4.9603847656e+003;4.9712822266e+003;4.9519228516e+003;4.9112822266e+003;4.9438461914e+003;4.9128203125e+003;4.9444873047e+003;4.9535898438e+003;
3.3359375000e+000;4.8521796875e+003;4.9938461914e+003;5.0071796875e+003;4.9656411133e+003;4.9952563477e+003;4.9971796875e+003;4.9973076172e+003;5.0137177734e+003;4.9938461914e+003;4.9542309570e+003;4.9866665039e+003;4.9529487305e+003;4.9830771484e+003;4.9919228516e+003;
3.3437500000e+000;4.8205126953e+003;4.9624360352e+003;4.9764101563e+003;4.9387177734e+003;4.9641025391e+003;4.9688461914e+003;4.9717949219e+003;4.9861538086e+003;4.9684614258e+003;4.9276923828e+003;4.9603847656e+003;4.9258974609e+003;4.9528203125e+003;4.9635898438e+003;
3.3515625000e+000;4.7643588867e+003;4.9041025391e+003;4.9212822266e+003;4.8884614258e+003;4.9116665039e+003;4.9184614258e+003;4.9196152344e+003;4.9264101563e+003;4.9103847656e+003;4.8644873047e+003;4.9050000000e+003;4.8670512695e+003;4.8941025391e+003;4.9074360352e+003;
3.3593750000e+000;4.7830771484e+003;4.9208974609e+003;4.9366665039e+003;4.9035898438e+003;4.9296152344e+003;4.9332050781e+003;4.9305126953e+003;4.9396152344e+003;4.9239741211e+003;4.8767949219e+003;4.9189741211e+003;4.8791025391e+003;4.9087177734e+003;4.9226923828e+003;
3.3671875000e+000;4.7688461914e+003;4.8996152344e+003;4.9051284180e+003;4.8805126953e+003;4.9011538086e+003;4.9069228516e+003;4.9015385742e+003;4.9151284180e+003;4.9039741211e+003;4.8548715820e+003;4.8908974609e+003;4.8526923828e+003;4.8825639648e+003;4.8976923828e+003;
3.3750000000e+000;4.7708974609e+003;4.9005126953e+003;4.9035898438e+003;4.8819228516e+003;4.9010258789e+003;4.9061538086e+003;4.9048715820e+003;4.9128203125e+003;4.9035898438e+003;4.8552563477e+003;4.8914101563e+003;4.8524360352e+003;4.8841025391e+003;4.8967949219e+003;
3.3828125000e+000;4.8085898438e+003;4.9387177734e+003;4.9416665039e+003;4.9185898438e+003;4.9392309570e+003;4.9406411133e+003;4.9420512695e+003;4.9492309570e+003;4.9406411133e+003;4.8950000000e+003;4.9310258789e+003;4.8897436523e+003;4.9246152344e+003;4.9344873047e+003;
3.3906250000e+000;4.8514101563e+003;4.9833334961e+003;4.9889741211e+003;4.9610258789e+003;4.9839741211e+003;4.9825639648e+003;4.9835898438e+003;4.9960258789e+003;4.9864101563e+003;4.9442309570e+003;4.9788461914e+003;4.9355126953e+003;4.9723076172e+003;4.9810258789e+003;
3.3984375000e+000;4.8988461914e+003;5.0328203125e+003;5.0378203125e+003;5.0061538086e+003;5.0326923828e+003;5.0375639648e+003;5.0315385742e+003;5.0484614258e+003;5.0360258789e+003;4.9923076172e+003;5.0251284180e+003;4.9756411133e+003;5.0133334961e+003;5.0271796875e+003;
3.4062500000e+000;4.9074360352e+003;5.0479487305e+003;5.0443588867e+003;5.0167949219e+003;5.0492309570e+003;5.0506411133e+003;5.0466665039e+003;5.0660258789e+003;5.0458974609e+003;5.0043588867e+003;5.0374360352e+003;4.9856411133e+003;5.0364101563e+003;5.0383334961e+003;
3.4140625000e+000;4.9160258789e+003;5.0579487305e+003;5.0533334961e+003;5.0246152344e+003;5.0600000000e+003;5.0612822266e+003;5.0582050781e+003;5.0732050781e+003;5.0512822266e+003;5.0111538086e+003;5.0465385742e+003;4.9944873047e+003;5.0453847656e+003;5.0464101563e+003;
3.4218750000e+000;4.9410258789e+003;5.0824360352e+003;5.0803847656e+003;5.0461538086e+003;5.0780771484e+003;5.0841025391e+003;5.0802563477e+003;5.0969228516e+003;5.0706411133e+003;5.0333334961e+003;5.0712822266e+003;5.0200000000e+003;5.0655126953e+003;5.0705126953e+003;
3.4296875000e+000;4.9400000000e+003;5.0700000000e+003;5.0778203125e+003;5.0351284180e+003;5.0635898438e+003;5.0656411133e+003;5.0697436523e+003;5.0792309570e+003;5.0537177734e+003;5.0176923828e+003;5.0626923828e+003;5.0191025391e+003;5.0564101563e+003;5.0714101563e+003;
