Time (s),AF3,F7,F3,FC5,T7,P7,O1,O2,P8,T8,FC6,F4,F8,AF4,Sampling Rate
0.0000000000e+000,3.9814101563e+003,3.5339743652e+003,3.7194870605e+003,3.7517949219e+003,3.5450000000e+003,3.7271794434e+003,3.7348718262e+003,3.7235898438e+003,3.6419230957e+003,3.4112819824e+003,3.6103845215e+003,3.5662819824e+003,3.6523076172e+003,3.7402563477e+003,128
7.8125000000e-003,4.0634614258e+003,3.6146154785e+003,3.7862819824e+003,3.7870512695e+003,3.6438461914e+003,3.7588461914e+003,3.7764101563e+003,3.7950000000e+003,3.7053845215e+003,3.4962819824e+003,3.6847436523e+003,3.6521794434e+003,3.7330769043e+003,3.8156411133e+003,
1.5625000000e-002,4.0338461914e+003,3.5798718262e+003,3.7558974609e+003,3.7574357910e+003,3.6028205566e+003,3.7302563477e+003,3.7485898438e+003,3.7676923828e+003,3.6806411133e+003,3.4678205566e+003,3.6573076172e+003,3.6244870605e+003,3.6978205566e+003,3.7851281738e+003,
2.3437500000e-002,4.0691025391e+003,3.6044870605e+003,3.7894870605e+003,3.7952563477e+003,3.6221794434e+003,3.7735898438e+003,3.7897436523e+003,3.8126923828e+003,3.7384614258e+003,3.5153845215e+003,3.6960256348e+003,3.6493588867e+003,3.7265385742e+003,3.8110256348e+003,
3.1250000000e-002,4.0433332520e+003,3.5905129395e+003,3.7616667480e+003,3.7896154785e+003,3.6243588867e+003,3.7765385742e+003,3.7846154785e+003,3.8098718262e+003,3.7352563477e+003,3.4992307129e+003,3.6688461914e+003,3.6205129395e+003,3.7070512695e+003,3.7794870605e+003,
3.9062500000e-002,4.1171796875e+003,3.6680769043e+003,3.8329487305e+003,3.8593588867e+003,3.7055129395e+003,3.8553845215e+003,3.8625642090e+003,3.8800000000e+003,3.8029487305e+003,3.5712819824e+003,3.7339743652e+003,3.6907692871e+003,3.7753845215e+003,3.8474357910e+003,
4.6875000000e-002,4.5546152344e+003,4.1279487305e+003,4.2621796875e+003,4.2814101563e+003,4.1603847656e+003,4.2955126953e+003,4.2939741211e+003,4.3041025391e+003,4.2235898438e+003,4.0248718262e+003,4.1721796875e+003,4.1151284180e+003,4.2112822266e+003,4.2678203125e+003,
5.4687500000e-002,4.6452563477e+003,4.2307690430e+003,4.3543588867e+003,4.3829487305e+003,4.2539741211e+003,4.3896152344e+003,4.3846152344e+003,4.3996152344e+003,4.3183334961e+003,4.1289741211e+003,4.2774360352e+003,4.2088461914e+003,4.3079487305e+003,4.3594873047e+003,
6.2500000000e-002,4.5600000000e+003,4.1634614258e+003,4.2810258789e+003,4.3239741211e+003,4.1796152344e+003,4.3198715820e+003,4.3093588867e+003,4.3375639648e+003,4.2550000000e+003,4.0734614258e+003,4.2179487305e+003,4.1430771484e+003,4.2360258789e+003,4.2874360352e+003,
7.0312500000e-002,4.3858974609e+003,3.9894870605e+003,4.1164101563e+003,4.1552563477e+003,4.0138461914e+003,4.1574360352e+003,4.1456411133e+003,4.1755126953e+003,4.0932050781e+003,3.9070512695e+003,4.0450000000e+003,3.9798718262e+003,4.0653845215e+003,4.1210258789e+003,
7.8125000000e-002,4.0057692871e+003,3.5903845215e+003,3.7457692871e+003,3.7825642090e+003,3.6348718262e+003,3.7876923828e+003,3.7850000000e+003,3.7869230957e+003,3.7078205566e+003,3.4974357910e+003,3.6439743652e+003,3.5970512695e+003,3.6784614258e+003,3.7424357910e+003,
8.5937500000e-002,4.0588461914e+003,3.6414101563e+003,3.7921794434e+003,3.8393588867e+003,3.6775642090e+003,3.8287180176e+003,3.8305129395e+003,3.8252563477e+003,3.7470512695e+003,3.5385898438e+003,3.6950000000e+003,3.6412819824e+003,3.7289743652e+003,3.7906411133e+003,
9.3750000000e-002,4.2094873047e+003,3.7964101563e+003,3.9341025391e+003,3.9902563477e+003,3.8128205566e+003,3.9512819824e+003,3.9564101563e+003,3.9537180176e+003,3.8782050781e+003,3.6867949219e+003,3.8498718262e+003,3.7903845215e+003,3.8803845215e+003,3.9405129395e+003,
1.0156250000e-001,4.2167949219e+003,3.8060256348e+003,3.9435898438e+003,3.9943588867e+003,3.8205129395e+003,3.9482050781e+003,3.9547436523e+003,3.9558974609e+003,3.8815385742e+003,3.6982050781e+003,3.8588461914e+003,3.8048718262e+003,3.8898718262e+003,3.9537180176e+003,
1.0937500000e-001,4.1866665039e+003,3.7761538086e+003,3.9175642090e+003,3.9593588867e+003,3.7932050781e+003,3.9100000000e+003,3.9192307129e+003,3.9223076172e+003,3.8480769043e+003,3.6701281738e+003,3.8278205566e+003,3.7811538086e+003,3.8616667480e+003,3.9293588867e+003,
1.1718750000e-001,4.1574360352e+003,3.7452563477e+003,3.8914101563e+003,3.9234614258e+003,3.7648718262e+003,3.8739743652e+003,3.8874357910e+003,3.8905129395e+003,3.8143588867e+003,3.6394870605e+003,3.7956411133e+003,3.7546154785e+003,3.8328205566e+003,3.9028205566e+003,
1.2500000000e-001,4.1966665039e+003,3.7747436523e+003,3.9243588867e+003,3.9439743652e+003,3.7930769043e+003,3.9073076172e+003,3.9197436523e+003,3.9434614258e+003,3.8687180176e+003,3.6892307129e+003,3.8466667480e+003,3.7885898438e+003,3.8687180176e+003,3.9323076172e+003,
1.3281250000e-001,4.1953847656e+003,3.7793588867e+003,3.9214101563e+003,3.9528205566e+003,3.7921794434e+003,3.9116667480e+003,3.9234614258e+003,3.9496154785e+003,3.8803845215e+003,3.6984614258e+003,3.8539743652e+003,3.7914101563e+003,3.8737180176e+003,3.9342307129e+003,
1.4062500000e-001,4.2433334961e+003,3.8373076172e+003,3.9685898438e+003,4.0198718262e+003,3.8447436523e+003,3.9739743652e+003,3.9873076172e+003,4.0125642090e+003,3.9457692871e+003,3.7637180176e+003,3.9096154785e+003,3.8478205566e+003,3.9333332520e+003,3.9892307129e+003,
1.4843750000e-001,4.1515385742e+003,3.7503845215e+003,3.8743588867e+003,3.9143588867e+003,3.7980769043e+003,3.9156411133e+003,3.9167949219e+003,3.9441025391e+003,3.8719230957e+003,3.6819230957e+003,3.8052563477e+003,3.7469230957e+003,3.8415385742e+003,3.8875642090e+003,
1.5625000000e-001,4.1174360352e+003,3.7197436523e+003,3.8416667480e+003,3.8798718262e+003,3.7682050781e+003,3.8842307129e+003,3.8871794434e+003,3.9121794434e+003,3.8408974609e+003,3.6510256348e+003,3.7705129395e+003,3.7144870605e+003,3.8096154785e+003,3.8569230957e+003,
1.6406250000e-001,4.0841025391e+003,3.6870512695e+003,3.8111538086e+003,3.8593588867e+003,3.7282050781e+003,3.8561538086e+003,3.8606411133e+003,3.8792307129e+003,3.8106411133e+003,3.6250000000e+003,3.7392307129e+003,3.6857692871e+003,3.7801281738e+003,3.8335898438e+003,
1.7187500000e-001,4.0696154785e+003,3.6702563477e+003,3.7953845215e+003,3.8530769043e+003,3.7075642090e+003,3.8471794434e+003,3.8485898438e+003,3.8635898438e+003,3.7952563477e+003,3.6107692871e+003,3.7264101563e+003,3.6714101563e+003,3.7653845215e+003,3.8197436523e+003,
1.7968750000e-001,4.0955129395e+003,3.6978205566e+003,3.8171794434e+003,3.8743588867e+003,3.7285898438e+003,3.8760256348e+003,3.8756411133e+003,3.8801281738e+003,3.8096154785e+003,3.6224357910e+003,3.7529487305e+003,3.6942307129e+003,3.7865385742e+003,3.8365385742e+003,
1.8750000000e-001,4.1411538086e+003,3.7442307129e+003,3.8643588867e+003,3.9101281738e+003,3.7796154785e+003,3.9143588867e+003,3.9175642090e+003,3.9200000000e+003,3.8503845215e+003,3.6658974609e+003,3.7960256348e+003,3.7374357910e+003,3.8298718262e+003,3.8789743652e+003,
1.9531250000e-001,4.1830771484e+003,3.7850000000e+003,3.9083332520e+003,3.9435898438e+003,3.8269230957e+003,3.9484614258e+003,3.9539743652e+003,3.9555129395e+003,3.8869230957e+003,3.7078205566e+003,3.8355129395e+003,3.7773076172e+003,3.8692307129e+003,3.9189743652e+003,
2.0312500000e-001,4.2579487305e+003,3.8646154785e+003,3.9884614258e+003,4.0197436523e+003,3.8765385742e+003,3.9938461914e+003,3.9924357910e+003,3.9914101563e+003,3.9184614258e+003,3.7685898438e+003,3.9105129395e+003,3.8648718262e+003,3.9470512695e+003,3.9923076172e+003,
2.1093750000e-001,4.2548715820e+003,3.8648718262e+003,3.9896154785e+003,4.0233332520e+003,3.8803845215e+003,3.9871794434e+003,3.9870512695e+003,3.9882050781e+003,3.9114101563e+003,3.7687180176e+003,3.9124357910e+003,3.8688461914e+003,3.9434614258e+003,3.9920512695e+003,
2.1875000000e-001,4.2305126953e+003,3.8443588867e+003,3.9697436523e+003,4.0128205566e+003,3.8734614258e+003,3.9591025391e+003,3.9638461914e+003,3.9684614258e+003,3.8816667480e+003,3.7492307129e+003,3.8928205566e+003,3.8514101563e+003,3.9156411133e+003,3.9738461914e+003,
2.2656250000e-001,4.2362822266e+003,3.8510256348e+003,3.9720512695e+003,4.0212819824e+003,3.8791025391e+003,3.9621794434e+003,3.9693588867e+003,3.9771794434e+003,3.8889743652e+003,3.7569230957e+003,3.8979487305e+003,3.8546154785e+003,3.9238461914e+003,3.9803845215e+003,
2.3437500000e-001,4.2726923828e+003,3.8917949219e+003,4.0065385742e+003,4.0376923828e+003,3.9016667480e+003,3.9975642090e+003,4.0075642090e+003,4.0312819824e+003,3.9606411133e+003,3.8162819824e+003,3.9438461914e+003,3.8893588867e+003,3.9757692871e+003,4.0152563477e+003,
2.4218750000e-001,4.1569228516e+003,3.7853845215e+003,3.8942307129e+003,3.9251281738e+003,3.8005129395e+003,3.9123076172e+003,3.9147436523e+003,3.9367949219e+003,3.8721794434e+003,3.7178205566e+003,3.8329487305e+003,3.7724357910e+003,3.8638461914e+003,3.9023076172e+003,
2.5000000000e-001,4.1758974609e+003,3.8050000000e+003,3.9070512695e+003,3.9578205566e+003,3.8192307129e+003,3.9353845215e+003,3.9387180176e+003,3.9567949219e+003,3.8923076172e+003,3.7344870605e+003,3.8479487305e+003,3.7900000000e+003,3.8834614258e+003,3.9214101563e+003,
2.5781250000e-001,4.2423076172e+003,3.8793588867e+003,3.9707692871e+003,4.0360256348e+003,3.8926923828e+003,4.0076923828e+003,4.0106411133e+003,4.0287180176e+003,3.9644870605e+003,3.8052563477e+003,3.9126923828e+003,3.8597436523e+003,3.9497436523e+003,3.9858974609e+003,
2.6562500000e-001,4.2328203125e+003,3.8762819824e+003,3.9658974609e+003,4.0235898438e+003,3.8891025391e+003,4.0038461914e+003,4.0037180176e+003,4.0261538086e+003,3.9614101563e+003,3.8038461914e+003,3.9069230957e+003,3.8546154785e+003,3.9416667480e+003,3.9769230957e+003,
2.7343750000e-001,3.9441025391e+003,3.5769230957e+003,3.6896154785e+003,3.7383332520e+003,3.5946154785e+003,3.7270512695e+003,3.7274357910e+003,3.7471794434e+003,3.6843588867e+003,3.5189743652e+003,3.6223076172e+003,3.5702563477e+003,3.6483332520e+003,3.6914101563e+003,
2.8125000000e-001,3.8570512695e+003,3.4817949219e+003,3.5975642090e+003,3.6569230957e+003,3.5044870605e+003,3.6357692871e+003,3.6410256348e+003,3.6533332520e+003,3.5939743652e+003,3.4224357910e+003,3.5315385742e+003,3.4791025391e+003,3.5561538086e+003,3.6015385742e+003,
2.8906250000e-001,3.8246154785e+003,3.4453845215e+003,3.5574357910e+003,3.6273076172e+003,3.4733332520e+003,3.5965385742e+003,3.6064101563e+003,3.6119230957e+003,3.5558974609e+003,3.3808974609e+003,3.4947436523e+003,3.4420512695e+003,3.5203845215e+003,3.5653845215e+003,
2.9687500000e-001,3.8382050781e+003,3.4575642090e+003,3.5647436523e+003,3.6400000000e+003,3.4896154785e+003,3.6029487305e+003,3.6156411133e+003,3.6169230957e+003,3.5625642090e+003,3.3878205566e+003,3.5032050781e+003,3.4523076172e+003,3.5328205566e+003,3.5761538086e+003,
3.0468750000e-001,3.7382050781e+003,3.3273076172e+003,3.4696154785e+003,3.5435898438e+003,3.3608974609e+003,3.4797436523e+003,3.4929487305e+003,3.4900000000e+003,3.4301281738e+003,3.2653845215e+003,3.3791025391e+003,3.3500000000e+003,3.4184614258e+003,3.4761538086e+003,
3.1250000000e-001,3.6782050781e+003,3.2564101563e+003,3.3958974609e+003,3.4698718262e+003,3.2852563477e+003,3.4044870605e+003,3.4274357910e+003,3.4117949219e+003,3.3514101563e+003,3.1848718262e+003,3.3073076172e+003,3.2841025391e+003,3.3367949219e+003,3.4023076172e+003,
3.2031250000e-001,3.7133332520e+003,3.2919230957e+003,3.4275642090e+003,3.5029487305e+003,3.3091025391e+003,3.4346154785e+003,3.4589743652e+003,3.4452563477e+003,3.3864101563e+003,3.2205129395e+003,3.3405129395e+003,3.3206411133e+003,3.3687180176e+003,3.4347436523e+003,
3.2812500000e-001,3.6112819824e+003,3.1788461914e+003,3.3242307129e+003,3.4215385742e+003,3.1769230957e+003,3.3087180176e+003,3.3411538086e+003,3.3358974609e+003,3.2758974609e+003,3.1174357910e+003,3.2371794434e+003,3.2208974609e+003,3.2616667480e+003,3.3341025391e+003,
3.3593750000e-001,3.5989743652e+003,3.1610256348e+003,3.3062819824e+003,3.4058974609e+003,3.1680769043e+003,3.2864101563e+003,3.3217949219e+003,3.3146154785e+003,3.2529487305e+003,3.0953845215e+003,3.2187180176e+003,3.2010256348e+003,3.2460256348e+003,3.3166667480e+003,
3.4375000000e-001,3.7755129395e+003,3.3387180176e+003,3.4700000000e+003,3.5589743652e+003,3.3610256348e+003,3.4551281738e+003,3.4856411133e+003,3.4879487305e+003,3.4296154785e+003,3.2715385742e+003,3.3894870605e+003,3.3644870605e+003,3.4253845215e+003,3.4815385742e+003,
3.5156250000e-001,3.8619230957e+003,3.4293588867e+003,3.5557692871e+003,3.6429487305e+003,3.4515385742e+003,3.5478205566e+003,3.5724357910e+003,3.5870512695e+003,3.5314101563e+003,3.3733332520e+003,3.4819230957e+003,3.4534614258e+003,3.5185898438e+003,3.5688461914e+003,
3.5937500000e-001,3.7241025391e+003,3.2950000000e+003,3.4224357910e+003,3.5500000000e+003,3.3169230957e+003,3.4406411133e+003,3.4605129395e+003,3.4800000000e+003,3.4243588867e+003,3.2610256348e+003,3.3594870605e+003,3.3297436523e+003,3.3866667480e+003,3.4446154785e+003,
3.6718750000e-001,3.6885898438e+003,3.2614101563e+003,3.3841025391e+003,3.5215385742e+003,3.2884614258e+003,3.4094870605e+003,3.4305129395e+003,3.4408974609e+003,3.3848718262e+003,3.2198718262e+003,3.3206411133e+003,3.2896154785e+003,3.3471794434e+003,3.4069230957e+003,
3.7500000000e-001,3.7844870605e+003,3.3720512695e+003,3.4785898438e+003,3.5943588867e+003,3.3979487305e+003,3.5075642090e+003,3.5224357910e+003,3.5341025391e+003,3.4779487305e+003,3.3189743652e+003,3.4074357910e+003,3.3765385742e+003,3.4465385742e+003,3.4957692871e+003,
3.8281250000e-001,3.7646154785e+003,3.3524357910e+003,3.4601281738e+003,3.5680769043e+003,3.3761538086e+003,3.4891025391e+003,3.5028205566e+003,3.5169230957e+003,3.4620512695e+003,3.3041025391e+003,3.3889743652e+003,3.3575642090e+003,3.4307692871e+003,3.4767949219e+003,
3.9062500000e-001,3.6824357910e+003,3.2624357910e+003,3.3761538086e+003,3.4825642090e+003,3.2901281738e+003,3.4107692871e+003,3.4250000000e+003,3.4288461914e+003,3.3812819824e+003,3.2196154785e+003,3.3130769043e+003,3.2730769043e+003,3.3456411133e+003,3.3902563477e+003,
3.9843750000e-001,3.6817949219e+003,3.2591025391e+003,3.3746154785e+003,3.4820512695e+003,3.2883332520e+003,3.4096154785e+003,3.4234614258e+003,3.4203845215e+003,3.3767949219e+003,3.2133332520e+003,3.3125642090e+003,3.2705129395e+003,3.3394870605e+003,3.3858974609e+003,
4.0625000000e-001,3.7096154785e+003,3.2871794434e+003,3.4037180176e+003,3.5100000000e+003,3.3142307129e+003,3.4330769043e+003,3.4466667480e+003,3.4406411133e+003,3.3987180176e+003,3.2365385742e+003,3.3360256348e+003,3.2971794434e+003,3.3632050781e+003,3.4119230957e+003,
4.1406250000e-001,3.7367949219e+003,3.3166667480e+003,3.4332050781e+003,3.5367949219e+003,3.3391025391e+003,3.4524357910e+003,3.4662819824e+003,3.4617949219e+003,3.4189743652e+003,3.2619230957e+003,3.3551281738e+003,3.3235898438e+003,3.3889743652e+003,3.4392307129e+003,
4.2187500000e-001,3.6505129395e+003,3.2270512695e+003,3.3470512695e+003,3.4453845215e+003,3.2516667480e+003,3.3389743652e+003,3.3646154785e+003,3.3565385742e+003,3.3061538086e+003,3.1702563477e+003,3.2688461914e+003,3.2455129395e+003,3.3030769043e+003,3.3530769043e+003,
4.2968750000e-001,3.6907692871e+003,3.2602563477e+003,3.3842307129e+003,3.5274357910e+003,3.2644870605e+003,3.3602563477e+003,3.3960256348e+003,3.3932050781e+003,3.3275642090e+003,3.1973076172e+003,3.3105129395e+003,3.2852563477e+003,3.3369230957e+003,3.3920512695e+003,
4.3750000000e-001,3.6732050781e+003,3.2458974609e+003,3.3657692871e+003,3.5162819824e+003,3.2506411133e+003,3.3451281738e+003,3.3825642090e+003,3.3800000000e+003,3.3129487305e+003,3.1846154785e+003,3.2850000000e+003,3.2700000000e+003,3.3214101563e+003,3.3734614258e+003,
4.4531250000e-001,3.6312819824e+003,3.2064101563e+003,3.3251281738e+003,3.4671794434e+003,3.2189743652e+003,3.3174357910e+003,3.3546154785e+003,3.3491025391e+003,3.2858974609e+003,3.1538461914e+003,3.2414101563e+003,3.2350000000e+003,3.2841025391e+003,3.3315385742e+003,
4.5312500000e-001,3.6253845215e+003,3.2007692871e+003,3.3207692871e+003,3.4571794434e+003,3.2126923828e+003,3.3192307129e+003,3.3539743652e+003,3.3502563477e+003,3.2896154785e+003,3.1523076172e+003,3.2424357910e+003,3.2315385742e+003,3.2796154785e+003,3.3282050781e+003,
4.6093750000e-001,3.6441025391e+003,3.2257692871e+003,3.3405129395e+003,3.4819230957e+003,3.2311538086e+003,3.3448718262e+003,3.3719230957e+003,3.3779487305e+003,3.3260256348e+003,3.1843588867e+003,3.2785898438e+003,3.2480769043e+003,3.3010256348e+003,3.3567949219e+003,
4.6875000000e-001,3.6317949219e+003,3.2142307129e+003,3.3262819824e+003,3.4571794434e+003,3.2441025391e+003,3.3348718262e+003,3.3567949219e+003,3.3596154785e+003,3.3114101563e+003,3.1775642090e+003,3.2515385742e+003,3.2266667480e+003,3.2850000000e+003,3.3343588867e+003,
4.7656250000e-001,3.6089743652e+003,3.1923076172e+003,3.3041025391e+003,3.4314101563e+003,3.2201281738e+003,3.3184614258e+003,3.3396154785e+003,3.3393588867e+003,3.2915385742e+003,3.1537180176e+003,3.2238461914e+003,3.2065385742e+003,3.2594870605e+003,3.3111538086e+003,
4.8437500000e-001,3.5852563477e+003,3.1792307129e+003,3.2773076172e+003,3.4106411133e+003,3.1970512695e+003,3.3085898438e+003,3.3256411133e+003,3.3224357910e+003,3.2848718262e+003,3.1434614258e+003,3.2096154785e+003,3.1857692871e+003,3.2483332520e+003,3.2923076172e+003,
4.9218750000e-001,3.5880769043e+003,3.1821794434e+003,3.2801281738e+003,3.4137180176e+003,3.2080769043e+003,3.3084614258e+003,3.3248718262e+003,3.3239743652e+003,3.2876923828e+003,3.1493588867e+003,3.2191025391e+003,3.1865385742e+003,3.2542307129e+003,3.2950000000e+003,
5.0000000000e-001,3.5562819824e+003,3.1442307129e+003,3.2525642090e+003,3.3700000000e+003,3.1747436523e+003,3.2637180176e+003,3.2806411133e+003,3.2746154785e+003,3.2408974609e+003,3.1056411133e+003,3.1802563477e+003,3.1539743652e+003,3.2115385742e+003,3.2588461914e+003,
5.0781250000e-001,3.5492307129e+003,3.1385898438e+003,3.2448718262e+003,3.3580769043e+003,3.1607692871e+003,3.2562819824e+003,3.2728205566e+003,3.2610256348e+003,3.2312819824e+003,3.0958974609e+003,3.1648718262e+003,3.1473076172e+003,3.2048718262e+003,3.2508974609e+003,
5.1562500000e-001,3.5417949219e+003,3.1328205566e+003,3.2366667480e+003,3.3480769043e+003,3.1489743652e+003,3.2464101563e+003,3.2651281738e+003,3.2433332520e+003,3.2160256348e+003,3.0828205566e+003,3.1484614258e+003,3.1405129395e+003,3.2025642090e+003,3.2433332520e+003,
5.2343750000e-001,3.5276923828e+003,3.1169230957e+003,3.2232050781e+003,3.3360256348e+003,3.1361538086e+003,3.2270512695e+003,3.2488461914e+003,3.2248718262e+003,3.1933332520e+003,3.0632050781e+003,3.1353845215e+003,3.1269230957e+003,3.1878205566e+003,3.2293588867e+003,
5.3125000000e-001,3.5033332520e+003,3.0907692871e+003,3.1989743652e+003,3.3148718262e+003,3.1116667480e+003,3.1955129395e+003,3.2210256348e+003,3.1969230957e+003,3.1588461914e+003,3.0332050781e+003,3.1135898438e+003,3.1041025391e+003,3.1606411133e+003,3.2050000000e+003,
5.3906250000e-001,3.4733332520e+003,3.0601281738e+003,3.1680769043e+003,3.2876923828e+003,3.0780769043e+003,3.1580769043e+003,3.1871794434e+003,3.1646154785e+003,3.1197436523e+003,2.9988461914e+003,3.0850000000e+003,3.0769230957e+003,3.1274357910e+003,3.1746154785e+003,
5.4687500000e-001,3.4274357910e+003,3.0082050781e+003,3.1233332520e+003,3.2326923828e+003,3.0115385742e+003,3.0950000000e+003,3.1369230957e+003,3.1162819824e+003,3.0579487305e+003,2.9382050781e+003,3.0232050781e+003,3.0392307129e+003,3.0725642090e+003,3.1261538086e+003,
5.5468750000e-001,3.3987180176e+003,2.9807692871e+003,3.0802563477e+003,3.2011538086e+003,2.9857692871e+003,3.0839743652e+003,3.1223076172e+003,3.1147436523e+003,3.0674357910e+003,2.9393588867e+003,3.0174357910e+003,3.0164101563e+003,3.0530769043e+003,3.0958974609e+003,
5.6250000000e-001,3.3956411133e+003,2.9801281738e+003,3.0746154785e+003,3.1960256348e+003,2.9764101563e+003,3.0869230957e+003,3.1212819824e+003,3.1198718262e+003,3.0750000000e+003,2.9416667480e+003,3.0157692871e+003,3.0087180176e+003,3.0556411133e+003,3.0911538086e+003,
5.7031250000e-001,3.4015385742e+003,2.9883332520e+003,3.0794870605e+003,3.1991025391e+003,2.9910256348e+003,3.1028205566e+003,3.1332050781e+003,3.1348718262e+003,3.0950000000e+003,2.9510256348e+003,3.0130769043e+003,3.0056411133e+003,3.0642307129e+003,3.0914101563e+003,
5.7812500000e-001,3.3600000000e+003,2.9389743652e+003,3.0353845215e+003,3.1634614258e+003,2.9865385742e+003,3.0676923828e+003,3.0974357910e+003,3.0843588867e+003,3.0484614258e+003,2.9138461914e+003,2.9535898438e+003,2.9607692871e+003,3.0047436523e+003,3.0448718262e+003,
5.8593750000e-001,3.3529487305e+003,2.9360256348e+003,3.0265385742e+003,3.1476923828e+003,2.9757692871e+003,3.0625642090e+003,3.0889743652e+003,3.0789743652e+003,3.0452563477e+003,2.9089743652e+003,2.9519230957e+003,2.9515385742e+003,3.0000000000e+003,3.0361538086e+003,
5.9375000000e-001,3.3325642090e+003,2.9228205566e+003,3.0064101563e+003,3.1144870605e+003,2.9462819824e+003,3.0478205566e+003,3.0706411133e+003,3.0603845215e+003,3.0323076172e+003,2.8894870605e+003,2.9417949219e+003,2.9303845215e+003,2.9861538086e+003,3.0133332520e+003,
6.0156250000e-001,3.3238461914e+003,2.9132050781e+003,2.9965385742e+003,3.1074357910e+003,2.9343588867e+003,3.0384614258e+003,3.0620512695e+003,3.0470512695e+003,3.0203845215e+003,2.8785898438e+003,2.9324357910e+003,2.9205129395e+003,2.9774357910e+003,3.0034614258e+003,
6.0937500000e-001,3.3184614258e+003,2.9010256348e+003,2.9805129395e+003,3.1129487305e+003,2.9178205566e+003,3.0171794434e+003,3.0441025391e+003,3.0205129395e+003,2.9944870605e+003,2.8630769043e+003,2.9061538086e+003,2.9153845215e+003,2.9603845215e+003,2.9970512695e+003,
6.1718750000e-001,3.3206411133e+003,2.9002563477e+003,2.9843588867e+003,3.1126923828e+003,2.9150000000e+003,3.0144870605e+003,3.0428205566e+003,3.0179487305e+003,2.9920512695e+003,2.8625642090e+003,2.9037180176e+003,2.9210256348e+003,2.9602563477e+003,2.9997436523e+003,
6.2500000000e-001,3.3252563477e+003,2.9002563477e+003,2.9928205566e+003,3.1126923828e+003,2.9141025391e+003,3.0138461914e+003,3.0442307129e+003,3.0178205566e+003,2.9912819824e+003,2.8646154785e+003,2.9082050781e+003,2.9266667480e+003,2.9638461914e+003,3.0029487305e+003,
6.3281250000e-001,3.3294870605e+003,2.8992307129e+003,3.0000000000e+003,3.1125642090e+003,2.9135898438e+003,3.0119230957e+003,3.0447436523e+003,3.0162819824e+003,2.9879487305e+003,2.8661538086e+003,2.9166667480e+003,2.9284614258e+003,2.9676923828e+003,3.0039743652e+003,
6.4062500000e-001,3.2905129395e+003,2.8616667480e+003,2.9534614258e+003,3.0660256348e+003,2.8691025391e+003,2.9480769043e+003,2.9864101563e+003,2.9557692871e+003,2.9192307129e+003,2.8053845215e+003,2.8682050781e+003,2.8850000000e+003,2.9196154785e+003,2.9579487305e+003,
6.4843750000e-001,3.2723076172e+003,2.8428205566e+003,2.9337180176e+003,3.0460256348e+003,2.8485898438e+003,2.9256411133e+003,2.9665385742e+003,2.9360256348e+003,2.8984614258e+003,2.7826923828e+003,2.8374357910e+003,2.8682050781e+003,2.8974357910e+003,2.9402563477e+003,
6.5625000000e-001,3.2624357910e+003,2.8182050781e+003,2.9207692871e+003,3.0311538086e+003,2.8317949219e+003,2.9117949219e+003,2.9603845215e+003,2.9287180176e+003,2.8833332520e+003,2.7732050781e+003,2.8346154785e+003,2.8616667480e+003,2.8770512695e+003,2.9292307129e+003,
6.6406250000e-001,3.3078205566e+003,2.8692307129e+003,2.9620512695e+003,3.0843588867e+003,2.8905129395e+003,2.9715385742e+003,3.0125642090e+003,2.9969230957e+003,2.9616667480e+003,2.8421794434e+003,2.9071794434e+003,2.9073076172e+003,2.9347436523e+003,2.9744870605e+003,
6.7187500000e-001,3.3037180176e+003,2.8700000000e+003,2.9594870605e+003,3.0869230957e+003,2.8928205566e+003,2.9744870605e+003,3.0133332520e+003,3.0020512695e+003,2.9685898438e+003,2.8462819824e+003,2.8957692871e+003,2.9017949219e+003,2.9358974609e+003,2.9705129395e+003,
6.7968750000e-001,3.3762819824e+003,2.9511538086e+003,3.0315385742e+003,3.1680769043e+003,2.9637180176e+003,3.0561538086e+003,3.0910256348e+003,3.0847436523e+003,3.0439743652e+003,2.9256411133e+003,2.9524357910e+003,2.9711538086e+003,3.0071794434e+003,3.0366667480e+003,
6.8750000000e-001,3.4480769043e+003,3.0261538086e+003,3.0991025391e+003,3.2278205566e+003,3.0387180176e+003,3.1325642090e+003,3.1598718262e+003,3.1629487305e+003,3.1332050781e+003,3.0158974609e+003,3.0539743652e+003,3.0507692871e+003,3.0858974609e+003,3.1133332520e+003,
6.9531250000e-001,3.4196154785e+003,2.9984614258e+003,3.0738461914e+003,3.1939743652e+003,3.0212819824e+003,3.1067949219e+003,3.1344870605e+003,3.1356411133e+003,3.1089743652e+003,2.9919230957e+003,3.0311538086e+003,3.0257692871e+003,3.0579487305e+003,3.0891025391e+003,
7.0312500000e-001,3.3891025391e+003,2.9707692871e+003,3.0471794434e+003,3.1605129395e+003,3.0019230957e+003,3.0784614258e+003,3.1078205566e+003,3.1053845215e+003,3.0789743652e+003,2.9638461914e+003,3.0010256348e+003,2.9973076172e+003,3.0264101563e+003,3.0615385742e+003,
7.1093750000e-001,3.3701281738e+003,2.9591025391e+003,3.0315385742e+003,3.1491025391e+003,2.9910256348e+003,3.0600000000e+003,3.0916667480e+003,3.0837180176e+003,3.0538461914e+003,2.9491025391e+003,2.9701281738e+003,2.9791025391e+003,3.0094870605e+003,3.0437180176e+003,
7.1875000000e-001,3.3738461914e+003,2.9583332520e+003,3.0253845215e+003,3.1533332520e+003,2.9712819824e+003,3.0491025391e+003,3.0762819824e+003,3.0635898438e+003,3.0361538086e+003,2.9453845215e+003,2.9641025391e+003,2.9771794434e+003,3.0142307129e+003,3.0403845215e+003,
7.2656250000e-001,3.3774357910e+003,2.9588461914e+003,3.0271794434e+003,3.1469230957e+003,2.9665385742e+003,3.0453845215e+003,3.0721794434e+003,3.0547436523e+003,3.0310256348e+003,2.9393588867e+003,2.9714101563e+003,2.9779487305e+003,3.0132050781e+003,3.0396154785e+003,
7.3437500000e-001,3.3984614258e+003,2.9776923828e+003,3.0498718262e+003,3.1580769043e+003,2.9830769043e+003,3.0589743652e+003,3.0866667480e+003,3.0628205566e+003,3.0432050781e+003,2.9496154785e+003,2.9933332520e+003,2.9966667480e+003,3.0288461914e+003,3.0566667480e+003,
7.4218750000e-001,3.5108974609e+003,3.0897436523e+003,3.1698718262e+003,3.2603845215e+003,3.0989743652e+003,3.1575642090e+003,3.1875642090e+003,3.1534614258e+003,3.1360256348e+003,3.0492307129e+003,3.0930769043e+003,3.1071794434e+003,3.1346154785e+003,3.1657692871e+003,
7.5000000000e-001,3.5778205566e+003,3.1584614258e+003,3.2382050781e+003,3.3280769043e+003,3.1702563477e+003,3.2191025391e+003,3.2493588867e+003,3.2152563477e+003,3.1938461914e+003,3.1179487305e+003,3.1553845215e+003,3.1757692871e+003,3.2023076172e+003,3.2341025391e+003,
7.5781250000e-001,3.6205129395e+003,3.2044870605e+003,3.2807692871e+003,3.3755129395e+003,3.2156411133e+003,3.2576923828e+003,3.2885898438e+003,3.2574357910e+003,3.2296154785e+003,3.1658974609e+003,3.2021794434e+003,3.2232050781e+003,3.2480769043e+003,3.2802563477e+003,
7.6562500000e-001,3.5446154785e+003,3.1574357910e+003,3.2198718262e+003,3.3269230957e+003,3.1537180176e+003,3.1937180176e+003,3.2275642090e+003,3.2117949219e+003,3.1750000000e+003,3.1114101563e+003,3.1580769043e+003,3.1643588867e+003,3.1915385742e+003,3.2134614258e+003,
7.7343750000e-001,3.5466667480e+003,3.1625642090e+003,3.2235898438e+003,3.3356411133e+003,3.1679487305e+003,3.2062819824e+003,3.2403845215e+003,3.2293588867e+003,3.1885898438e+003,3.1235898438e+003,3.1582050781e+003,3.1653845215e+003,3.1952563477e+003,3.2142307129e+003,
7.8125000000e-001,3.5087180176e+003,3.1241025391e+003,3.1884614258e+003,3.3028205566e+003,3.1280769043e+003,3.1928205566e+003,3.2311538086e+003,3.2273076172e+003,3.1865385742e+003,3.1015385742e+003,3.1212819824e+003,3.1339743652e+003,3.1597436523e+003,3.1829487305e+003,
7.8906250000e-001,3.4884614258e+003,3.1137180176e+003,3.1688461914e+003,3.2748718262e+003,3.1125642090e+003,3.1857692871e+003,3.2211538086e+003,3.2157692871e+003,3.1891025391e+003,3.1065385742e+003,3.1201281738e+003,3.1164101563e+003,3.1583332520e+003,3.1723076172e+003,
7.9687500000e-001,3.4965385742e+003,3.1266667480e+003,3.1766667480e+003,3.2893588867e+003,3.1406411133e+003,3.2005129395e+003,3.2358974609e+003,3.2275642090e+003,3.2001281738e+003,3.1217949219e+003,3.1357692871e+003,3.1256411133e+003,3.1682050781e+003,3.1823076172e+003,
8.0468750000e-001,3.5534614258e+003,3.1911538086e+003,3.2321794434e+003,3.3594870605e+003,3.2279487305e+003,3.2655129395e+003,3.2941025391e+003,3.2843588867e+003,3.2560256348e+003,3.1773076172e+003,3.1857692871e+003,3.1873076172e+003,3.2248718262e+003,3.2366667480e+003,
8.1250000000e-001,3.5616667480e+003,3.2075642090e+003,3.2548718262e+003,3.3721794434e+003,3.2138461914e+003,3.2737180176e+003,3.2971794434e+003,3.2882050781e+003,3.2524357910e+003,3.1892307129e+003,3.2003845215e+003,3.2080769043e+003,3.2367949219e+003,3.2528205566e+003,
8.2031250000e-001,3.5426923828e+003,3.1915385742e+003,3.2376923828e+003,3.3596154785e+003,3.2041025391e+003,3.2556411133e+003,3.2803845215e+003,3.2682050781e+003,3.2333332520e+003,3.1735898438e+003,3.1928205566e+003,3.1929487305e+003,3.2189743652e+003,3.2385898438e+003,
8.2812500000e-001,3.5270512695e+003,3.1757692871e+003,3.2224357910e+003,3.3471794434e+003,3.1994870605e+003,3.2394870605e+003,3.2662819824e+003,3.2492307129e+003,3.2179487305e+003,3.1591025391e+003,3.1855129395e+003,3.1808974609e+003,3.2056411133e+003,3.2270512695e+003,
8.3593750000e-001,3.5551281738e+003,3.1984614258e+003,3.2514101563e+003,3.3664101563e+003,3.2260256348e+003,3.2598718262e+003,3.2900000000e+003,3.2632050781e+003,3.2388461914e+003,3.1829487305e+003,3.2111538086e+003,3.2123076172e+003,3.2416667480e+003,3.2588461914e+003,
8.4375000000e-001,3.6193588867e+003,3.2750000000e+003,3.3162819824e+003,3.4347436523e+003,3.2732050781e+003,3.3117949219e+003,3.3401281738e+003,3.3158974609e+003,3.2896154785e+003,3.2480769043e+003,3.2711538086e+003,3.2816667480e+003,3.3075642090e+003,3.3246154785e+003,
8.5156250000e-001,3.5767949219e+003,3.2356411133e+003,3.2752563477e+003,3.4041025391e+003,3.2332050781e+003,3.2675642090e+003,3.2956411133e+003,3.2742307129e+003,3.2487180176e+003,3.2053845215e+003,3.2337180176e+003,3.2439743652e+003,3.2626923828e+003,3.2846154785e+003,
8.5937500000e-001,3.5096154785e+003,3.1669230957e+003,3.2111538086e+003,3.3473076172e+003,3.1658974609e+003,3.1991025391e+003,3.2283332520e+003,3.2087180176e+003,3.1846154785e+003,3.1357692871e+003,3.1711538086e+003,3.1800000000e+003,3.1946154785e+003,3.2198718262e+003,
8.6718750000e-001,3.4024357910e+003,3.0524357910e+003,3.1137180176e+003,3.2430769043e+003,3.0441025391e+003,3.0915385742e+003,3.1261538086e+003,3.1078205566e+003,3.0825642090e+003,3.0230769043e+003,3.0671794434e+003,3.0715385742e+003,3.0883332520e+003,3.1137180176e+003,
8.7500000000e-001,3.3965385742e+003,3.0460256348e+003,3.1112819824e+003,3.2321794434e+003,3.0308974609e+003,3.0867949219e+003,3.1243588867e+003,3.1057692871e+003,3.0778205566e+003,3.0178205566e+003,3.0589743652e+003,3.0633332520e+003,3.0807692871e+003,3.1058974609e+003,
8.8281250000e-001,3.4230769043e+003,3.0742307129e+003,3.1379487305e+003,3.2550000000e+003,3.0571794434e+003,3.1143588867e+003,3.1537180176e+003,3.1352563477e+003,3.1047436523e+003,3.0478205566e+003,3.0802563477e+003,3.0882050781e+003,3.1047436523e+003,3.1293588867e+003,
8.9062500000e-001,3.5498718262e+003,3.2207692871e+003,3.2602563477e+003,3.3846154785e+003,3.2296154785e+003,3.2493588867e+003,3.2834614258e+003,3.2865385742e+003,3.2560256348e+003,3.2065385742e+003,3.2191025391e+003,3.2239743652e+003,3.2529487305e+003,3.2620512695e+003,
8.9843750000e-001,3.5244870605e+003,3.1942307129e+003,3.2370512695e+003,3.3583332520e+003,3.2024357910e+003,3.2292307129e+003,3.2630769043e+003,3.2638461914e+003,3.2333332520e+003,3.1802563477e+003,3.2003845215e+003,3.1975642090e+003,3.2248718262e+003,3.2358974609e+003,
9.0625000000e-001,3.4535898438e+003,3.1246154785e+003,3.1607692871e+003,3.3029487305e+003,3.1350000000e+003,3.1837180176e+003,3.2102563477e+003,3.1935898438e+003,3.1746154785e+003,3.1156411133e+003,3.1176923828e+003,3.1200000000e+003,3.1498718262e+003,3.1574357910e+003,
9.1406250000e-001,3.4857692871e+003,3.1638461914e+003,3.1955129395e+003,3.3326923828e+003,3.1739743652e+003,3.2225642090e+003,3.2456411133e+003,3.2269230957e+003,3.2121794434e+003,3.1502563477e+003,3.1437180176e+003,3.1476923828e+003,3.1821794434e+003,3.1944870605e+003,
9.2187500000e-001,3.5197436523e+003,3.1965385742e+003,3.2283332520e+003,3.3658974609e+003,3.2089743652e+003,3.2491025391e+003,3.2742307129e+003,3.2550000000e+003,3.2419230957e+003,3.1843588867e+003,3.1816667480e+003,3.1789743652e+003,3.2139743652e+003,3.2250000000e+003,
9.2968750000e-001,3.5189743652e+003,3.2025642090e+003,3.2287180176e+003,3.3905129395e+003,3.2108974609e+003,3.2426923828e+003,3.2696154785e+003,3.2524357910e+003,3.2369230957e+003,3.1971794434e+003,3.1992307129e+003,3.1930769043e+003,3.2307692871e+003,3.2225642090e+003,
9.3750000000e-001,3.4993588867e+003,3.1866667480e+003,3.2132050781e+003,3.3752563477e+003,3.1855129395e+003,3.2217949219e+003,3.2506411133e+003,3.2343588867e+003,3.2158974609e+003,3.1770512695e+003,3.1834614258e+003,3.1819230957e+003,3.2144870605e+003,3.2105129395e+003,
9.4531250000e-001,3.4903845215e+003,3.1757692871e+003,3.2085898438e+003,3.3626923828e+003,3.1658974609e+003,3.2002563477e+003,3.2360256348e+003,3.2170512695e+003,3.1993588867e+003,3.1587180176e+003,3.1708974609e+003,3.1766667480e+003,3.1980769043e+003,3.2110256348e+003,
9.5312500000e-001,3.4942307129e+003,3.1758974609e+003,3.2124357910e+003,3.3653845215e+003,3.1707692871e+003,3.1984614258e+003,3.2364101563e+003,3.2137180176e+003,3.1984614258e+003,3.1573076172e+003,3.1694870605e+003,3.1784614258e+003,3.1979487305e+003,3.2124357910e+003,
9.6093750000e-001,3.5112819824e+003,3.1974357910e+003,3.2343588867e+003,3.3820512695e+003,3.2026923828e+003,3.2164101563e+003,3.2507692871e+003,3.2246154785e+003,3.2079487305e+003,3.1721794434e+003,3.1908974609e+003,3.1974357910e+003,3.2192307129e+003,3.2214101563e+003,
9.6875000000e-001,3.5120512695e+003,3.2008974609e+003,3.2365385742e+003,3.3821794434e+003,3.2037180176e+003,3.2187180176e+003,3.2517949219e+003,3.2292307129e+003,3.2092307129e+003,3.1776923828e+003,3.1971794434e+003,3.2008974609e+003,3.2201281738e+003,3.2246154785e+003,
9.7656250000e-001,3.4839743652e+003,3.1724357910e+003,3.2100000000e+003,3.3567949219e+003,3.1706411133e+003,3.1926923828e+003,3.2289743652e+003,3.2089743652e+003,3.1857692871e+003,3.1556411133e+003,3.1664101563e+003,3.1789743652e+003,3.1882050781e+003,3.2038461914e+003,
9.8437500000e-001,3.4658974609e+003,3.1555129395e+003,3.1929487305e+003,3.3394870605e+003,3.1521794434e+003,3.1771794434e+003,3.2161538086e+003,3.1948718262e+003,3.1723076172e+003,3.1376923828e+003,3.1439743652e+003,3.1634614258e+003,3.1712819824e+003,3.1882050781e+003,
9.9218750000e-001,3.4469230957e+003,3.1503845215e+003,3.1780769043e+003,3.3117949219e+003,3.1384614258e+003,3.1730769043e+003,3.2114101563e+003,3.1976923828e+003,3.1750000000e+003,3.1300000000e+003,3.1430769043e+003,3.1500000000e+003,3.1671794434e+003,3.1707692871e+003,
1.0000000000e+000,3.4392307129e+003,3.1434614258e+003,3.1726923828e+003,3.3046154785e+003,3.1344870605e+003,3.1691025391e+003,3.2070512695e+003,3.1971794434e+003,3.1732050781e+003,3.1293588867e+003,3.1414101563e+003,3.1435898438e+003,3.1624357910e+003,3.1637180176e+003,
1.0078125000e+000,3.4279487305e+003,3.1293588867e+003,3.1628205566e+003,3.2984614258e+003,3.1310256348e+003,3.1607692871e+003,3.1993588867e+003,3.1906411133e+003,3.1665385742e+003,3.1237180176e+003,3.1296154785e+003,3.1319230957e+003,3.1528205566e+003,3.1525642090e+003,
1.0156250000e+000,3.3638461914e+003,3.0756411133e+003,3.0976923828e+003,3.2408974609e+003,3.0653845215e+003,3.1238461914e+003,3.1565385742e+003,3.1382050781e+003,3.1315385742e+003,3.0803845215e+003,3.0607692871e+003,3.0753845215e+003,3.0944870605e+003,3.0930769043e+003,
1.0234375000e+000,3.3507692871e+003,3.0634614258e+003,3.0839743652e+003,3.2165385742e+003,3.0488461914e+003,3.1114101563e+003,3.1429487305e+003,3.1251281738e+003,3.1169230957e+003,3.0679487305e+003,3.0475642090e+003,3.0629487305e+003,3.0828205566e+003,3.0816667480e+003,
1.0312500000e+000,3.2965385742e+003,2.9994870605e+003,3.0282050781e+003,3.1585898438e+003,3.0330769043e+003,3.0516667480e+003,3.0860256348e+003,3.0611538086e+003,3.0482050781e+003,3.0016667480e+003,2.9950000000e+003,2.9997436523e+003,3.0221794434e+003,3.0232050781e+003,
1.0390625000e+000,3.2565385742e+003,2.9535898438e+003,2.9906411133e+003,3.1362819824e+003,2.9678205566e+003,3.0035898438e+003,3.0384614258e+003,3.0035898438e+003,2.9989743652e+003,2.9550000000e+003,2.9467949219e+003,2.9591025391e+003,2.9733332520e+003,2.9784614258e+003,
1.0468750000e+000,3.2565385742e+003,2.9532050781e+003,2.9897436523e+003,3.1357692871e+003,2.9576923828e+003,2.9970512695e+003,3.0351281738e+003,3.0008974609e+003,2.9951281738e+003,2.9533332520e+003,2.9361538086e+003,2.9607692871e+003,2.9728205566e+003,2.9764101563e+003,
1.0546875000e+000,3.2965385742e+003,2.9817949219e+003,3.0312819824e+003,3.1548718262e+003,2.9961538086e+003,3.0120512695e+003,3.0594870605e+003,3.0288461914e+003,3.0205129395e+003,2.9828205566e+003,2.9753845215e+003,3.0029487305e+003,3.0035898438e+003,3.0151281738e+003,
1.0625000000e+000,3.3089743652e+003,2.9912819824e+003,3.0452563477e+003,3.1625642090e+003,3.0030769043e+003,3.0194870605e+003,3.0653845215e+003,3.0369230957e+003,3.0307692871e+003,2.9941025391e+003,2.9975642090e+003,3.0157692871e+003,3.0148718262e+003,3.0291025391e+003,
1.0703125000e+000,3.2821794434e+003,2.9676923828e+003,3.0189743652e+003,3.1403845215e+003,2.9667949219e+003,2.9928205566e+003,3.0342307129e+003,3.0101281738e+003,3.0074357910e+003,2.9692307129e+003,2.9773076172e+003,2.9947436523e+003,2.9943588867e+003,3.0074357910e+003,
1.0781250000e+000,3.2538461914e+003,2.9417949219e+003,2.9892307129e+003,3.1173076172e+003,2.9400000000e+003,2.9678205566e+003,3.0084614258e+003,2.9852563477e+003,2.9820512695e+003,2.9415385742e+003,2.9439743652e+003,2.9702563477e+003,2.9687180176e+003,2.9811538086e+003,
1.0859375000e+000,3.2764101563e+003,2.9642307129e+003,3.0061538086e+003,3.1429487305e+003,2.9601281738e+003,2.9965385742e+003,3.0369230957e+003,3.0182050781e+003,3.0087180176e+003,2.9700000000e+003,2.9546154785e+003,2.9952563477e+003,2.9875642090e+003,3.0038461914e+003,
1.0937500000e+000,3.3060256348e+003,2.9962819824e+003,3.0364101563e+003,3.1715385742e+003,2.9887180176e+003,3.0280769043e+003,3.0674357910e+003,3.0521794434e+003,3.0414101563e+003,3.0055129395e+003,2.9893588867e+003,3.0266667480e+003,3.0197436523e+003,3.0348718262e+003,
1.1015625000e+000,3.3133332520e+003,3.0150000000e+003,3.0480769043e+003,3.1800000000e+003,3.0173076172e+003,3.0450000000e+003,3.0800000000e+003,3.0712819824e+003,3.0596154785e+003,3.0262819824e+003,3.0146154785e+003,3.0387180176e+003,3.0419230957e+003,3.0460256348e+003,
1.1093750000e+000,3.2920512695e+003,2.9979487305e+003,3.0271794434e+003,3.1623076172e+003,3.0121794434e+003,3.0311538086e+003,3.0635898438e+003,3.0557692871e+003,3.0442307129e+003,3.0103845215e+003,3.0006411133e+003,3.0182050781e+003,3.0282050781e+003,3.0252563477e+003,
1.1171875000e+000,3.2467949219e+003,2.9500000000e+003,2.9773076172e+003,3.1400000000e+003,2.9741025391e+003,3.0085898438e+003,3.0387180176e+003,3.0243588867e+003,3.0151281738e+003,2.9725642090e+003,2.9553845215e+003,2.9739743652e+003,2.9889743652e+003,2.9797436523e+003,
1.1250000000e+000,3.2511538086e+003,2.9542307129e+003,2.9811538086e+003,3.1471794434e+003,2.9741025391e+003,3.0158974609e+003,3.0464101563e+003,3.0315385742e+003,3.0246154785e+003,2.9771794434e+003,2.9537180176e+003,2.9780769043e+003,2.9923076172e+003,2.9829487305e+003,
1.1328125000e+000,3.2607692871e+003,2.9662819824e+003,2.9900000000e+003,3.1528205566e+003,2.9842307129e+003,3.0266667480e+003,3.0567949219e+003,3.0432050781e+003,3.0383332520e+003,2.9875642090e+003,2.9596154785e+003,2.9873076172e+003,3.0019230957e+003,2.9907692871e+003,
1.1406250000e+000,3.2728205566e+003,2.9819230957e+003,3.0011538086e+003,3.1560256348e+003,3.0029487305e+003,3.0394870605e+003,3.0694870605e+003,3.0565385742e+003,3.0529487305e+003,3.0017949219e+003,2.9733332520e+003,3.0002563477e+003,3.0157692871e+003,3.0017949219e+003,
1.1484375000e+000,3.2953845215e+003,3.0024357910e+003,3.0246154785e+003,3.1876923828e+003,3.0374357910e+003,3.0616667480e+003,3.0985898438e+003,3.0739743652e+003,3.0647436523e+003,3.0353845215e+003,3.0106411133e+003,3.0307692871e+003,3.0521794434e+003,3.0293588867e+003,
1.1562500000e+000,3.2300000000e+003,2.9347436523e+003,2.9602563477e+003,3.1296154785e+003,2.9506411133e+003,2.9837180176e+003,3.0229487305e+003,2.9917949219e+003,2.9833332520e+003,2.9525642090e+003,2.9357692871e+003,2.9762819824e+003,2.9764101563e+003,2.9626923828e+003,
1.1640625000e+000,3.2158974609e+003,2.9237180176e+003,2.9470512695e+003,3.1050000000e+003,2.9428205566e+003,2.9664101563e+003,3.0076923828e+003,2.9762819824e+003,2.9667949219e+003,2.9397436523e+003,2.9307692871e+003,2.9643588867e+003,2.9644870605e+003,2.9494870605e+003,
1.1718750000e+000,3.1484614258e+003,2.8606411133e+003,2.8802563477e+003,3.0319230957e+003,2.8826923828e+003,2.8933332520e+003,2.9356411133e+003,2.9043588867e+003,2.8962819824e+003,2.8750000000e+003,2.8735898438e+003,2.8970512695e+003,2.9080769043e+003,2.8874357910e+003,
1.1796875000e+000,3.1171794434e+003,2.8265385742e+003,2.8480769043e+003,3.0007692871e+003,2.8439743652e+003,2.8565385742e+003,2.8983332520e+003,2.8650000000e+003,2.8607692871e+003,2.8376923828e+003,2.8342307129e+003,2.8646154785e+003,2.8761538086e+003,2.8574357910e+003,
1.1875000000e+000,3.1648718262e+003,2.8520512695e+003,2.8930769043e+003,3.0312819824e+003,2.8575642090e+003,2.8821794434e+003,2.9223076172e+003,2.8917949219e+003,2.8975642090e+003,2.8616667480e+003,2.8491025391e+003,2.9110256348e+003,2.8967949219e+003,2.8950000000e+003,
1.1953125000e+000,3.1887180176e+003,2.8814101563e+003,2.9235898438e+003,3.0715385742e+003,2.8914101563e+003,2.9066667480e+003,2.9491025391e+003,2.9358974609e+003,2.9355129395e+003,2.9087180176e+003,2.9008974609e+003,2.9443588867e+003,2.9351281738e+003,2.9297436523e+003,
1.2031250000e+000,3.1675642090e+003,2.8684614258e+003,2.9001281738e+003,3.0558974609e+003,2.8762819824e+003,2.8883332520e+003,2.9291025391e+003,2.9179487305e+003,2.9176923828e+003,2.8960256348e+003,2.8838461914e+003,2.9219230957e+003,2.9217949219e+003,2.9100000000e+003,
1.2109375000e+000,3.0920512695e+003,2.7993588867e+003,2.8183332520e+003,2.9778205566e+003,2.8034614258e+003,2.8269230957e+003,2.8584614258e+003,2.8456411133e+003,2.8446154785e+003,2.8175642090e+003,2.7880769043e+003,2.8392307129e+003,2.8411538086e+003,2.8239743652e+003,
1.2187500000e+000,3.0806411133e+003,2.7837180176e+003,2.8087180176e+003,2.9714101563e+003,2.7882050781e+003,2.8220512695e+003,2.8534614258e+003,2.8389743652e+003,2.8376923828e+003,2.8035898438e+003,2.7732050781e+003,2.8267949219e+003,2.8250000000e+003,2.8119230957e+003,
1.2265625000e+000,3.0970512695e+003,2.8012819824e+003,2.8278205566e+003,3.0007692871e+003,2.8084614258e+003,2.8530769043e+003,2.8871794434e+003,2.8687180176e+003,2.8715385742e+003,2.8323076172e+003,2.8010256348e+003,2.8437180176e+003,2.8465385742e+003,2.8357692871e+003,
1.2343750000e+000,3.1103845215e+003,2.8205129395e+003,2.8414101563e+003,3.0156411133e+003,2.8315385742e+003,2.8721794434e+003,2.9071794434e+003,2.8870512695e+003,2.8921794434e+003,2.8558974609e+003,2.8230769043e+003,2.8587180176e+003,2.8680769043e+003,2.8533332520e+003,
1.2421875000e+000,3.1119230957e+003,2.8257692871e+003,2.8437180176e+003,3.0217949219e+003,2.8543588867e+003,2.8764101563e+003,2.9096154785e+003,2.8893588867e+003,2.8928205566e+003,2.8610256348e+003,2.8287180176e+003,2.8635898438e+003,2.8735898438e+003,2.8516667480e+003,
1.2500000000e+000,3.1087180176e+003,2.8179487305e+003,2.8417949219e+003,3.0273076172e+003,2.8501281738e+003,2.8712819824e+003,2.9046154785e+003,2.8846154785e+003,2.8869230957e+003,2.8548718262e+003,2.8214101563e+003,2.8619230957e+003,2.8653845215e+003,2.8460256348e+003,
1.2578125000e+000,3.1053845215e+003,2.8105129395e+003,2.8396154785e+003,3.0328205566e+003,2.8437180176e+003,2.8657692871e+003,2.9003845215e+003,2.8782050781e+003,2.8801281738e+003,2.8501281738e+003,2.8142307129e+003,2.8616667480e+003,2.8582050781e+003,2.8421794434e+003,
1.2656250000e+000,3.1014101563e+003,2.8043588867e+003,2.8360256348e+003,3.0335898438e+003,2.8360256348e+003,2.8585898438e+003,2.8956411133e+003,2.8682050781e+003,2.8705129395e+003,2.8450000000e+003,2.8078205566e+003,2.8607692871e+003,2.8520512695e+003,2.8385898438e+003,
1.2734375000e+000,3.1078205566e+003,2.8143588867e+003,2.8379487305e+003,3.0419230957e+003,2.8303845215e+003,2.8423076172e+003,2.8834614258e+003,2.8487180176e+003,2.8512819824e+003,2.8429487305e+003,2.8261538086e+003,2.8578205566e+003,2.8594870605e+003,2.8407692871e+003,
1.2812500000e+000,3.1455129395e+003,2.8566667480e+003,2.8787180176e+003,3.0888461914e+003,2.8501281738e+003,2.8744870605e+003,2.9173076172e+003,2.8847436523e+003,2.8887180176e+003,2.8762819824e+003,2.8583332520e+003,2.9126923828e+003,2.8950000000e+003,2.8908974609e+003,
1.2890625000e+000,3.1405129395e+003,2.8524357910e+003,2.8758974609e+003,3.0889743652e+003,2.8452563477e+003,2.8702563477e+003,2.9142307129e+003,2.8838461914e+003,2.8898718262e+003,2.8789743652e+003,2.8514101563e+003,2.9103845215e+003,2.8935898438e+003,2.8898718262e+003,
1.2968750000e+000,3.1130769043e+003,2.8206411133e+003,2.8535898438e+003,3.0823076172e+003,2.8294870605e+003,2.8428205566e+003,2.8853845215e+003,2.8657692871e+003,2.8725642090e+003,2.8620512695e+003,2.8253845215e+003,2.8798718262e+003,2.8697436523e+003,2.8623076172e+003,
1.3046875000e+000,3.1111538086e+003,2.8307692871e+003,2.8476923828e+003,3.1025642090e+003,2.8471794434e+003,2.8594870605e+003,2.8939743652e+003,2.8753845215e+003,2.8792307129e+003,2.8670512695e+003,2.8371794434e+003,2.8734614258e+003,2.8701281738e+003,2.8561538086e+003,
1.3125000000e+000,3.0851281738e+003,2.8064101563e+003,2.8223076172e+003,3.0762819824e+003,2.8216667480e+003,2.8383332520e+003,2.8707692871e+003,2.8537180176e+003,2.8534614258e+003,2.8419230957e+003,2.8061538086e+003,2.8487180176e+003,2.8434614258e+003,2.8324357910e+003,
1.3203125000e+000,3.0275642090e+003,2.7483332520e+003,2.7635898438e+003,3.0221794434e+003,2.7676923828e+003,2.7843588867e+003,2.8128205566e+003,2.7980769043e+003,2.7958974609e+003,2.7828205566e+003,2.7338461914e+003,2.7844870605e+003,2.7793588867e+003,2.7703845215e+003,
1.3281250000e+000,3.0141025391e+003,2.7344870605e+003,2.7492307129e+003,3.0135898438e+003,2.7532050781e+003,2.7717949219e+003,2.8010256348e+003,2.7828205566e+003,2.7850000000e+003,2.7675642090e+003,2.7175642090e+003,2.7655129395e+003,2.7617949219e+003,2.7519230957e+003,
1.3359375000e+000,3.0297436523e+003,2.7433332520e+003,2.7673076172e+003,3.0530769043e+003,2.7484614258e+003,2.7884614258e+003,2.8256411133e+003,2.7957692871e+003,2.8067949219e+003,2.7778205566e+003,2.7416667480e+003,2.7714101563e+003,2.7761538086e+003,2.7657692871e+003,
1.3437500000e+000,3.0483332520e+003,2.7612819824e+003,2.7842307129e+003,3.0812819824e+003,2.7708974609e+003,2.8071794434e+003,2.8426923828e+003,2.8161538086e+003,2.8243588867e+003,2.8007692871e+003,2.7651281738e+003,2.7897436523e+003,2.8006411133e+003,2.7879487305e+003,
1.3515625000e+000,3.0865385742e+003,2.8062819824e+003,2.8182050781e+003,3.1350000000e+003,2.8374357910e+003,2.8480769043e+003,2.8788461914e+003,2.8596154785e+003,2.8610256348e+003,2.8516667480e+003,2.8080769043e+003,2.8373076172e+003,2.8496154785e+003,2.8319230957e+003,
1.3593750000e+000,3.1091025391e+003,2.8333332520e+003,2.8403845215e+003,3.1617949219e+003,2.8706411133e+003,2.8701281738e+003,2.9017949219e+003,2.8821794434e+003,2.8821794434e+003,2.8753845215e+003,2.8267949219e+003,2.8655129395e+003,2.8723076172e+003,2.8541025391e+003,
1.3671875000e+000,3.1589743652e+003,2.8902563477e+003,2.8920512695e+003,3.2206411133e+003,2.9069230957e+003,2.9102563477e+003,2.9507692871e+003,2.9243588867e+003,2.9224357910e+003,2.9226923828e+003,2.8719230957e+003,2.9148718262e+003,2.9185898438e+003,2.8974357910e+003,
1.3750000000e+000,3.1408974609e+003,2.8729487305e+003,2.8756411133e+003,3.2088461914e+003,2.8823076172e+003,2.8937180176e+003,2.9338461914e+003,2.9055129395e+003,2.9019230957e+003,2.9069230957e+003,2.8616667480e+003,2.8976923828e+003,2.9023076172e+003,2.8808974609e+003,
1.3828125000e+000,3.1146154785e+003,2.8467949219e+003,2.8517949219e+003,3.1894870605e+003,2.8543588867e+003,2.8707692871e+003,2.9087180176e+003,2.8784614258e+003,2.8734614258e+003,2.8816667480e+003,2.8434614258e+003,2.8746154785e+003,2.8773076172e+003,2.8576923828e+003,
1.3906250000e+000,3.1015385742e+003,2.8324357910e+003,2.8415385742e+003,3.1803845215e+003,2.8430769043e+003,2.8584614258e+003,2.8950000000e+003,2.8633332520e+003,2.8574357910e+003,2.8666667480e+003,2.8335898438e+003,2.8651281738e+003,2.8634614258e+003,2.8470512695e+003,
1.3984375000e+000,3.1873076172e+003,2.9120512695e+003,2.9346154785e+003,3.2523076172e+003,2.9233332520e+003,2.9194870605e+003,2.9630769043e+003,2.9387180176e+003,2.9379487305e+003,2.9507692871e+003,2.9016667480e+003,2.9601281738e+003,2.9441025391e+003,2.9334614258e+003,
1.4062500000e+000,3.1542307129e+003,2.8796154785e+003,2.9000000000e+003,3.2288461914e+003,2.8860256348e+003,2.8871794434e+003,2.9267949219e+003,2.9058974609e+003,2.9076923828e+003,2.9197436523e+003,2.8738461914e+003,2.9288461914e+003,2.9135898438e+003,2.9017949219e+003,
1.4140625000e+000,2.9876923828e+003,2.7167949219e+003,2.7323076172e+003,3.1007692871e+003,2.7123076172e+003,2.7326923828e+003,2.7660256348e+003,2.7426923828e+003,2.7460256348e+003,2.7435898438e+003,2.7133332520e+003,2.7606411133e+003,2.7467949219e+003,2.7393588867e+003,
1.4218750000e+000,3.0679487305e+003,2.7993588867e+003,2.8157692871e+003,3.1787180176e+003,2.8014101563e+003,2.8135898438e+003,2.8508974609e+003,2.8239743652e+003,2.8300000000e+003,2.8248718262e+003,2.7853845215e+003,2.8355129395e+003,2.8274357910e+003,2.8156411133e+003,
1.4296875000e+000,3.0885898438e+003,2.8182050781e+003,2.8333332520e+003,3.2028205566e+003,2.8241025391e+003,2.8347436523e+003,2.8688461914e+003,2.8466667480e+003,2.8541025391e+003,2.8493588867e+003,2.8060256348e+003,2.8566667480e+003,2.8483332520e+003,2.8329487305e+003,
1.4375000000e+000,3.0629487305e+003,2.7969230957e+003,2.8047436523e+003,3.1728205566e+003,2.8105129395e+003,2.8184614258e+003,2.8484614258e+003,2.8305129395e+003,2.8397436523e+003,2.8335898438e+003,2.7761538086e+003,2.8338461914e+003,2.8215385742e+003,2.8074357910e+003,
1.4453125000e+000,3.0555129395e+003,2.7921794434e+003,2.8023076172e+003,3.1593588867e+003,2.8210256348e+003,2.8217949219e+003,2.8615385742e+003,2.8403845215e+003,2.8439743652e+003,2.8351281738e+003,2.7843588867e+003,2.8283332520e+003,2.8202563477e+003,2.8024357910e+003,
1.4531250000e+000,3.0537180176e+003,2.7883332520e+003,2.8007692871e+003,3.1653845215e+003,2.8147436523e+003,2.8217949219e+003,2.8608974609e+003,2.8396154785e+003,2.8385898438e+003,2.8312819824e+003,2.7837180176e+003,2.8273076172e+003,2.8160256348e+003,2.7973076172e+003,
1.4609375000e+000,3.0503845215e+003,2.7873076172e+003,2.7956411133e+003,3.1692307129e+003,2.8037180176e+003,2.8180769043e+003,2.8556411133e+003,2.8314101563e+003,2.8306411133e+003,2.8271794434e+003,2.7700000000e+003,2.8234614258e+003,2.8134614258e+003,2.7924357910e+003,
1.4687500000e+000,3.0487180176e+003,2.7850000000e+003,2.7956411133e+003,3.1630769043e+003,2.8065385742e+003,2.8162819824e+003,2.8551281738e+003,2.8297436523e+003,2.8324357910e+003,2.8289743652e+003,2.7708974609e+003,2.8247436523e+003,2.8144870605e+003,2.7947436523e+003,
1.4765625000e+000,3.0474357910e+003,2.7819230957e+003,2.7978205566e+003,3.1594870605e+003,2.8025642090e+003,2.8132050781e+003,2.8547436523e+003,2.8248718262e+003,2.8308974609e+003,2.8302563477e+003,2.7762819824e+003,2.8280769043e+003,2.8105129395e+003,2.7970512695e+003,
1.4843750000e+000,3.0475642090e+003,2.7857692871e+003,2.7966667480e+003,3.1652563477e+003,2.7961538086e+003,2.8119230957e+003,2.8542307129e+003,2.8219230957e+003,2.8279487305e+003,2.8289743652e+003,2.7765385742e+003,2.8269230957e+003,2.8075642090e+003,2.7958974609e+003,
1.4921875000e+000,3.0494870605e+003,2.7928205566e+003,2.7960256348e+003,3.1752563477e+003,2.7938461914e+003,2.8129487305e+003,2.8551281738e+003,2.8212819824e+003,2.8278205566e+003,2.8288461914e+003,2.7769230957e+003,2.8266667480e+003,2.8078205566e+003,2.7960256348e+003,
1.5000000000e+000,3.0588461914e+003,2.8044870605e+003,2.8037180176e+003,3.1911538086e+003,2.8039743652e+003,2.8214101563e+003,2.8629487305e+003,2.8282050781e+003,2.8361538086e+003,2.8365385742e+003,2.7847436523e+003,2.8351281738e+003,2.8170512695e+003,2.8046154785e+003,
1.5078125000e+000,3.1602563477e+003,2.9019230957e+003,2.9183332520e+003,3.2711538086e+003,2.9193588867e+003,2.9098718262e+003,2.9464101563e+003,2.9208974609e+003,2.9356411133e+003,2.9493588867e+003,2.8980769043e+003,2.9448718262e+003,2.9305129395e+003,2.9030769043e+003,
1.5156250000e+000,3.1455129395e+003,2.8962819824e+003,2.9047436523e+003,3.2605129395e+003,2.9078205566e+003,2.9011538086e+003,2.9380769043e+003,2.9102563477e+003,2.9276923828e+003,2.9385898438e+003,2.8874357910e+003,2.9320512695e+003,2.9193588867e+003,2.8921794434e+003,
1.5234375000e+000,3.1465385742e+003,2.9016667480e+003,2.9055129395e+003,3.2698718262e+003,2.9211538086e+003,2.9179487305e+003,2.9511538086e+003,2.9246154785e+003,2.9438461914e+003,2.9479487305e+003,2.8912819824e+003,2.9360256348e+003,2.9228205566e+003,2.8969230957e+003,
1.5312500000e+000,3.1600000000e+003,2.9107692871e+003,2.9194870605e+003,3.2848718262e+003,2.9365385742e+003,2.9389743652e+003,2.9665385742e+003,2.9461538086e+003,2.9633332520e+003,2.9675642090e+003,2.9062819824e+003,2.9506411133e+003,2.9362819824e+003,2.9075642090e+003,
1.5390625000e+000,3.1541025391e+003,2.9152563477e+003,2.9167949219e+003,3.2885898438e+003,2.9219230957e+003,2.9407692871e+003,2.9651281738e+003,2.9520512695e+003,2.9621794434e+003,2.9698718262e+003,2.9014101563e+003,2.9484614258e+003,2.9323076172e+003,2.8989743652e+003,
1.5468750000e+000,3.1698718262e+003,2.9489743652e+003,2.9280769043e+003,3.2897436523e+003,2.9674357910e+003,2.9455129395e+003,2.9764101563e+003,2.9556411133e+003,2.9701281738e+003,2.9814101563e+003,2.9160256348e+003,2.9621794434e+003,2.9532050781e+003,2.9233332520e+003,
1.5546875000e+000,3.1732050781e+003,2.9465385742e+003,2.9333332520e+003,3.2911538086e+003,2.9673076172e+003,2.9480769043e+003,2.9791025391e+003,2.9573076172e+003,2.9716667480e+003,2.9858974609e+003,2.9229487305e+003,2.9658974609e+003,2.9580769043e+003,2.9258974609e+003,
1.5625000000e+000,3.1483332520e+003,2.9187180176e+003,2.9160256348e+003,3.2924357910e+003,2.9220512695e+003,2.9298718262e+003,2.9641025391e+003,2.9410256348e+003,2.9496154785e+003,2.9675642090e+003,2.9029487305e+003,2.9435898438e+003,2.9329487305e+003,2.9028205566e+003,
1.5703125000e+000,3.1475642090e+003,2.9237180176e+003,2.9125642090e+003,3.2965385742e+003,2.9317949219e+003,2.9287180176e+003,2.9648718262e+003,2.9414101563e+003,2.9480769043e+003,2.9664101563e+003,2.8974357910e+003,2.9429487305e+003,2.9305129395e+003,2.9046154785e+003,
1.5781250000e+000,3.1630769043e+003,2.9382050781e+003,2.9237180176e+003,3.3024357910e+003,2.9644870605e+003,2.9346154785e+003,2.9744870605e+003,2.9480769043e+003,2.9535898438e+003,2.9739743652e+003,2.9064101563e+003,2.9589743652e+003,2.9417949219e+003,2.9216667480e+003,
1.5859375000e+000,3.1671794434e+003,2.9365385742e+003,2.9294870605e+003,3.2985898438e+003,2.9643588867e+003,2.9346154785e+003,2.9742307129e+003,2.9461538086e+003,2.9532050781e+003,2.9751281738e+003,2.9128205566e+003,2.9643588867e+003,2.9453845215e+003,2.9250000000e+003,
1.5937500000e+000,3.1348718262e+003,2.9093588867e+003,2.9110256348e+003,3.2567949219e+003,2.9156411133e+003,2.9133332520e+003,2.9498718262e+003,2.9221794434e+003,2.9310256348e+003,2.9546154785e+003,2.8966667480e+003,2.9485898438e+003,2.9232050781e+003,2.9039743652e+003,
1.6015625000e+000,3.1264101563e+003,2.9066667480e+003,2.9058974609e+003,3.2470512695e+003,2.9101281738e+003,2.9075642090e+003,2.9461538086e+003,2.9189743652e+003,2.9271794434e+003,2.9510256348e+003,2.8937180176e+003,2.9450000000e+003,2.9189743652e+003,2.9003845215e+003,
1.6093750000e+000,3.1264101563e+003,2.9091025391e+003,2.9067949219e+003,3.2478205566e+003,2.9142307129e+003,2.9057692871e+003,2.9473076172e+003,2.9197436523e+003,2.9296154785e+003,2.9532050781e+003,2.8980769043e+003,2.9457692871e+003,2.9221794434e+003,2.9016667480e+003,
1.6171875000e+000,3.1310256348e+003,2.9135898438e+003,2.9096154785e+003,3.2567949219e+003,2.9203845215e+003,2.9057692871e+003,2.9494870605e+003,2.9208974609e+003,2.9353845215e+003,2.9575642090e+003,2.9037180176e+003,2.9479487305e+003,2.9285898438e+003,2.9042307129e+003,
1.6250000000e+000,3.1208974609e+003,2.9025642090e+003,2.9008974609e+003,3.2583332520e+003,2.8966667480e+003,2.8998718262e+003,2.9310256348e+003,2.9117949219e+003,2.9284614258e+003,2.9546154785e+003,2.8826923828e+003,2.9392307129e+003,2.9162819824e+003,2.8915385742e+003,
1.6328125000e+000,3.1121794434e+003,2.9070512695e+003,2.8944870605e+003,3.2629487305e+003,2.9211538086e+003,2.9051281738e+003,2.9400000000e+003,2.9237180176e+003,2.9264101563e+003,2.9541025391e+003,2.8942307129e+003,2.9362819824e+003,2.9200000000e+003,2.8878205566e+003,
1.6406250000e+000,3.1030769043e+003,2.9034614258e+003,2.8851281738e+003,3.2494870605e+003,2.9126923828e+003,2.8992307129e+003,2.9332050781e+003,2.9151281738e+003,2.9184614258e+003,2.9439743652e+003,2.8810256348e+003,2.9283332520e+003,2.9130769043e+003,2.8808974609e+003,
1.6484375000e+000,3.0869230957e+003,2.8920512695e+003,2.8711538086e+003,3.2119230957e+003,2.8948718262e+003,2.8885898438e+003,2.9169230957e+003,2.8970512695e+003,2.9010256348e+003,2.9308974609e+003,2.8607692871e+003,2.9116667480e+003,2.8944870605e+003,2.8652563477e+003,
1.6562500000e+000,3.1026923828e+003,2.8952563477e+003,2.8897436523e+003,3.2478205566e+003,2.9223076172e+003,2.9039743652e+003,2.9330769043e+003,2.9067949219e+003,2.9150000000e+003,2.9452563477e+003,2.8765385742e+003,2.9244870605e+003,2.9087180176e+003,2.8694870605e+003,
1.6640625000e+000,3.1082050781e+003,2.9043588867e+003,2.8948718262e+003,3.2551281738e+003,2.9258974609e+003,2.9128205566e+003,2.9415385742e+003,2.9147436523e+003,2.9233332520e+003,2.9537180176e+003,2.8803845215e+003,2.9292307129e+003,2.9164101563e+003,2.8761538086e+003,
1.6718750000e+000,3.1052563477e+003,2.9114101563e+003,2.8953845215e+003,3.2446154785e+003,2.9244870605e+003,2.9167949219e+003,2.9443588867e+003,2.9164101563e+003,2.9247436523e+003,2.9571794434e+003,2.8810256348e+003,2.9303845215e+003,2.9173076172e+003,2.8830769043e+003,
1.6796875000e+000,3.1074357910e+003,2.9147436523e+003,2.8985898438e+003,3.2433332520e+003,2.9292307129e+003,2.9187180176e+003,2.9465385742e+003,2.9180769043e+003,2.9266667480e+003,2.9597436523e+003,2.8861538086e+003,2.9355129395e+003,2.9200000000e+003,2.8888461914e+003,
1.6875000000e+000,3.1156411133e+003,2.9135898438e+003,2.9052563477e+003,3.2452563477e+003,2.9267949219e+003,2.9173076172e+003,2.9474357910e+003,2.9188461914e+003,2.9293588867e+003,2.9684614258e+003,2.8982050781e+003,2.9474357910e+003,2.9252563477e+003,2.8976923828e+003,
1.6953125000e+000,3.0987180176e+003,2.8960256348e+003,2.8916667480e+003,3.2234614258e+003,2.9082050781e+003,2.8993588867e+003,2.9293588867e+003,2.9001281738e+003,2.9108974609e+003,2.9523076172e+003,2.8820512695e+003,2.9332050781e+003,2.9082050781e+003,2.8841025391e+003,
1.7031250000e+000,3.0529487305e+003,2.8550000000e+003,2.8555129395e+003,3.1741025391e+003,2.8700000000e+003,2.8547436523e+003,2.8851281738e+003,2.8552563477e+003,2.8682050781e+003,2.9105129395e+003,2.8401281738e+003,2.8943588867e+003,2.8706411133e+003,2.8479487305e+003,
1.7109375000e+000,3.0419230957e+003,2.8451281738e+003,2.8467949219e+003,3.1696154785e+003,2.8619230957e+003,2.8437180176e+003,2.8753845215e+003,2.8464101563e+003,2.8610256348e+003,2.9026923828e+003,2.8307692871e+003,2.8862819824e+003,2.8667949219e+003,2.8394870605e+003,
1.7187500000e+000,3.0739743652e+003,2.8666667480e+003,2.8714101563e+003,3.2210256348e+003,2.8800000000e+003,2.8648718262e+003,2.8994870605e+003,2.8683332520e+003,2.8917949219e+003,2.9270512695e+003,2.8521794434e+003,2.9157692871e+003,2.8970512695e+003,2.8619230957e+003,
1.7265625000e+000,3.0829487305e+003,2.8752563477e+003,2.8770512695e+003,3.2241025391e+003,2.8834614258e+003,2.8707692871e+003,2.9030769043e+003,2.8710256348e+003,2.8965385742e+003,2.9300000000e+003,2.8591025391e+003,2.9219230957e+003,2.9008974609e+003,2.8676923828e+003,
1.7343750000e+000,3.0800000000e+003,2.8748718262e+003,2.8732050781e+003,3.2119230957e+003,2.8789743652e+003,2.8678205566e+003,2.8967949219e+003,2.8653845215e+003,2.8902563477e+003,2.9239743652e+003,2.8594870605e+003,2.9200000000e+003,2.8960256348e+003,2.8660256348e+003,
1.7421875000e+000,3.0662819824e+003,2.8650000000e+003,2.8619230957e+003,3.1910256348e+003,2.8679487305e+003,2.8571794434e+003,2.8833332520e+003,2.8539743652e+003,2.8748718262e+003,2.9112819824e+003,2.8530769043e+003,2.9128205566e+003,2.8841025391e+003,2.8583332520e+003,
1.7500000000e+000,3.0274357910e+003,2.8375642090e+003,2.8317949219e+003,3.1365385742e+003,2.8462819824e+003,2.8335898438e+003,2.8592307129e+003,2.8342307129e+003,2.8429487305e+003,2.8821794434e+003,2.8078205566e+003,2.8800000000e+003,2.8617949219e+003,2.8230769043e+003,
1.7578125000e+000,3.0116667480e+003,2.8184614258e+003,2.8066667480e+003,3.0891025391e+003,2.8358974609e+003,2.8343588867e+003,2.8608974609e+003,2.8294870605e+003,2.8350000000e+003,2.8719230957e+003,2.7870512695e+003,2.8651281738e+003,2.8410256348e+003,2.8001281738e+003,
1.7656250000e+000,3.0170512695e+003,2.8224357910e+003,2.8084614258e+003,3.0994870605e+003,2.8506411133e+003,2.8408974609e+003,2.8666667480e+003,2.8380769043e+003,2.8450000000e+003,2.8798718262e+003,2.7971794434e+003,2.8717949219e+003,2.8432050781e+003,2.8061538086e+003,
1.7734375000e+000,3.0315385742e+003,2.8398718262e+003,2.8230769043e+003,3.1237180176e+003,2.8802563477e+003,2.8566667480e+003,2.8821794434e+003,2.8570512695e+003,2.8673076172e+003,2.8967949219e+003,2.8207692871e+003,2.8834614258e+003,2.8583332520e+003,2.8202563477e+003,
1.7812500000e+000,3.0221794434e+003,2.8292307129e+003,2.8158974609e+003,3.1076923828e+003,2.8534614258e+003,2.8516667480e+003,2.8767949219e+003,2.8471794434e+003,2.8593588867e+003,2.8978205566e+003,2.8096154785e+003,2.8725642090e+003,2.8596154785e+003,2.8126923828e+003,
1.7890625000e+000,3.0238461914e+003,2.8302563477e+003,2.8148718262e+003,3.0994870605e+003,2.8551281738e+003,2.8482050781e+003,2.8744870605e+003,2.8460256348e+003,2.8579487305e+003,2.8965385742e+003,2.8047436523e+003,2.8738461914e+003,2.8566667480e+003,2.8106411133e+003,
1.7968750000e+000,3.0385898438e+003,2.8491025391e+003,2.8310256348e+003,3.0971794434e+003,2.8743588867e+003,2.8547436523e+003,2.8853845215e+003,2.8550000000e+003,2.8691025391e+003,2.9082050781e+003,2.8138461914e+003,2.8879487305e+003,2.8651281738e+003,2.8206411133e+003,
1.8046875000e+000,3.0484614258e+003,2.8602563477e+003,2.8434614258e+003,3.1062819824e+003,2.8826923828e+003,2.8643588867e+003,2.8961538086e+003,2.8623076172e+003,2.8797436523e+003,2.9208974609e+003,2.8287180176e+003,2.8998718262e+003,2.8761538086e+003,2.8320512695e+003,
1.8125000000e+000,3.0742307129e+003,2.8780769043e+003,2.8717949219e+003,3.1571794434e+003,2.8942307129e+003,2.8860256348e+003,2.9151281738e+003,2.8778205566e+003,2.9030769043e+003,2.9480769043e+003,2.8725642090e+003,2.9330769043e+003,2.9112819824e+003,2.8651281738e+003,
1.8203125000e+000,3.0826923828e+003,2.8867949219e+003,2.8807692871e+003,3.1723076172e+003,2.9034614258e+003,2.8898718262e+003,2.9180769043e+003,2.8837180176e+003,2.9091025391e+003,2.9547436523e+003,2.8788461914e+003,2.9412819824e+003,2.9221794434e+003,2.8729487305e+003,
1.8281250000e+000,3.0917949219e+003,2.9048718262e+003,2.8951281738e+003,3.1819230957e+003,2.9146154785e+003,2.8978205566e+003,2.9270512695e+003,2.8956411133e+003,2.9221794434e+003,2.9687180176e+003,2.8829487305e+003,2.9541025391e+003,2.9294870605e+003,2.8821794434e+003,
1.8359375000e+000,3.0902563477e+003,2.9061538086e+003,2.8969230957e+003,3.1767949219e+003,2.9098718262e+003,2.9001281738e+003,2.9292307129e+003,2.8973076172e+003,2.9251281738e+003,2.9702563477e+003,2.8832050781e+003,2.9557692871e+003,2.9239743652e+003,2.8824357910e+003,
1.8437500000e+000,3.0719230957e+003,2.8797436523e+003,2.8810256348e+003,3.1566667480e+003,2.8948718262e+003,2.8867949219e+003,2.9083332520e+003,2.8835898438e+003,2.9055129395e+003,2.9506411133e+003,2.8738461914e+003,2.9334614258e+003,2.9035898438e+003,2.8646154785e+003,
1.8515625000e+000,3.0619230957e+003,2.8692307129e+003,2.8711538086e+003,3.1507692871e+003,2.8921794434e+003,2.8770512695e+003,2.8982050781e+003,2.8770512695e+003,2.8928205566e+003,2.9419230957e+003,2.8632050781e+003,2.9221794434e+003,2.8974357910e+003,2.8537180176e+003,
1.8593750000e+000,3.0529487305e+003,2.8623076172e+003,2.8629487305e+003,3.1457692871e+003,2.8875642090e+003,2.8701281738e+003,2.8935898438e+003,2.8732050781e+003,2.8835898438e+003,2.9356411133e+003,2.8526923828e+003,2.9148718262e+003,2.8914101563e+003,2.8451281738e+003,
1.8671875000e+000,3.0491025391e+003,2.8615385742e+003,2.8596154785e+003,3.1438461914e+003,2.8842307129e+003,2.8701281738e+003,2.8976923828e+003,2.8748718262e+003,2.8828205566e+003,2.9341025391e+003,2.8471794434e+003,2.9143588867e+003,2.8887180176e+003,2.8425642090e+003,
1.8750000000e+000,3.0630769043e+003,2.8907692871e+003,2.8714101563e+003,3.1610256348e+003,2.9153845215e+003,2.9025642090e+003,2.9325642090e+003,2.9033332520e+003,2.9166667480e+003,2.9601281738e+003,2.8630769043e+003,2.9255129395e+003,2.9085898438e+003,2.8578205566e+003,
1.8828125000e+000,3.0669230957e+003,2.8960256348e+003,2.8760256348e+003,3.1646154785e+003,2.9251281738e+003,2.9071794434e+003,2.9352563477e+003,2.9064101563e+003,2.9206411133e+003,2.9679487305e+003,2.8719230957e+003,2.9284614258e+003,2.9137180176e+003,2.8642307129e+003,
1.8906250000e+000,3.0760256348e+003,2.8932050781e+003,2.8815385742e+003,3.1683332520e+003,2.9180769043e+003,2.9103845215e+003,2.9347436523e+003,2.9024357910e+003,2.9260256348e+003,2.9746154785e+003,2.8853845215e+003,2.9366667480e+003,2.9124357910e+003,2.8751281738e+003,
1.8984375000e+000,3.0694870605e+003,2.8983332520e+003,2.8825642090e+003,3.1678205566e+003,2.9200000000e+003,2.9066667480e+003,2.9310256348e+003,2.8982050781e+003,2.9179487305e+003,2.9666667480e+003,2.8689743652e+003,2.9378205566e+003,2.9084614258e+003,2.8700000000e+003,
1.9062500000e+000,3.0816667480e+003,2.9161538086e+003,2.8991025391e+003,3.1774357910e+003,2.9364101563e+003,2.9174357910e+003,2.9433332520e+003,2.9132050781e+003,2.9303845215e+003,2.9823076172e+003,2.8842307129e+003,2.9541025391e+003,2.9228205566e+003,2.8860256348e+003,
1.9140625000e+000,3.0933332520e+003,2.9235898438e+003,2.9158974609e+003,3.1946154785e+003,2.9343588867e+003,2.9226923828e+003,2.9503845215e+003,2.9167949219e+003,2.9414101563e+003,2.9942307129e+003,2.9123076172e+003,2.9742307129e+003,2.9383332520e+003,2.9082050781e+003,
1.9218750000e+000,3.0746154785e+003,2.9051281738e+003,2.8932050781e+003,3.1788461914e+003,2.9224357910e+003,2.8989743652e+003,2.9219230957e+003,2.8844870605e+003,2.9143588867e+003,2.9676923828e+003,2.8901281738e+003,2.9525642090e+003,2.9217949219e+003,2.8864101563e+003,
1.9296875000e+000,3.0910256348e+003,2.9232050781e+003,2.9120512695e+003,3.1903845215e+003,2.9430769043e+003,2.9141025391e+003,2.9353845215e+003,2.8997436523e+003,2.9297436523e+003,2.9856411133e+003,2.9060256348e+003,2.9715385742e+003,2.9419230957e+003,2.9046154785e+003,
1.9375000000e+000,3.1721794434e+003,3.0089743652e+003,3.0029487305e+003,3.2628205566e+003,3.0193588867e+003,2.9885898438e+003,3.0133332520e+003,2.9796154785e+003,3.0139743652e+003,3.0752563477e+003,2.9973076172e+003,3.0610256348e+003,3.0269230957e+003,2.9958974609e+003,
1.9453125000e+000,3.1724357910e+003,3.0112819824e+003,3.0047436523e+003,3.2600000000e+003,3.0176923828e+003,2.9915385742e+003,3.0165385742e+003,2.9860256348e+003,3.0198718262e+003,3.0801281738e+003,3.0034614258e+003,3.0628205566e+003,3.0267949219e+003,2.9969230957e+003,
1.9531250000e+000,3.1355129395e+003,2.9775642090e+003,2.9705129395e+003,3.2153845215e+003,2.9842307129e+003,2.9660256348e+003,2.9894870605e+003,2.9692307129e+003,2.9947436523e+003,3.0500000000e+003,2.9733332520e+003,3.0323076172e+003,2.9938461914e+003,2.9603845215e+003,
1.9609375000e+000,3.1257692871e+003,2.9700000000e+003,2.9612819824e+003,3.2034614258e+003,2.9770512695e+003,2.9589743652e+003,2.9832050781e+003,2.9667949219e+003,2.9879487305e+003,3.0402563477e+003,2.9628205566e+003,3.0255129395e+003,2.9871794434e+003,2.9511538086e+003,
1.9687500000e+000,3.1296154785e+003,2.9762819824e+003,2.9647436523e+003,3.2066667480e+003,2.9832050781e+003,2.9623076172e+003,2.9887180176e+003,2.9735898438e+003,2.9925642090e+003,3.0432050781e+003,2.9641025391e+003,3.0296154785e+003,2.9924357910e+003,2.9551281738e+003,
1.9765625000e+000,3.1393588867e+003,2.9871794434e+003,2.9741025391e+003,3.2158974609e+003,2.9960256348e+003,2.9700000000e+003,2.9994870605e+003,2.9832050781e+003,3.0015385742e+003,3.0521794434e+003,2.9700000000e+003,3.0362819824e+003,3.0007692871e+003,2.9641025391e+003,
1.9843750000e+000,3.1303845215e+003,2.9755129395e+003,2.9653845215e+003,3.1994870605e+003,2.9837180176e+003,2.9756411133e+003,2.9998718262e+003,2.9729487305e+003,2.9906411133e+003,3.0476923828e+003,2.9538461914e+003,3.0105129395e+003,2.9837180176e+003,2.9450000000e+003,
1.9921875000e+000,3.1184614258e+003,2.9685898438e+003,2.9520512695e+003,3.1942307129e+003,2.9687180176e+003,2.9697436523e+003,2.9935898438e+003,2.9653845215e+003,2.9829487305e+003,3.0410256348e+003,2.9519230957e+003,3.0032050781e+003,2.9761538086e+003,2.9367949219e+003,
2.0000000000e+000,3.0787180176e+003,2.9343588867e+003,2.9164101563e+003,3.1571794434e+003,2.9592307129e+003,2.9365385742e+003,2.9666667480e+003,2.9328205566e+003,2.9524357910e+003,3.0069230957e+003,2.9193588867e+003,2.9771794434e+003,2.9441025391e+003,2.9071794434e+003,
2.0078125000e+000,3.1033332520e+003,2.9647436523e+003,2.9364101563e+003,3.1535898438e+003,2.9856411133e+003,2.9651281738e+003,2.9819230957e+003,2.9410256348e+003,2.9679487305e+003,3.0293588867e+003,2.9351281738e+003,2.9953845215e+003,2.9748718262e+003,2.9247436523e+003,
2.0156250000e+000,3.0994870605e+003,2.9600000000e+003,2.9357692871e+003,3.1460256348e+003,2.9758974609e+003,2.9594870605e+003,2.9765385742e+003,2.9353845215e+003,2.9619230957e+003,3.0243588867e+003,2.9358974609e+003,2.9955129395e+003,2.9698718262e+003,2.9242307129e+003,
2.0234375000e+000,3.1133332520e+003,2.9662819824e+003,2.9503845215e+003,3.1453845215e+003,2.9928205566e+003,2.9643588867e+003,2.9819230957e+003,2.9443588867e+003,2.9721794434e+003,3.0355129395e+003,2.9538461914e+003,3.0110256348e+003,2.9783332520e+003,2.9393588867e+003,
2.0312500000e+000,3.1269230957e+003,2.9793588867e+003,2.9597436523e+003,3.1537180176e+003,3.0085898438e+003,2.9743588867e+003,2.9905129395e+003,2.9552563477e+003,2.9857692871e+003,3.0501281738e+003,2.9673076172e+003,3.0230769043e+003,2.9896154785e+003,2.9524357910e+003,
2.0390625000e+000,3.1138461914e+003,2.9771794434e+003,2.9482050781e+003,3.1498718262e+003,2.9860256348e+003,2.9637180176e+003,2.9832050781e+003,2.9465385742e+003,2.9829487305e+003,3.0465385742e+003,2.9555129395e+003,3.0138461914e+003,2.9808974609e+003,2.9488461914e+003,
2.0468750000e+000,3.1164101563e+003,2.9762819824e+003,2.9625642090e+003,3.1582050781e+003,2.9844870605e+003,2.9639743652e+003,2.9921794434e+003,2.9623076172e+003,2.9912819824e+003,3.0502563477e+003,2.9580769043e+003,3.0198718262e+003,2.9848718262e+003,2.9516667480e+003,
2.0546875000e+000,3.1267949219e+003,2.9837180176e+003,2.9725642090e+003,3.1623076172e+003,2.9844870605e+003,2.9732050781e+003,3.0001281738e+003,2.9738461914e+003,3.0016667480e+003,3.0596154785e+003,2.9694870605e+003,3.0291025391e+003,2.9911538086e+003,2.9591025391e+003,
2.0625000000e+000,3.1293588867e+003,2.9841025391e+003,2.9739743652e+003,3.1588461914e+003,2.9785898438e+003,2.9752563477e+003,3.0010256348e+003,2.9776923828e+003,3.0057692871e+003,3.0626923828e+003,2.9752563477e+003,3.0302563477e+003,2.9906411133e+003,2.9593588867e+003,
2.0703125000e+000,3.1115385742e+003,2.9679487305e+003,2.9551281738e+003,3.1394870605e+003,2.9724357910e+003,2.9596154785e+003,2.9894870605e+003,2.9674357910e+003,2.9944870605e+003,3.0503845215e+003,2.9653845215e+003,3.0160256348e+003,2.9747436523e+003,2.9438461914e+003,
2.0781250000e+000,3.1175642090e+003,2.9855129395e+003,2.9652563477e+003,3.1374357910e+003,3.0115385742e+003,2.9742307129e+003,3.0084614258e+003,2.9810256348e+003,2.9951281738e+003,3.0579487305e+003,2.9630769043e+003,3.0305129395e+003,2.9864101563e+003,2.9575642090e+003,
2.0859375000e+000,3.1216667480e+003,2.9905129395e+003,2.9705129395e+003,3.1348718262e+003,3.0128205566e+003,2.9814101563e+003,3.0116667480e+003,2.9842307129e+003,2.9982050781e+003,3.0614101563e+003,2.9647436523e+003,3.0329487305e+003,2.9924357910e+003,2.9619230957e+003,
2.0937500000e+000,3.1170512695e+003,2.9851281738e+003,2.9661538086e+003,3.1255129395e+003,3.0016667480e+003,2.9791025391e+003,3.0055129395e+003,2.9779487305e+003,2.9946154785e+003,3.0567949219e+003,2.9611538086e+003,3.0266667480e+003,2.9908974609e+003,2.9582050781e+003,
2.1015625000e+000,3.0988461914e+003,2.9653845215e+003,2.9458974609e+003,3.1084614258e+003,2.9782050781e+003,2.9598718262e+003,2.9841025391e+003,2.9544870605e+003,2.9771794434e+003,3.0388461914e+003,2.9503845215e+003,3.0093588867e+003,2.9783332520e+003,2.9458974609e+003,
2.1093750000e+000,3.0980769043e+003,2.9676923828e+003,2.9437180176e+003,3.1130769043e+003,2.9811538086e+003,2.9583332520e+003,2.9816667480e+003,2.9514101563e+003,2.9757692871e+003,3.0394870605e+003,2.9530769043e+003,3.0094870605e+003,2.9778205566e+003,2.9470512695e+003,
2.1171875000e+000,3.1043588867e+003,2.9796154785e+003,2.9491025391e+003,3.1238461914e+003,2.9896154785e+003,2.9656411133e+003,2.9864101563e+003,2.9564101563e+003,2.9823076172e+003,3.0476923828e+003,2.9607692871e+003,3.0156411133e+003,2.9817949219e+003,2.9525642090e+003,
2.1250000000e+000,3.1305129395e+003,3.0128205566e+003,2.9800000000e+003,3.1311538086e+003,3.0234614258e+003,2.9942307129e+003,3.0071794434e+003,2.9602563477e+003,2.9980769043e+003,3.0698718262e+003,2.9711538086e+003,3.0361538086e+003,3.0005129395e+003,2.9661538086e+003,
2.1328125000e+000,3.1235898438e+003,3.0079487305e+003,2.9724357910e+003,3.1216667480e+003,3.0265385742e+003,2.9866667480e+003,2.9992307129e+003,2.9508974609e+003,2.9896154785e+003,3.0646154785e+003,2.9670512695e+003,3.0279487305e+003,2.9964101563e+003,2.9605129395e+003,
2.1406250000e+000,3.0938461914e+003,2.9816667480e+003,2.9521794434e+003,3.0812819824e+003,2.9857692871e+003,2.9696154785e+003,2.9807692871e+003,2.9283332520e+003,2.9770512695e+003,3.0412819824e+003,2.9555129395e+003,3.0083332520e+003,2.9741025391e+003,2.9387180176e+003,
2.1484375000e+000,3.1021794434e+003,2.9901281738e+003,2.9573076172e+003,3.0932050781e+003,3.0097436523e+003,2.9797436523e+003,2.9891025391e+003,2.9487180176e+003,2.9982050781e+003,3.0629487305e+003,2.9621794434e+003,3.0239743652e+003,2.9883332520e+003,2.9473076172e+003,
2.1562500000e+000,3.1019230957e+003,2.9883332520e+003,2.9567949219e+003,3.0929487305e+003,3.0130769043e+003,2.9744870605e+003,2.9855129395e+003,2.9512819824e+003,2.9958974609e+003,3.0628205566e+003,2.9591025391e+003,3.0234614258e+003,2.9860256348e+003,2.9484614258e+003,
2.1640625000e+000,3.0885898438e+003,2.9715385742e+003,2.9494870605e+003,3.0750000000e+003,2.9751281738e+003,2.9480769043e+003,2.9717949219e+003,2.9484614258e+003,2.9823076172e+003,3.0506411133e+003,2.9548718262e+003,3.0143588867e+003,2.9705129395e+003,2.9429487305e+003,
2.1718750000e+000,3.0817949219e+003,2.9651281738e+003,2.9450000000e+003,3.0653845215e+003,2.9607692871e+003,2.9396154785e+003,2.9676923828e+003,2.9455129395e+003,2.9783332520e+003,3.0458974609e+003,2.9535898438e+003,3.0129487305e+003,2.9674357910e+003,2.9375642090e+003,
2.1796875000e+000,3.0906411133e+003,2.9760256348e+003,2.9543588867e+003,3.0662819824e+003,2.9666667480e+003,2.9447436523e+003,2.9791025391e+003,2.9597436523e+003,2.9889743652e+003,3.0541025391e+003,2.9678205566e+003,3.0292307129e+003,2.9819230957e+003,2.9467949219e+003,
2.1875000000e+000,3.1094870605e+003,2.9962819824e+003,2.9701281738e+003,3.0788461914e+003,2.9873076172e+003,2.9616667480e+003,2.9970512695e+003,2.9793588867e+003,3.0058974609e+003,3.0711538086e+003,2.9846154785e+003,3.0471794434e+003,3.0008974609e+003,2.9651281738e+003,
2.1953125000e+000,3.1180769043e+003,3.0055129395e+003,2.9780769043e+003,3.0837180176e+003,3.0116667480e+003,2.9774357910e+003,3.0106411133e+003,2.9900000000e+003,3.0150000000e+003,3.0810256348e+003,2.9803845215e+003,3.0510256348e+003,3.0066667480e+003,2.9743588867e+003,
2.2031250000e+000,3.0664101563e+003,2.9533332520e+003,2.9328205566e+003,3.0455129395e+003,2.9556411133e+003,2.9388461914e+003,2.9658974609e+003,2.9397436523e+003,2.9653845215e+003,3.0341025391e+003,2.9288461914e+003,2.9896154785e+003,2.9525642090e+003,2.9183332520e+003,
2.2109375000e+000,3.0752563477e+003,2.9658974609e+003,2.9393588867e+003,3.0558974609e+003,2.9644870605e+003,2.9505129395e+003,2.9753845215e+003,2.9471794434e+003,2.9728205566e+003,3.0446154785e+003,2.9406411133e+003,2.9987180176e+003,2.9628205566e+003,2.9287180176e+003,
2.2187500000e+000,3.0953845215e+003,2.9911538086e+003,2.9565385742e+003,3.0774357910e+003,2.9905129395e+003,2.9721794434e+003,2.9952563477e+003,2.9638461914e+003,2.9912819824e+003,3.0658974609e+003,2.9635898438e+003,3.0216667480e+003,2.9841025391e+003,2.9521794434e+003,
2.2265625000e+000,3.1219230957e+003,3.0269230957e+003,2.9803845215e+003,3.1035898438e+003,3.0323076172e+003,3.0002563477e+003,3.0194870605e+003,2.9797436523e+003,3.0156411133e+003,3.0915385742e+003,2.9908974609e+003,3.0525642090e+003,3.0097436523e+003,2.9839743652e+003,
2.2343750000e+000,3.1155129395e+003,3.0229487305e+003,2.9750000000e+003,3.0925642090e+003,3.0288461914e+003,2.9962819824e+003,3.0123076172e+003,2.9687180176e+003,3.0089743652e+003,3.0835898438e+003,2.9817949219e+003,3.0450000000e+003,3.0011538086e+003,2.9771794434e+003,
2.2421875000e+000,3.1041025391e+003,3.0123076172e+003,2.9658974609e+003,3.0744870605e+003,3.0179487305e+003,2.9883332520e+003,3.0005129395e+003,2.9552563477e+003,2.9976923828e+003,3.0712819824e+003,2.9682050781e+003,3.0324357910e+003,2.9878205566e+003,2.9641025391e+003,
2.2500000000e+000,3.1256411133e+003,3.0292307129e+003,2.9862819824e+003,3.0989743652e+003,3.0246154785e+003,2.9947436523e+003,3.0110256348e+003,2.9783332520e+003,3.0266667480e+003,3.1064101563e+003,3.0041025391e+003,3.0589743652e+003,3.0216667480e+003,2.9830769043e+003,
2.2578125000e+000,3.1192307129e+003,3.0229487305e+003,2.9821794434e+003,3.0984614258e+003,3.0178205566e+003,2.9883332520e+003,3.0066667480e+003,2.9714101563e+003,3.0251281738e+003,3.0983332520e+003,2.9950000000e+003,3.0512819824e+003,3.0164101563e+003,2.9789743652e+003,
2.2656250000e+000,3.1333332520e+003,3.0405129395e+003,3.0055129395e+003,3.0971794434e+003,3.0505129395e+003,3.0084614258e+003,3.0247436523e+003,2.9958974609e+003,3.0470512695e+003,3.1187180176e+003,3.0098718262e+003,3.0747436523e+003,3.0307692871e+003,2.9970512695e+003,
2.2734375000e+000,3.1356411133e+003,3.0484614258e+003,3.0094870605e+003,3.0915385742e+003,3.0414101563e+003,3.0033332520e+003,3.0284614258e+003,3.0124357910e+003,3.0483332520e+003,3.1205129395e+003,3.0207692871e+003,3.0853845215e+003,3.0343588867e+003,3.0083332520e+003,
2.2812500000e+000,3.1365385742e+003,3.0466667480e+003,3.0105129395e+003,3.0917949219e+003,3.0374357910e+003,2.9996154785e+003,3.0273076172e+003,3.0115385742e+003,3.0465385742e+003,3.1150000000e+003,3.0202563477e+003,3.0820512695e+003,3.0323076172e+003,3.0083332520e+003,
2.2890625000e+000,3.1426923828e+003,3.0497436523e+003,3.0241025391e+003,3.0897436523e+003,3.0406411133e+003,2.9989743652e+003,3.0326923828e+003,3.0229487305e+003,3.0478205566e+003,3.1242307129e+003,3.0320512695e+003,3.0906411133e+003,3.0442307129e+003,3.0143588867e+003,
2.2968750000e+000,3.1180769043e+003,3.0341025391e+003,3.0033332520e+003,3.0491025391e+003,3.0252563477e+003,2.9843588867e+003,3.0198718262e+003,2.9991025391e+003,3.0278205566e+003,3.1042307129e+003,2.9950000000e+003,3.0675642090e+003,3.0210256348e+003,2.9961538086e+003,
2.3046875000e+000,3.1228205566e+003,3.0346154785e+003,3.0037180176e+003,3.0558974609e+003,3.0367949219e+003,2.9912819824e+003,3.0239743652e+003,2.9974357910e+003,3.0308974609e+003,3.1037180176e+003,2.9948718262e+003,3.0657692871e+003,3.0193588867e+003,2.9958974609e+003,
2.3125000000e+000,3.1332050781e+003,3.0378205566e+003,3.0092307129e+003,3.0769230957e+003,3.0503845215e+003,3.0012819824e+003,3.0306411133e+003,3.0007692871e+003,3.0358974609e+003,3.1084614258e+003,3.0035898438e+003,3.0703845215e+003,3.0244870605e+003,3.0000000000e+003,
2.3203125000e+000,3.1398718262e+003,3.0379487305e+003,3.0123076172e+003,3.1130769043e+003,3.0526923828e+003,3.0079487305e+003,3.0310256348e+003,3.0003845215e+003,3.0315385742e+003,3.1132050781e+003,3.0173076172e+003,3.0716667480e+003,3.0342307129e+003,3.0026923828e+003,
2.3281250000e+000,3.1287180176e+003,3.0311538086e+003,3.0039743652e+003,3.1052563477e+003,3.0402563477e+003,3.0026923828e+003,3.0228205566e+003,2.9907692871e+003,3.0214101563e+003,3.1065385742e+003,3.0126923828e+003,3.0614101563e+003,3.0294870605e+003,2.9955129395e+003,
2.3359375000e+000,3.1079487305e+003,3.0180769043e+003,2.9900000000e+003,3.0547436523e+003,3.0225642090e+003,2.9952563477e+003,3.0141025391e+003,2.9724357910e+003,3.0097436523e+003,3.0917949219e+003,2.9961538086e+003,3.0496154785e+003,3.0146154785e+003,2.9826923828e+003,
2.3437500000e+000,3.1112819824e+003,3.0201281738e+003,2.9924357910e+003,3.0401281738e+003,3.0262819824e+003,2.9983332520e+003,3.0180769043e+003,2.9728205566e+003,3.0152563477e+003,3.0934614258e+003,2.9947436523e+003,3.0579487305e+003,3.0176923828e+003,2.9857692871e+003,
2.3515625000e+000,3.1180769043e+003,3.0260256348e+003,2.9920512695e+003,3.0558974609e+003,3.0320512695e+003,2.9964101563e+003,3.0150000000e+003,2.9791025391e+003,3.0276923828e+003,3.1052563477e+003,2.9938461914e+003,3.0692307129e+003,3.0364101563e+003,2.9908974609e+003,
2.3593750000e+000,3.1155129395e+003,3.0233332520e+003,2.9907692871e+003,3.0582050781e+003,3.0261538086e+003,2.9942307129e+003,3.0130769043e+003,2.9789743652e+003,3.0256411133e+003,3.1051281738e+003,2.9939743652e+003,3.0657692871e+003,3.0341025391e+003,2.9889743652e+003,
2.3671875000e+000,3.1239743652e+003,3.0288461914e+003,3.0007692871e+003,3.0633332520e+003,3.0280769043e+003,3.0021794434e+003,3.0228205566e+003,2.9870512695e+003,3.0321794434e+003,3.1125642090e+003,3.0064101563e+003,3.0729487305e+003,3.0383332520e+003,2.9969230957e+003,
2.3750000000e+000,3.1985898438e+003,3.1020512695e+003,3.0750000000e+003,3.1292307129e+003,3.1162819824e+003,3.0580769043e+003,3.0905129395e+003,3.0687180176e+003,3.1014101563e+003,3.1761538086e+003,3.0784614258e+003,3.1585898438e+003,3.1166667480e+003,3.0769230957e+003,
2.3828125000e+000,3.1921794434e+003,3.0984614258e+003,3.0707692871e+003,3.1178205566e+003,3.1096154785e+003,3.0494870605e+003,3.0833332520e+003,3.0689743652e+003,3.0953845215e+003,3.1728205566e+003,3.0688461914e+003,3.1551281738e+003,3.1065385742e+003,3.0730769043e+003,
2.3906250000e+000,3.1866667480e+003,3.0935898438e+003,3.0667949219e+003,3.1197436523e+003,3.0861538086e+003,3.0467949219e+003,3.0862819824e+003,3.0750000000e+003,3.1024357910e+003,3.1828205566e+003,3.0865385742e+003,3.1585898438e+003,3.1034614258e+003,3.0720512695e+003,
2.3984375000e+000,3.1921794434e+003,3.0976923828e+003,3.0708974609e+003,3.1320512695e+003,3.0933332520e+003,3.0529487305e+003,3.0944870605e+003,3.0823076172e+003,3.1102563477e+003,3.1888461914e+003,3.0975642090e+003,3.1642307129e+003,3.1170512695e+003,3.0782050781e+003,
2.4062500000e+000,3.2008974609e+003,3.1023076172e+003,3.0762819824e+003,3.1335898438e+003,3.1110256348e+003,3.0591025391e+003,3.1020512695e+003,3.0908974609e+003,3.1142307129e+003,3.1951281738e+003,3.0998718262e+003,3.1673076172e+003,3.1353845215e+003,3.0875642090e+003,
2.4140625000e+000,3.1967949219e+003,3.0976923828e+003,3.0723076172e+003,3.1182050781e+003,3.1075642090e+003,3.0548718262e+003,3.0975642090e+003,3.0841025391e+003,3.1066667480e+003,3.1910256348e+003,3.0896154785e+003,3.1629487305e+003,3.1280769043e+003,3.0832050781e+003,
2.4218750000e+000,3.1842307129e+003,3.0966667480e+003,3.0660256348e+003,3.0907692871e+003,3.0978205566e+003,3.0598718262e+003,3.0943588867e+003,3.0593588867e+003,3.0919230957e+003,3.1776923828e+003,3.0771794434e+003,3.1564101563e+003,3.1017949219e+003,3.0657692871e+003,
2.4296875000e+000,3.2058974609e+003,3.1239743652e+003,3.0812819824e+003,3.1267949219e+003,3.1300000000e+003,3.0934614258e+003,3.1180769043e+003,3.0797436523e+003,3.1125642090e+003,3.1951281738e+003,3.1062819824e+003,3.1688461914e+003,3.1243588867e+003,3.0876923828e+003,
2.4375000000e+000,3.2029487305e+003,3.1225642090e+003,3.0792307129e+003,3.1341025391e+003,3.1237180176e+003,3.0924357910e+003,3.1165385742e+003,3.0771794434e+003,3.1111538086e+003,3.1961538086e+003,3.1041025391e+003,3.1665385742e+003,3.1212819824e+003,3.0866667480e+003,
2.4453125000e+000,3.1966667480e+003,3.1192307129e+003,3.0758974609e+003,3.1383332520e+003,3.1157692871e+003,3.0891025391e+003,3.1128205566e+003,3.0712819824e+003,3.1087180176e+003,3.1969230957e+003,3.0980769043e+003,3.1620512695e+003,3.1165385742e+003,3.0807692871e+003,
2.4531250000e+000,3.1923076172e+003,3.1171794434e+003,3.0742307129e+003,3.1402563477e+003,3.1143588867e+003,3.0882050781e+003,3.1101281738e+003,3.0662819824e+003,3.1084614258e+003,3.1985898438e+003,3.0920512695e+003,3.1575642090e+003,3.1147436523e+003,3.0739743652e+003,
2.4609375000e+000,3.1857692871e+003,3.1161538086e+003,3.0752563477e+003,3.1208974609e+003,3.1335898438e+003,3.0846154785e+003,3.0973076172e+003,3.0526923828e+003,3.1029487305e+003,3.1826923828e+003,3.0776923828e+003,3.1497436523e+003,3.1050000000e+003,3.0708974609e+003,
2.4687500000e+000,3.1746154785e+003,3.1096154785e+003,3.0670512695e+003,3.1083332520e+003,3.1198718262e+003,3.0732050781e+003,3.0852563477e+003,3.0416667480e+003,3.0925642090e+003,3.1714101563e+003,3.0717949219e+003,3.1423076172e+003,3.0924357910e+003,3.0646154785e+003,
2.4765625000e+000,3.1474357910e+003,3.0780769043e+003,3.0402563477e+003,3.0838461914e+003,3.0783332520e+003,3.0474357910e+003,3.0617949219e+003,3.0198718262e+003,3.0733332520e+003,3.1503845215e+003,3.0550000000e+003,3.1182050781e+003,3.0723076172e+003,3.0382050781e+003,
2.4843750000e+000,3.1437180176e+003,3.0664101563e+003,3.0385898438e+003,3.0694870605e+003,3.0719230957e+003,3.0280769043e+003,3.0584614258e+003,3.0285898438e+003,3.0730769043e+003,3.1407692871e+003,3.0439743652e+003,3.1141025391e+003,3.0633332520e+003,3.0314101563e+003,
2.4921875000e+000,3.1255129395e+003,3.0496154785e+003,3.0235898438e+003,3.0558974609e+003,3.0560256348e+003,3.0093588867e+003,3.0429487305e+003,3.0189743652e+003,3.0562819824e+003,3.1216667480e+003,3.0225642090e+003,3.1000000000e+003,3.0416667480e+003,3.0138461914e+003,
2.5000000000e+000,3.1067949219e+003,3.0212819824e+003,2.9985898438e+003,3.0316667480e+003,3.0292307129e+003,2.9869230957e+003,3.0311538086e+003,3.0079487305e+003,3.0329487305e+003,3.0965385742e+003,2.9952563477e+003,3.0820512695e+003,3.0176923828e+003,2.9878205566e+003,
2.5078125000e+000,3.1243588867e+003,3.0365385742e+003,3.0107692871e+003,3.0344870605e+003,3.0339743652e+003,2.9987180176e+003,3.0466667480e+003,3.0229487305e+003,3.0475642090e+003,3.1132050781e+003,3.0155129395e+003,3.0952563477e+003,3.0356411133e+003,3.0033332520e+003,
2.5156250000e+000,3.1450000000e+003,3.0700000000e+003,3.0306411133e+003,3.0496154785e+003,3.0514101563e+003,3.0189743652e+003,3.0643588867e+003,3.0406411133e+003,3.0665385742e+003,3.1394870605e+003,3.0515385742e+003,3.1164101563e+003,3.0633332520e+003,3.0337180176e+003,
2.5234375000e+000,3.1460256348e+003,3.0764101563e+003,3.0343588867e+003,3.0592307129e+003,3.0716667480e+003,3.0270512695e+003,3.0689743652e+003,3.0419230957e+003,3.0697436523e+003,3.1433332520e+003,3.0510256348e+003,3.1184614258e+003,3.0673076172e+003,3.0348718262e+003,
2.5312500000e+000,3.1725642090e+003,3.1035898438e+003,3.0665385742e+003,3.0832050781e+003,3.1282050781e+003,3.0667949219e+003,3.1030769043e+003,3.0661538086e+003,3.1002563477e+003,3.1735898438e+003,3.0658974609e+003,3.1396154785e+003,3.0947436523e+003,3.0541025391e+003,
2.5390625000e+000,3.1926923828e+003,3.1206411133e+003,3.0870512695e+003,3.0934614258e+003,3.1455129395e+003,3.0891025391e+003,3.1220512695e+003,3.0816667480e+003,3.1191025391e+003,3.1917949219e+003,3.0824357910e+003,3.1557692871e+003,3.1108974609e+003,3.0717949219e+003,
2.5468750000e+000,3.2058974609e+003,3.1435898438e+003,3.0934614258e+003,3.1020512695e+003,3.1365385742e+003,3.1030769043e+003,3.1202563477e+003,3.0832050781e+003,3.1273076172e+003,3.2057692871e+003,3.1110256348e+003,3.1680769043e+003,3.1197436523e+003,3.0880769043e+003,
2.5546875000e+000,3.1614101563e+003,3.1034614258e+003,3.0596154785e+003,3.0524357910e+003,3.1130769043e+003,3.0662819824e+003,3.0797436523e+003,3.0361538086e+003,3.0957692871e+003,3.1728205566e+003,3.0735898438e+003,3.1301281738e+003,3.0894870605e+003,3.0532050781e+003,
2.5625000000e+000,3.1570512695e+003,3.0969230957e+003,3.0555129395e+003,3.0420512695e+003,3.1083332520e+003,3.0608974609e+003,3.0738461914e+003,3.0271794434e+003,3.0912819824e+003,3.1660256348e+003,3.0655129395e+003,3.1241025391e+003,3.0847436523e+003,3.0500000000e+003,
2.5703125000e+000,3.1606411133e+003,3.1000000000e+003,3.0546154785e+003,3.0416667480e+003,3.1047436523e+003,3.0612819824e+003,3.0729487305e+003,3.0252563477e+003,3.0915385742e+003,3.1666667480e+003,3.0635898438e+003,3.1248718262e+003,3.0860256348e+003,3.0515385742e+003,
2.5781250000e+000,3.1676923828e+003,3.1062819824e+003,3.0557692871e+003,3.0461538086e+003,3.0989743652e+003,3.0635898438e+003,3.0746154785e+003,3.0274357910e+003,3.0932050781e+003,3.1714101563e+003,3.0638461914e+003,3.1296154785e+003,3.0897436523e+003,3.0542307129e+003,
2.5859375000e+000,3.1692307129e+003,3.0924357910e+003,3.0620512695e+003,3.0537180176e+003,3.0835898438e+003,3.0520512695e+003,3.0733332520e+003,3.0373076172e+003,3.0908974609e+003,3.1679487305e+003,3.0583332520e+003,3.1294870605e+003,3.0852563477e+003,3.0537180176e+003,
2.5937500000e+000,3.1674357910e+003,3.0975642090e+003,3.0611538086e+003,3.0685898438e+003,3.0997436523e+003,3.0520512695e+003,3.0761538086e+003,3.0438461914e+003,3.0952563477e+003,3.1691025391e+003,3.0683332520e+003,3.1321794434e+003,3.0870512695e+003,3.0578205566e+003,
2.6015625000e+000,3.1769230957e+003,3.1139743652e+003,3.0705129395e+003,3.1126923828e+003,3.1178205566e+003,3.0589743652e+003,3.0885898438e+003,3.0706411133e+003,3.1069230957e+003,3.1828205566e+003,3.0856411133e+003,3.1530769043e+003,3.0956411133e+003,3.0693588867e+003,
2.6093750000e+000,3.1892307129e+003,3.1035898438e+003,3.0834614258e+003,3.0956411133e+003,3.0964101563e+003,3.0443588867e+003,3.0898718262e+003,3.0847436523e+003,3.1075642090e+003,3.1800000000e+003,3.0824357910e+003,3.1652563477e+003,3.1001281738e+003,3.0823076172e+003,
2.6171875000e+000,3.1929487305e+003,3.1096154785e+003,3.0893588867e+003,3.0947436523e+003,3.0985898438e+003,3.0421794434e+003,3.0938461914e+003,3.0884614258e+003,3.1117949219e+003,3.1830769043e+003,3.0900000000e+003,3.1720512695e+003,3.1044870605e+003,3.0880769043e+003,
2.6250000000e+000,3.1920512695e+003,3.1211538086e+003,3.0893588867e+003,3.1088461914e+003,3.1121794434e+003,3.0603845215e+003,3.1051281738e+003,3.0920512695e+003,3.1256411133e+003,3.2028205566e+003,3.0980769043e+003,3.1643588867e+003,3.1126923828e+003,3.0839743652e+003,
2.6328125000e+000,3.1888461914e+003,3.1188461914e+003,3.0823076172e+003,3.1058974609e+003,3.1166667480e+003,3.0675642090e+003,3.1052563477e+003,3.0874357910e+003,3.1239743652e+003,3.2025642090e+003,3.0943588867e+003,3.1564101563e+003,3.1105129395e+003,3.0798718262e+003,
2.6406250000e+000,3.1926923828e+003,3.1221794434e+003,3.0771794434e+003,3.0794870605e+003,3.1191025391e+003,3.0808974609e+003,3.1073076172e+003,3.0734614258e+003,3.1196154785e+003,3.1970512695e+003,3.0919230957e+003,3.1546154785e+003,3.1060256348e+003,3.0794870605e+003,
2.6484375000e+000,3.1907692871e+003,3.1202563477e+003,3.0771794434e+003,3.0757692871e+003,3.1091025391e+003,3.0798718262e+003,3.1033332520e+003,3.0673076172e+003,3.1166667480e+003,3.1943588867e+003,3.0887180176e+003,3.1532050781e+003,3.1023076172e+003,3.0761538086e+003,
2.6562500000e+000,3.1851281738e+003,3.1187180176e+003,3.0798718262e+003,3.0921794434e+003,3.1029487305e+003,3.0774357910e+003,3.0946154785e+003,3.0560256348e+003,3.1116667480e+003,3.1906411133e+003,3.0826923828e+003,3.1511538086e+003,3.0966667480e+003,3.0739743652e+003,
2.6640625000e+000,3.1915385742e+003,3.1273076172e+003,3.0865385742e+003,3.1088461914e+003,3.1180769043e+003,3.0829487305e+003,3.0979487305e+003,3.0574357910e+003,3.1176923828e+003,3.1962819824e+003,3.0892307129e+003,3.1579487305e+003,3.1035898438e+003,3.0821794434e+003,
2.6718750000e+000,3.2066667480e+003,3.1393588867e+003,3.0926923828e+003,3.1048718262e+003,3.1538461914e+003,3.0964101563e+003,3.1078205566e+003,3.0626923828e+003,3.1357692871e+003,3.2106411133e+003,3.1129487305e+003,3.1728205566e+003,3.1292307129e+003,3.0962819824e+003,
2.6796875000e+000,3.1934614258e+003,3.1265385742e+003,3.0821794434e+003,3.0794870605e+003,3.1411538086e+003,3.0874357910e+003,3.0979487305e+003,3.0535898438e+003,3.1273076172e+003,3.2026923828e+003,3.1034614258e+003,3.1630769043e+003,3.1208974609e+003,3.0846154785e+003,
2.6875000000e+000,3.1784614258e+003,3.1142307129e+003,3.0716667480e+003,3.0564101563e+003,3.1248718262e+003,3.0767949219e+003,3.0869230957e+003,3.0442307129e+003,3.1166667480e+003,3.1939743652e+003,3.0905129395e+003,3.1510256348e+003,3.1087180176e+003,3.0716667480e+003,
2.6953125000e+000,3.1711538086e+003,3.1097436523e+003,3.0675642090e+003,3.0464101563e+003,3.1162819824e+003,3.0716667480e+003,3.0816667480e+003,3.0414101563e+003,3.1111538086e+003,3.1905129395e+003,3.0830769043e+003,3.1444870605e+003,3.1002563477e+003,3.0653845215e+003,
2.7031250000e+000,3.2176923828e+003,3.1485898438e+003,3.1124357910e+003,3.0933332520e+003,3.1562819824e+003,3.0992307129e+003,3.1229487305e+003,3.1001281738e+003,3.1503845215e+003,3.2244870605e+003,3.1220512695e+003,3.1987180176e+003,3.1282050781e+003,3.1148718262e+003,
2.7109375000e+000,3.2082050781e+003,3.1394870605e+003,3.1142307129e+003,3.0750000000e+003,3.1232050781e+003,3.0885898438e+003,3.1229487305e+003,3.1083332520e+003,3.1430769043e+003,3.2211538086e+003,3.1256411133e+003,3.2003845215e+003,3.1317949219e+003,3.1098718262e+003,
2.7187500000e+000,3.2137180176e+003,3.1442307129e+003,3.1219230957e+003,3.0808974609e+003,3.1232050781e+003,3.0915385742e+003,3.1307692871e+003,3.1155129395e+003,3.1462819824e+003,3.2251281738e+003,3.1342307129e+003,3.2056411133e+003,3.1400000000e+003,3.1143588867e+003,
2.7265625000e+000,3.2430769043e+003,3.1750000000e+003,3.1502563477e+003,3.1092307129e+003,3.1644870605e+003,3.1052563477e+003,3.1583332520e+003,3.1456411133e+003,3.1739743652e+003,3.2573076172e+003,3.1697436523e+003,3.2352563477e+003,3.1720512695e+003,3.1407692871e+003,
2.7343750000e+000,3.2062819824e+003,3.1356411133e+003,3.1139743652e+003,3.0671794434e+003,3.1485898438e+003,3.0915385742e+003,3.1384614258e+003,3.1147436523e+003,3.1429487305e+003,3.2232050781e+003,3.1182050781e+003,3.1952563477e+003,3.1285898438e+003,3.0984614258e+003,
2.7421875000e+000,3.2012819824e+003,3.1306411133e+003,3.1074357910e+003,3.0589743652e+003,3.1448718262e+003,3.0942307129e+003,3.1362819824e+003,3.1078205566e+003,3.1389743652e+003,3.2152563477e+003,3.1056411133e+003,3.1861538086e+003,3.1182050781e+003,3.0932050781e+003,
2.7500000000e+000,3.2064101563e+003,3.1467949219e+003,3.1102563477e+003,3.0576923828e+003,3.1521794434e+003,3.1080769043e+003,3.1358974609e+003,3.0979487305e+003,3.1462819824e+003,3.2198718262e+003,3.1150000000e+003,3.1833332520e+003,3.1191025391e+003,3.1003845215e+003,
2.7578125000e+000,3.2079487305e+003,3.1502563477e+003,3.1124357910e+003,3.0639743652e+003,3.1557692871e+003,3.1111538086e+003,3.1352563477e+003,3.0948718262e+003,3.1466667480e+003,3.2232050781e+003,3.1210256348e+003,3.1819230957e+003,3.1260256348e+003,3.1023076172e+003,
2.7656250000e+000,3.2092307129e+003,3.1528205566e+003,3.1139743652e+003,3.0729487305e+003,3.1610256348e+003,3.1147436523e+003,3.1352563477e+003,3.0941025391e+003,3.1478205566e+003,3.2267949219e+003,3.1248718262e+003,3.1810256348e+003,3.1341025391e+003,3.1052563477e+003,
2.7734375000e+000,3.2079487305e+003,3.1548718262e+003,3.1105129395e+003,3.0850000000e+003,3.1694870605e+003,3.1178205566e+003,3.1328205566e+003,3.0944870605e+003,3.1528205566e+003,3.2310256348e+003,3.1257692871e+003,3.1837180176e+003,3.1400000000e+003,3.1102563477e+003,
2.7812500000e+000,3.2078205566e+003,3.1521794434e+003,3.1070512695e+003,3.0743588867e+003,3.1535898438e+003,3.1185898438e+003,3.1343588867e+003,3.0933332520e+003,3.1601281738e+003,3.2321794434e+003,3.1261538086e+003,3.1875642090e+003,3.1332050781e+003,3.1084614258e+003,
2.7890625000e+000,3.2176923828e+003,3.1610256348e+003,3.1178205566e+003,3.0752563477e+003,3.1561538086e+003,3.1293588867e+003,3.1448718262e+003,3.1035898438e+003,3.1700000000e+003,3.2425642090e+003,3.1328205566e+003,3.1953845215e+003,3.1420512695e+003,3.1151281738e+003,
2.7968750000e+000,3.2335898438e+003,3.1769230957e+003,3.1351281738e+003,3.0848718262e+003,3.1706411133e+003,3.1453845215e+003,3.1608974609e+003,3.1211538086e+003,3.1841025391e+003,3.2592307129e+003,3.1438461914e+003,3.2105129395e+003,3.1571794434e+003,3.1291025391e+003,
2.8046875000e+000,3.2521794434e+003,3.1961538086e+003,3.1548718262e+003,3.1035898438e+003,3.1948718262e+003,3.1632050781e+003,3.1791025391e+003,3.1425642090e+003,3.1997436523e+003,3.2784614258e+003,3.1580769043e+003,3.2306411133e+003,3.1747436523e+003,3.1478205566e+003,
2.8125000000e+000,3.2633332520e+003,3.2179487305e+003,3.1753845215e+003,3.1432050781e+003,3.2410256348e+003,3.1761538086e+003,3.2032050781e+003,3.1802563477e+003,3.2238461914e+003,3.3091025391e+003,3.2042307129e+003,3.2585898438e+003,3.2029487305e+003,3.1753845215e+003,
2.8203125000e+000,3.2588461914e+003,3.2138461914e+003,3.1760256348e+003,3.1329487305e+003,3.2276923828e+003,3.1685898438e+003,3.2015385742e+003,3.1793588867e+003,3.2207692871e+003,3.3073076172e+003,3.2039743652e+003,3.2583332520e+003,3.2015385742e+003,3.1732050781e+003,
2.8281250000e+000,3.2882050781e+003,3.2320512695e+003,3.2058974609e+003,3.1541025391e+003,3.2192307129e+003,3.1715385742e+003,3.2143588867e+003,3.1962819824e+003,3.2311538086e+003,3.3197436523e+003,3.2103845215e+003,3.2878205566e+003,3.2134614258e+003,3.1942307129e+003,
2.8359375000e+000,3.2665385742e+003,3.2128205566e+003,3.1824357910e+003,3.1394870605e+003,3.2116667480e+003,3.1507692871e+003,3.1921794434e+003,3.1779487305e+003,3.2096154785e+003,3.3037180176e+003,3.2132050781e+003,3.2705129395e+003,3.1987180176e+003,3.1811538086e+003,
2.8437500000e+000,3.2506411133e+003,3.2016667480e+003,3.1682050781e+003,3.1188461914e+003,3.2044870605e+003,3.1412819824e+003,3.1811538086e+003,3.1641025391e+003,3.1985898438e+003,3.2919230957e+003,3.2028205566e+003,3.2569230957e+003,3.1911538086e+003,3.1703845215e+003,
2.8515625000e+000,3.2291025391e+003,3.1842307129e+003,3.1426923828e+003,3.0911538086e+003,3.1811538086e+003,3.1319230957e+003,3.1678205566e+003,3.1420512695e+003,3.1837180176e+003,3.2728205566e+003,3.1660256348e+003,3.2303845215e+003,3.1779487305e+003,3.1501281738e+003,
2.8593750000e+000,3.2266667480e+003,3.1812819824e+003,3.1416667480e+003,3.0887180176e+003,3.1739743652e+003,3.1328205566e+003,3.1665385742e+003,3.1383332520e+003,3.1802563477e+003,3.2703845215e+003,3.1610256348e+003,3.2267949219e+003,3.1730769043e+003,3.1467949219e+003,
2.8671875000e+000,3.2291025391e+003,3.1838461914e+003,3.1462819824e+003,3.0987180176e+003,3.1848718262e+003,3.1423076172e+003,3.1689743652e+003,3.1358974609e+003,3.1834614258e+003,3.2729487305e+003,3.1606411133e+003,3.2288461914e+003,3.1682050781e+003,3.1458974609e+003,
2.8750000000e+000,3.2310256348e+003,3.1880769043e+003,3.1479487305e+003,3.1105129395e+003,3.1994870605e+003,3.1493588867e+003,3.1729487305e+003,3.1371794434e+003,3.1889743652e+003,3.2750000000e+003,3.1588461914e+003,3.2315385742e+003,3.1676923828e+003,3.1469230957e+003,
2.8828125000e+000,3.2073076172e+003,3.1779487305e+003,3.1317949219e+003,3.1024357910e+003,3.1973076172e+003,3.1424357910e+003,3.1625642090e+003,3.1233332520e+003,3.1751281738e+003,3.2530769043e+003,3.1429487305e+003,3.2089743652e+003,3.1428205566e+003,3.1257692871e+003,
2.8906250000e+000,3.1953845215e+003,3.1665385742e+003,3.1200000000e+003,3.0874357910e+003,3.1832050781e+003,3.1315385742e+003,3.1521794434e+003,3.1123076172e+003,3.1644870605e+003,3.2426923828e+003,3.1394870605e+003,3.1933332520e+003,3.1297436523e+003,3.1130769043e+003,
2.8984375000e+000,3.2008974609e+003,3.1664101563e+003,3.1197436523e+003,3.0958974609e+003,3.1834614258e+003,3.1398718262e+003,3.1584614258e+003,3.1162819824e+003,3.1744870605e+003,3.2474357910e+003,3.1360256348e+003,3.1908974609e+003,3.1376923828e+003,3.1166667480e+003,
2.9062500000e+000,3.2171794434e+003,3.1834614258e+003,3.1356411133e+003,3.1134614258e+003,3.2015385742e+003,3.1558974609e+003,3.1743588867e+003,3.1347436523e+003,3.1893588867e+003,3.2600000000e+003,3.1417949219e+003,3.2082050781e+003,3.1546154785e+003,3.1328205566e+003,
2.9140625000e+000,3.2448718262e+003,3.2160256348e+003,3.1670512695e+003,3.1348718262e+003,3.2271794434e+003,3.1765385742e+003,3.1983332520e+003,3.1657692871e+003,3.2087180176e+003,3.2820512695e+003,3.1634614258e+003,3.2383332520e+003,3.1770512695e+003,3.1600000000e+003,
2.9218750000e+000,3.2508974609e+003,3.2228205566e+003,3.1776923828e+003,3.1348718262e+003,3.2266667480e+003,3.1782050781e+003,3.2021794434e+003,3.1700000000e+003,3.2101281738e+003,3.2876923828e+003,3.1744870605e+003,3.2451281738e+003,3.1803845215e+003,3.1665385742e+003,
2.9296875000e+000,3.2557692871e+003,3.2257692871e+003,3.1861538086e+003,3.1329487305e+003,3.2247436523e+003,3.1789743652e+003,3.2043588867e+003,3.1708974609e+003,3.2108974609e+003,3.2933332520e+003,3.1856411133e+003,3.2498718262e+003,3.1839743652e+003,3.1716667480e+003,
2.9375000000e+000,3.2674357910e+003,3.2375642090e+003,3.1960256348e+003,3.1483332520e+003,3.2301281738e+003,3.1674357910e+003,3.2052563477e+003,3.1846154785e+003,3.2170512695e+003,3.3051281738e+003,3.2041025391e+003,3.2726923828e+003,3.1946154785e+003,3.1847436523e+003,
2.9453125000e+000,3.2589743652e+003,3.2306411133e+003,3.1901281738e+003,3.1464101563e+003,3.2079487305e+003,3.1579487305e+003,3.1980769043e+003,3.1766667480e+003,3.2115385742e+003,3.2969230957e+003,3.1935898438e+003,3.2676923828e+003,3.1867949219e+003,3.1784614258e+003,
2.9531250000e+000,3.2510256348e+003,3.2157692871e+003,3.1807692871e+003,3.1285898438e+003,3.2138461914e+003,3.1696154785e+003,3.1985898438e+003,3.1728205566e+003,3.2173076172e+003,3.3024357910e+003,3.1929487305e+003,3.2584614258e+003,3.1948718262e+003,3.1741025391e+003,
2.9609375000e+000,3.2567949219e+003,3.2308974609e+003,3.1852563477e+003,3.1315385742e+003,3.2557692871e+003,3.1864101563e+003,3.2066667480e+003,3.1774357910e+003,3.2271794434e+003,3.3067949219e+003,3.2069230957e+003,3.2628205566e+003,3.2060256348e+003,3.1869230957e+003,
2.9687500000e+000,3.2551281738e+003,3.2335898438e+003,3.1843588867e+003,3.1376923828e+003,3.2443588867e+003,3.1865385742e+003,3.2056411133e+003,3.1743588867e+003,3.2258974609e+003,3.3044870605e+003,3.2066667480e+003,3.2617949219e+003,3.2035898438e+003,3.1852563477e+003,
2.9765625000e+000,3.2533332520e+003,3.2328205566e+003,3.1846154785e+003,3.1426923828e+003,3.2353845215e+003,3.1924357910e+003,3.2130769043e+003,3.1721794434e+003,3.2305129395e+003,3.3116667480e+003,3.1946154785e+003,3.2648718262e+003,3.2023076172e+003,3.1792307129e+003,
2.9843750000e+000,3.2612819824e+003,3.2417949219e+003,3.1932050781e+003,3.1448718262e+003,3.2542307129e+003,3.2021794434e+003,3.2208974609e+003,3.1805129395e+003,3.2419230957e+003,3.3255129395e+003,3.2005129395e+003,3.2728205566e+003,3.2137180176e+003,3.1884614258e+003,
2.9921875000e+000,3.2725642090e+003,3.2569230957e+003,3.2085898438e+003,3.1547436523e+003,3.2784614258e+003,3.2189743652e+003,3.2323076172e+003,3.1988461914e+003,3.2606411133e+003,3.3476923828e+003,3.2235898438e+003,3.2887180176e+003,3.2371794434e+003,3.2082050781e+003,
3.0000000000e+000,3.2702563477e+003,3.2560256348e+003,3.2089743652e+003,3.1617949219e+003,3.2756411133e+003,3.2203845215e+003,3.2342307129e+003,3.2025642090e+003,3.2624357910e+003,3.3483332520e+003,3.2328205566e+003,3.2925642090e+003,3.2402563477e+003,3.2103845215e+003,
3.0078125000e+000,3.2670512695e+003,3.2578205566e+003,3.2044870605e+003,3.1687180176e+003,3.2601281738e+003,3.2201281738e+003,3.2388461914e+003,3.2025642090e+003,3.2601281738e+003,3.3421794434e+003,3.2371794434e+003,3.2947436523e+003,3.2430769043e+003,3.2053845215e+003,
3.0156250000e+000,3.2789743652e+003,3.2693588867e+003,3.2134614258e+003,3.1664101563e+003,3.2678205566e+003,3.2257692871e+003,3.2443588867e+003,3.2080769043e+003,3.2646154785e+003,3.3491025391e+003,3.2357692871e+003,3.3046154785e+003,3.2512819824e+003,3.2128205566e+003,
3.0234375000e+000,3.3142307129e+003,3.2967949219e+003,3.2519230957e+003,3.1760256348e+003,3.3050000000e+003,3.2392307129e+003,3.2607692871e+003,3.2310256348e+003,3.2767949219e+003,3.3715385742e+003,3.2497436523e+003,3.3400000000e+003,3.2742307129e+003,3.2434614258e+003,
3.0312500000e+000,3.3093588867e+003,3.2921794434e+003,3.2510256348e+003,3.1782050781e+003,3.3006411133e+003,3.2344870605e+003,3.2576923828e+003,3.2269230957e+003,3.2693588867e+003,3.3679487305e+003,3.2535898438e+003,3.3356411133e+003,3.2735898438e+003,3.2407692871e+003,
3.0390625000e+000,3.2938461914e+003,3.2828205566e+003,3.2380769043e+003,3.1775642090e+003,3.2792307129e+003,3.2175642090e+003,3.2462819824e+003,3.2078205566e+003,3.2510256348e+003,3.3544870605e+003,3.2579487305e+003,3.3247436523e+003,3.2650000000e+003,3.2296154785e+003,
3.0468750000e+000,3.2980769043e+003,3.2898718262e+003,3.2400000000e+003,3.1782050781e+003,3.2801281738e+003,3.2144870605e+003,3.2466667480e+003,3.2075642090e+003,3.2535898438e+003,3.3570512695e+003,3.2651281738e+003,3.3316667480e+003,3.2673076172e+003,3.2335898438e+003,
3.0546875000e+000,3.3106411133e+003,3.3029487305e+003,3.2498718262e+003,3.1792307129e+003,3.2911538086e+003,3.2182050781e+003,3.2529487305e+003,3.2175642090e+003,3.2660256348e+003,3.3675642090e+003,3.2741025391e+003,3.3453845215e+003,3.2764101563e+003,3.2443588867e+003,
3.0625000000e+000,3.3170512695e+003,3.3092307129e+003,3.2626923828e+003,3.2119230957e+003,3.3193588867e+003,3.2593588867e+003,3.2843588867e+003,3.2552563477e+003,3.3098718262e+003,3.3901281738e+003,3.2752563477e+003,3.3533332520e+003,3.2930769043e+003,3.2584614258e+003,
3.0703125000e+000,3.3084614258e+003,3.3083332520e+003,3.2547436523e+003,3.2142307129e+003,3.3148718262e+003,3.2619230957e+003,3.2832050781e+003,3.2512819824e+003,3.3097436523e+003,3.3908974609e+003,3.2801281738e+003,3.3492307129e+003,3.2888461914e+003,3.2546154785e+003,
3.0781250000e+000,3.3025642090e+003,3.3055129395e+003,3.2493588867e+003,3.1978205566e+003,3.2994870605e+003,3.2667949219e+003,3.2805129395e+003,3.2455129395e+003,3.3035898438e+003,3.3947436523e+003,3.2808974609e+003,3.3421794434e+003,3.2883332520e+003,3.2480769043e+003,
3.0859375000e+000,3.3056411133e+003,3.3066667480e+003,3.2503845215e+003,3.1953845215e+003,3.3092307129e+003,3.2723076172e+003,3.2839743652e+003,3.2500000000e+003,3.3058974609e+003,3.3957692871e+003,3.2776923828e+003,3.3393588867e+003,3.2910256348e+003,3.2467949219e+003,
3.0937500000e+000,3.3014101563e+003,3.3110256348e+003,3.2420512695e+003,3.1829487305e+003,3.3365385742e+003,3.2793588867e+003,3.2885898438e+003,3.2555129395e+003,3.3142307129e+003,3.3947436523e+003,3.2735898438e+003,3.3350000000e+003,3.2882050781e+003,3.2412819824e+003,
3.1015625000e+000,3.3185898438e+003,3.3276923828e+003,3.2632050781e+003,3.1976923828e+003,3.3497436523e+003,3.2917949219e+003,3.2928205566e+003,3.2597436523e+003,3.3269230957e+003,3.4178205566e+003,3.2960256348e+003,3.3570512695e+003,3.3083332520e+003,3.2670512695e+003,
3.1093750000e+000,3.3297436523e+003,3.3373076172e+003,3.2735898438e+003,3.2162819824e+003,3.3594870605e+003,3.2958974609e+003,3.2974357910e+003,3.2662819824e+003,3.3344870605e+003,3.4252563477e+003,3.3029487305e+003,3.3629487305e+003,3.3173076172e+003,3.2738461914e+003,
3.1171875000e+000,3.3333332520e+003,3.3432050781e+003,3.2794870605e+003,3.2324357910e+003,3.3588461914e+003,3.2930769043e+003,3.2975642090e+003,3.2662819824e+003,3.3319230957e+003,3.4184614258e+003,3.3007692871e+003,3.3651281738e+003,3.3150000000e+003,3.2726923828e+003,
3.1250000000e+000,3.3301281738e+003,3.3406411133e+003,3.2792307129e+003,3.2366667480e+003,3.3496154785e+003,3.2884614258e+003,3.2946154785e+003,3.2606411133e+003,3.3226923828e+003,3.4116667480e+003,3.2982050781e+003,3.3661538086e+003,3.3102563477e+003,3.2715385742e+003,
3.1328125000e+000,3.3376923828e+003,3.3489743652e+003,3.2911538086e+003,3.2735898438e+003,3.3508974609e+003,3.2860256348e+003,3.3002563477e+003,3.2598718262e+003,3.3143588867e+003,3.4223076172e+003,3.3194870605e+003,3.3874357910e+003,3.3171794434e+003,3.2891025391e+003,
3.1406250000e+000,3.3437180176e+003,3.3547436523e+003,3.2973076172e+003,3.2794870605e+003,3.3553845215e+003,3.2883332520e+003,3.3071794434e+003,3.2660256348e+003,3.3188461914e+003,3.4292307129e+003,3.3276923828e+003,3.3947436523e+003,3.3228205566e+003,3.2947436523e+003,
3.1484375000e+000,3.3392307129e+003,3.3538461914e+003,3.2960256348e+003,3.2579487305e+003,3.3417949219e+003,3.2866667480e+003,3.3184614258e+003,3.2773076172e+003,3.3176923828e+003,3.4234614258e+003,3.3223076172e+003,3.3924357910e+003,3.3293588867e+003,3.2874357910e+003,
3.1562500000e+000,3.3357692871e+003,3.3529487305e+003,3.2960256348e+003,3.2533332520e+003,3.3439743652e+003,3.2870512695e+003,3.3208974609e+003,3.2816667480e+003,3.3198718262e+003,3.4220512695e+003,3.3215385742e+003,3.3939743652e+003,3.3291025391e+003,3.2885898438e+003,
3.1640625000e+000,3.3423076172e+003,3.3565385742e+003,3.3087180176e+003,3.2547436523e+003,3.3670512695e+003,3.2958974609e+003,3.3301281738e+003,3.3001281738e+003,3.3434614258e+003,3.4369230957e+003,3.3355129395e+003,3.4089743652e+003,3.3301281738e+003,3.3026923828e+003,
3.1718750000e+000,3.3480769043e+003,3.3576923828e+003,3.3147436523e+003,3.2561538086e+003,3.3773076172e+003,3.3025642090e+003,3.3344870605e+003,3.3105129395e+003,3.3579487305e+003,3.4469230957e+003,3.3415385742e+003,3.4128205566e+003,3.3312819824e+003,3.3066667480e+003,
3.1796875000e+000,3.3503845215e+003,3.3570512695e+003,3.3153845215e+003,3.2583332520e+003,3.3823076172e+003,3.3092307129e+003,3.3376923828e+003,3.3178205566e+003,3.3676923828e+003,3.4529487305e+003,3.3411538086e+003,3.4100000000e+003,3.3325642090e+003,3.3055129395e+003,
3.1875000000e+000,3.3443588867e+003,3.3744870605e+003,3.3066667480e+003,3.2916667480e+003,3.3714101563e+003,3.3287180176e+003,3.3457692871e+003,3.3265385742e+003,3.3847436523e+003,3.4635898438e+003,3.3403845215e+003,3.4007692871e+003,3.3411538086e+003,3.3103845215e+003,
3.1953125000e+000,3.3455129395e+003,3.3738461914e+003,3.3062819824e+003,3.2875642090e+003,3.3708974609e+003,3.3284614258e+003,3.3428205566e+003,3.3252563477e+003,3.3847436523e+003,3.4628205566e+003,3.3417949219e+003,3.4017949219e+003,3.3387180176e+003,3.3121794434e+003,
3.2031250000e+000,3.3455129395e+003,3.3679487305e+003,3.3091025391e+003,3.2641025391e+003,3.3914101563e+003,3.3356411133e+003,3.3444870605e+003,3.3110256348e+003,3.3857692871e+003,3.4578205566e+003,3.3337180176e+003,3.3960256348e+003,3.3402563477e+003,3.3107692871e+003,
3.2109375000e+000,3.3457692871e+003,3.3687180176e+003,3.3120512695e+003,3.2596154785e+003,3.3928205566e+003,3.3369230957e+003,3.3458974609e+003,3.3069230957e+003,3.3862819824e+003,3.4591025391e+003,3.3325642090e+003,3.3943588867e+003,3.3411538086e+003,3.3094870605e+003,
3.2187500000e+000,3.3484614258e+003,3.3706411133e+003,3.3119230957e+003,3.2600000000e+003,3.3825642090e+003,3.3357692871e+003,3.3393588867e+003,3.3003845215e+003,3.3770512695e+003,3.4588461914e+003,3.3334614258e+003,3.3939743652e+003,3.3396154785e+003,3.3114101563e+003,
3.2265625000e+000,3.3538461914e+003,3.3757692871e+003,3.3133332520e+003,3.2764101563e+003,3.4032050781e+003,3.3320512695e+003,3.3348718262e+003,3.2860256348e+003,3.3561538086e+003,3.4492307129e+003,3.3394870605e+003,3.4085898438e+003,3.3438461914e+003,3.3202563477e+003,
3.2343750000e+000,3.3570512695e+003,3.3779487305e+003,3.3229487305e+003,3.2797436523e+003,3.4041025391e+003,3.3276923828e+003,3.3373076172e+003,3.2839743652e+003,3.3530769043e+003,3.4501281738e+003,3.3524357910e+003,3.4201281738e+003,3.3447436523e+003,3.3255129395e+003,
3.2421875000e+000,3.3676923828e+003,3.3880769043e+003,3.3379487305e+003,3.2907692871e+003,3.3975642090e+003,3.3225642090e+003,3.3382050781e+003,3.2932050781e+003,3.3537180176e+003,3.4600000000e+003,3.3747436523e+003,3.4371794434e+003,3.3585898438e+003,3.3406411133e+003,
3.2500000000e+000,3.3707692871e+003,3.3916667480e+003,3.3380769043e+003,3.2975642090e+003,3.3929487305e+003,3.3206411133e+003,3.3378205566e+003,3.3011538086e+003,3.3564101563e+003,3.4644870605e+003,3.3744870605e+003,3.4373076172e+003,3.3682050781e+003,3.3447436523e+003,
3.2578125000e+000,3.3625642090e+003,3.3775642090e+003,3.3279487305e+003,3.3032050781e+003,3.3756411133e+003,3.3076923828e+003,3.3394870605e+003,3.3111538086e+003,3.3569230957e+003,3.4538461914e+003,3.3492307129e+003,3.4258974609e+003,3.3658974609e+003,3.3335898438e+003,
3.2656250000e+000,3.3603845215e+003,3.3757692871e+003,3.3265385742e+003,3.3019230957e+003,3.3771794434e+003,3.3089743652e+003,3.3426923828e+003,3.3158974609e+003,3.3594870605e+003,3.4533332520e+003,3.3502563477e+003,3.4265385742e+003,3.3598718262e+003,3.3301281738e+003,
3.2734375000e+000,3.3588461914e+003,3.3833332520e+003,3.3252563477e+003,3.2988461914e+003,3.3774357910e+003,3.3224357910e+003,3.3501281738e+003,3.3342307129e+003,3.3756411133e+003,3.4638461914e+003,3.3606411133e+003,3.4296154785e+003,3.3532050781e+003,3.3278205566e+003,
3.2812500000e+000,3.3566667480e+003,3.3817949219e+003,3.3260256348e+003,3.2942307129e+003,3.3687180176e+003,3.3228205566e+003,3.3496154785e+003,3.3329487305e+003,3.3758974609e+003,3.4603845215e+003,3.3547436523e+003,3.4246154785e+003,3.3493588867e+003,3.3250000000e+003,
3.2890625000e+000,3.3520512695e+003,3.3767949219e+003,3.3253845215e+003,3.2860256348e+003,3.3689743652e+003,3.3276923828e+003,3.3493588867e+003,3.3261538086e+003,3.3746154785e+003,3.4534614258e+003,3.3488461914e+003,3.4143588867e+003,3.3439743652e+003,3.3200000000e+003,
3.2968750000e+000,3.3496154785e+003,3.3742307129e+003,3.3233332520e+003,3.2894870605e+003,3.3824357910e+003,3.3335898438e+003,3.3507692871e+003,3.3264101563e+003,3.3762819824e+003,3.4546154785e+003,3.3501281738e+003,3.4130769043e+003,3.3455129395e+003,3.3185898438e+003,
3.3046875000e+000,3.3467949219e+003,3.3714101563e+003,3.3210256348e+003,3.3000000000e+003,3.3983332520e+003,3.3384614258e+003,3.3524357910e+003,3.3289743652e+003,3.3787180176e+003,3.4576923828e+003,3.3498718262e+003,3.4133332520e+003,3.3497436523e+003,3.3175642090e+003,
3.3125000000e+000,3.3385898438e+003,3.3817949219e+003,3.3124357910e+003,3.3069230957e+003,3.3989743652e+003,3.3447436523e+003,3.3551281738e+003,3.3191025391e+003,3.3837180176e+003,3.4674357910e+003,3.3479487305e+003,3.4051281738e+003,3.3530769043e+003,3.3205129395e+003,
3.3203125000e+000,3.3397436523e+003,3.3819230957e+003,3.3151281738e+003,3.3056411133e+003,3.3993588867e+003,3.3492307129e+003,3.3561538086e+003,3.3201281738e+003,3.3883332520e+003,3.4703845215e+003,3.3512819824e+003,3.4079487305e+003,3.3512819824e+003,3.3217949219e+003,
3.3281250000e+000,3.3521794434e+003,3.3779487305e+003,3.3224357910e+003,3.3230769043e+003,3.4067949219e+003,3.3485898438e+003,3.3551281738e+003,3.3255129395e+003,3.3966667480e+003,3.4720512695e+003,3.3551281738e+003,3.4117949219e+003,3.3603845215e+003,3.3267949219e+003,
3.3359375000e+000,3.3532050781e+003,3.3765385742e+003,3.3239743652e+003,3.3153845215e+003,3.4029487305e+003,3.3416667480e+003,3.3507692871e+003,3.3205129395e+003,3.3905129395e+003,3.4671794434e+003,3.3562819824e+003,3.4124357910e+003,3.3602563477e+003,3.3282050781e+003,
3.3437500000e+000,3.3537180176e+003,3.3815385742e+003,3.3305129395e+003,3.2953845215e+003,3.3887180176e+003,3.3330769043e+003,3.3451281738e+003,3.3108974609e+003,3.3782050781e+003,3.4656411133e+003,3.3617949219e+003,3.4244870605e+003,3.3610256348e+003,3.3362819824e+003,
3.3515625000e+000,3.3728205566e+003,3.3994870605e+003,3.3534614258e+003,3.3344870605e+003,3.3956411133e+003,3.3373076172e+003,3.3566667480e+003,3.3165385742e+003,3.3816667480e+003,3.4761538086e+003,3.3624357910e+003,3.4438461914e+003,3.3737180176e+003,3.3502563477e+003,
3.3593750000e+000,3.3729487305e+003,3.3947436523e+003,3.3542307129e+003,3.3393588867e+003,3.4029487305e+003,3.3317949219e+003,3.3534614258e+003,3.3171794434e+003,3.3789743652e+003,3.4697436523e+003,3.3638461914e+003,3.4385898438e+003,3.3684614258e+003,3.3467949219e+003,
3.3671875000e+000,3.3683332520e+003,3.3901281738e+003,3.3474357910e+003,3.3405129395e+003,3.4103845215e+003,3.3261538086e+003,3.3516667480e+003,3.3275642090e+003,3.3801281738e+003,3.4666667480e+003,3.3705129395e+003,3.4342307129e+003,3.3643588867e+003,3.3456411133e+003,
3.3750000000e+000,3.3687180176e+003,3.3935898438e+003,3.3464101563e+003,3.3415385742e+003,3.4093588867e+003,3.3316667480e+003,3.3593588867e+003,3.3383332520e+003,3.3873076172e+003,3.4729487305e+003,3.3742307129e+003,3.4393588867e+003,3.3698718262e+003,3.3517949219e+003,
3.3828125000e+000,3.3839743652e+003,3.4047436523e+003,3.3566667480e+003,3.3491025391e+003,3.4075642090e+003,3.3535898438e+003,3.3819230957e+003,3.3611538086e+003,3.4093588867e+003,3.4888461914e+003,3.3851281738e+003,3.4539743652e+003,3.3870512695e+003,3.3673076172e+003,
3.3906250000e+000,3.3828205566e+003,3.4030769043e+003,3.3546154785e+003,3.3506411133e+003,3.4098718262e+003,3.3528205566e+003,3.3792307129e+003,3.3601281738e+003,3.4080769043e+003,3.4860256348e+003,3.3828205566e+003,3.4494870605e+003,3.3856411133e+003,3.3615385742e+003,
3.3984375000e+000,3.3710256348e+003,3.4056411133e+003,3.3464101563e+003,3.3505129395e+003,3.4178205566e+003,3.3571794434e+003,3.3823076172e+003,3.3593588867e+003,3.4092307129e+003,3.4880769043e+003,3.3792307129e+003,3.4392307129e+003,3.3850000000e+003,3.3506411133e+003,
3.4062500000e+000,3.3728205566e+003,3.4098718262e+003,3.3496154785e+003,3.3524357910e+003,3.4237180176e+003,3.3657692871e+003,3.3893588867e+003,3.3620512695e+003,3.4146154785e+003,3.4942307129e+003,3.3857692871e+003,3.4410256348e+003,3.3884614258e+003,3.3534614258e+003,
3.4140625000e+000,3.3824357910e+003,3.4128205566e+003,3.3564101563e+003,3.3629487305e+003,3.4344870605e+003,3.3805129395e+003,3.3988461914e+003,3.3628205566e+003,3.4200000000e+003,3.4983332520e+003,3.3908974609e+003,3.4474357910e+003,3.3930769043e+003,3.3620512695e+003,
3.4218750000e+000,3.3897436523e+003,3.4151281738e+003,3.3605129395e+003,3.3723076172e+003,3.4373076172e+003,3.3839743652e+003,3.4010256348e+003,3.3625642090e+003,3.4226923828e+003,3.4983332520e+003,3.3883332520e+003,3.4519230957e+003,3.3962819824e+003,3.3680769043e+003,
3.4296875000e+000,3.3979487305e+003,3.4208974609e+003,3.3661538086e+003,3.3828205566e+003,3.4392307129e+003,3.3855129395e+003,3.4025642090e+003,3.3639743652e+003,3.4280769043e+003,3.5014101563e+003,3.3876923828e+003,3.4566667480e+003,3.4006411133e+003,3.3743588867e+003,
