Time (s);AF3;F7;F3;FC5;T7;P7;O1;O2;P8;T8;FC6;F4;F8;AF4;Sampling Rate
0.0000000000e+000;4.1682050781e+003;4.0283332520e+003;4.0884614258e+003;4.1587177734e+003;4.0746154785e+003;4.0784614258e+003;4.0893588867e+003;4.0957692871e+003;4.0843588867e+003;4.1062822266e+003;4.0761538086e+003;4.0843588867e+003;4.1112822266e+003;4.1708974609e+003;128
7.8125000000e-003;4.2255126953e+003;4.0848718262e+003;4.1455126953e+003;4.2093588867e+003;4.1255126953e+003;4.1157690430e+003;4.1358974609e+003;4.1462822266e+003;4.1362822266e+003;4.1592309570e+003;4.1334614258e+003;4.1405126953e+003;4.1689741211e+003;4.2275639648e+003;
1.5625000000e-002;4.2329487305e+003;4.0902563477e+003;4.1528203125e+003;4.2153847656e+003;4.1329487305e+003;4.1206411133e+003;4.1393588867e+003;4.1569228516e+003;4.1485898438e+003;4.1707690430e+003;4.1423076172e+003;4.1511538086e+003;4.1792309570e+003;4.2375639648e+003;
2.3437500000e-002;4.1262822266e+003;3.9823076172e+003;4.0561538086e+003;4.1155126953e+003;4.0219230957e+003;4.0225642090e+003;4.0396154785e+003;4.0552563477e+003;4.0502563477e+003;4.0597436523e+003;4.0320512695e+003;4.0482050781e+003;4.0656411133e+003;4.1316665039e+003;
3.1250000000e-002;4.1343588867e+003;3.9926923828e+003;4.0673076172e+003;4.1243588867e+003;4.0311538086e+003;4.0326923828e+003;4.0507692871e+003;4.0614101563e+003;4.0576923828e+003;4.0666667480e+003;4.0410256348e+003;4.0555129395e+003;4.0705129395e+003;4.1398715820e+003;
3.9062500000e-002;4.1443588867e+003;4.0050000000e+003;4.0794870605e+003;4.1346152344e+003;4.0458974609e+003;4.0539743652e+003;4.0667949219e+003;4.0683332520e+003;4.0641025391e+003;4.0771794434e+003;4.0521794434e+003;4.0662819824e+003;4.0779487305e+003;4.1514101563e+003;
4.6875000000e-002;4.1348715820e+003;3.9958974609e+003;4.0680769043e+003;4.1246152344e+003;4.0393588867e+003;4.0524357910e+003;4.0621794434e+003;4.0569230957e+003;4.0507692871e+003;4.0662819824e+003;4.0407692871e+003;4.0561538086e+003;4.0696154785e+003;4.1408974609e+003;
5.4687500000e-002;4.1397436523e+003;4.0029487305e+003;4.0706411133e+003;4.1285898438e+003;4.0479487305e+003;4.0630769043e+003;4.0729487305e+003;4.0617949219e+003;4.0537180176e+003;4.0721794434e+003;4.0456411133e+003;4.0607692871e+003;4.0784614258e+003;4.1450000000e+003;
6.2500000000e-002;4.1583334961e+003;4.0289743652e+003;4.0905129395e+003;4.1485898438e+003;4.0733332520e+003;4.0879487305e+003;4.1021796875e+003;4.0896154785e+003;4.0825642090e+003;4.1055126953e+003;4.0753845215e+003;4.0861538086e+003;4.1096152344e+003;4.1684614258e+003;
7.0312500000e-002;4.1341025391e+003;4.0057692871e+003;4.0682050781e+003;4.1266665039e+003;4.0489743652e+003;4.0670512695e+003;4.0801281738e+003;4.0680769043e+003;4.0644870605e+003;4.0846154785e+003;4.0539743652e+003;4.0642307129e+003;4.0876923828e+003;4.1465385742e+003;
7.8125000000e-002;4.1053847656e+003;3.9757692871e+003;4.0385898438e+003;4.0988461914e+003;4.0180769043e+003;4.0408974609e+003;4.0505129395e+003;4.0362819824e+003;4.0376923828e+003;4.0516667480e+003;4.0216667480e+003;4.0320512695e+003;4.0567949219e+003;4.1161538086e+003;
8.5937500000e-002;4.1406411133e+003;4.0137180176e+003;4.0646154785e+003;4.1342309570e+003;4.0623076172e+003;4.0825642090e+003;4.0842307129e+003;4.0778205566e+003;4.0814101563e+003;4.0958974609e+003;4.0546154785e+003;4.0579487305e+003;4.0864101563e+003;4.1360258789e+003;
9.3750000000e-002;4.1470512695e+003;4.0232050781e+003;4.0712819824e+003;4.1411538086e+003;4.0717949219e+003;4.0878205566e+003;4.0925642090e+003;4.0866667480e+003;4.0893588867e+003;4.1048715820e+003;4.0650000000e+003;4.0660256348e+003;4.0939743652e+003;4.1437177734e+003;
1.0156250000e-001;4.1969228516e+003;4.0782050781e+003;4.1243588867e+003;4.1874360352e+003;4.1228203125e+003;4.1303847656e+003;4.1357690430e+003;4.1411538086e+003;4.1435898438e+003;4.1602563477e+003;4.1176923828e+003;4.1214101563e+003;4.1497436523e+003;4.2026923828e+003;
1.0937500000e-001;4.2024360352e+003;4.0724357910e+003;4.1305126953e+003;4.1896152344e+003;4.1183334961e+003;4.1197436523e+003;4.1291025391e+003;4.1415385742e+003;4.1397436523e+003;4.1493588867e+003;4.1196152344e+003;4.1284614258e+003;4.1466665039e+003;4.2017949219e+003;
1.1718750000e-001;4.2288461914e+003;4.0994873047e+003;4.1561538086e+003;4.2129487305e+003;4.1408974609e+003;4.1387177734e+003;4.1501284180e+003;4.1669228516e+003;4.1630771484e+003;4.1751284180e+003;4.1474360352e+003;4.1582050781e+003;4.1725639648e+003;4.2276923828e+003;
1.2500000000e-001;4.2303847656e+003;4.1079487305e+003;4.1642309570e+003;4.2117949219e+003;4.1429487305e+003;4.1429487305e+003;4.1562822266e+003;4.1661538086e+003;4.1551284180e+003;4.1706411133e+003;4.1471796875e+003;4.1646152344e+003;4.1765385742e+003;4.2307690430e+003;
1.3281250000e-001;4.2471796875e+003;4.1265385742e+003;4.1832050781e+003;4.2350000000e+003;4.1650000000e+003;4.1721796875e+003;4.1771796875e+003;4.1821796875e+003;4.1706411133e+003;4.1857690430e+003;4.1661538086e+003;4.1862822266e+003;4.1898715820e+003;4.2488461914e+003;
1.4062500000e-001;4.2008974609e+003;4.0789743652e+003;4.1356411133e+003;4.1906411133e+003;4.1185898438e+003;4.1321796875e+003;4.1338461914e+003;4.1323076172e+003;4.1214101563e+003;4.1347436523e+003;4.1182050781e+003;4.1402563477e+003;4.1391025391e+003;4.1984614258e+003;
1.4843750000e-001;4.2019228516e+003;4.0797436523e+003;4.1298715820e+003;4.1855126953e+003;4.1265385742e+003;4.1393588867e+003;4.1453847656e+003;4.1292309570e+003;4.1261538086e+003;4.1360258789e+003;4.1191025391e+003;4.1334614258e+003;4.1458974609e+003;4.1880771484e+003;
1.5625000000e-001;4.2084614258e+003;4.0861538086e+003;4.1347436523e+003;4.1916665039e+003;4.1330771484e+003;4.1479487305e+003;4.1551284180e+003;4.1398715820e+003;4.1388461914e+003;4.1488461914e+003;4.1267949219e+003;4.1410258789e+003;4.1541025391e+003;4.1948715820e+003;
1.6406250000e-001;4.1889741211e+003;4.0684614258e+003;4.1100000000e+003;4.1729487305e+003;4.1116665039e+003;4.1321796875e+003;4.1371796875e+003;4.1166665039e+003;4.1173076172e+003;4.1247436523e+003;4.1029487305e+003;4.1183334961e+003;4.1237177734e+003;4.1698715820e+003;
1.7187500000e-001;4.2038461914e+003;4.0858974609e+003;4.1226923828e+003;4.1851284180e+003;4.1278203125e+003;4.1461538086e+003;4.1482050781e+003;4.1269228516e+003;4.1276923828e+003;4.1347436523e+003;4.1166665039e+003;4.1300000000e+003;4.1344873047e+003;4.1815385742e+003;
1.7968750000e-001;4.2219228516e+003;4.1055126953e+003;4.1415385742e+003;4.2003847656e+003;4.1474360352e+003;4.1637177734e+003;4.1630771484e+003;4.1451284180e+003;4.1455126953e+003;4.1538461914e+003;4.1369228516e+003;4.1484614258e+003;4.1542309570e+003;4.2001284180e+003;
1.8750000000e-001;4.1982050781e+003;4.0784614258e+003;4.1239741211e+003;4.1774360352e+003;4.1216665039e+003;4.1420512695e+003;4.1433334961e+003;4.1343588867e+003;4.1308974609e+003;4.1419228516e+003;4.1185898438e+003;4.1325639648e+003;4.1419228516e+003;4.1824360352e+003;
1.9531250000e-001;4.1939741211e+003;4.0730769043e+003;4.1201284180e+003;4.1741025391e+003;4.1155126953e+003;4.1364101563e+003;4.1417949219e+003;4.1351284180e+003;4.1305126953e+003;4.1403847656e+003;4.1148715820e+003;4.1297436523e+003;4.1398715820e+003;4.1787177734e+003;
2.0312500000e-001;4.2247436523e+003;4.1064101563e+003;4.1492309570e+003;4.2038461914e+003;4.1469228516e+003;4.1641025391e+003;4.1720512695e+003;4.1688461914e+003;4.1644873047e+003;4.1721796875e+003;4.1479487305e+003;4.1600000000e+003;4.1701284180e+003;4.2089741211e+003;
2.1093750000e-001;4.3307690430e+003;4.2452563477e+003;4.2660258789e+003;4.3183334961e+003;4.2542309570e+003;4.2630771484e+003;4.2766665039e+003;4.2839741211e+003;4.2733334961e+003;4.2957690430e+003;4.2716665039e+003;4.2751284180e+003;4.2928203125e+003;4.3232050781e+003;
2.1875000000e-001;4.3387177734e+003;4.2565385742e+003;4.2751284180e+003;4.3269228516e+003;4.2623076172e+003;4.2641025391e+003;4.2810258789e+003;4.2966665039e+003;4.2848715820e+003;4.3088461914e+003;4.2807690430e+003;4.2855126953e+003;4.3052563477e+003;4.3332050781e+003;
2.2656250000e-001;4.2835898438e+003;4.2021796875e+003;4.2238461914e+003;4.2730771484e+003;4.2091025391e+003;4.2101284180e+003;4.2243588867e+003;4.2494873047e+003;4.2382050781e+003;4.2441025391e+003;4.2314101563e+003;4.2346152344e+003;4.2365385742e+003;4.2806411133e+003;
2.3437500000e-001;4.4219228516e+003;4.3544873047e+003;4.3635898438e+003;4.4075639648e+003;4.3496152344e+003;4.3507690430e+003;4.3664101563e+003;4.3807690430e+003;4.3680771484e+003;4.3830771484e+003;4.3619228516e+003;4.3648715820e+003;4.3793588867e+003;4.4124360352e+003;
2.4218750000e-001;4.4164101563e+003;4.3575639648e+003;4.3596152344e+003;4.4042309570e+003;4.3489741211e+003;4.3517949219e+003;4.3646152344e+003;4.3766665039e+003;4.3633334961e+003;4.3810258789e+003;4.3556411133e+003;4.3602563477e+003;4.3807690430e+003;4.4096152344e+003;
2.5000000000e-001;4.4469228516e+003;4.4132050781e+003;4.3957690430e+003;4.4407690430e+003;4.4001284180e+003;4.4026923828e+003;4.4043588867e+003;4.4029487305e+003;4.3953847656e+003;4.4151284180e+003;4.4035898438e+003;4.3991025391e+003;4.4148715820e+003;4.4576923828e+003;
2.5781250000e-001;4.4174360352e+003;4.4058974609e+003;4.3800000000e+003;4.4274360352e+003;4.3803847656e+003;4.3942309570e+003;4.3943588867e+003;4.3879487305e+003;4.3792309570e+003;4.4026923828e+003;4.3893588867e+003;4.3838461914e+003;4.3935898438e+003;4.4374360352e+003;
2.6562500000e-001;4.4174360352e+003;4.4141025391e+003;4.3826923828e+003;4.4297436523e+003;4.3858974609e+003;4.3988461914e+003;4.4007690430e+003;4.3902563477e+003;4.3816665039e+003;4.4064101563e+003;4.3907690430e+003;4.3832050781e+003;4.4014101563e+003;4.4396152344e+003;
2.7343750000e-001;4.4474360352e+003;4.4526923828e+003;4.4164101563e+003;4.4614101563e+003;4.4202563477e+003;4.4316665039e+003;4.4337177734e+003;4.4215385742e+003;4.4150000000e+003;4.4411538086e+003;4.4247436523e+003;4.4143588867e+003;4.4398715820e+003;4.4750000000e+003;
2.8125000000e-001;4.4925639648e+003;4.5083334961e+003;4.4688461914e+003;4.5111538086e+003;4.4583334961e+003;4.4771796875e+003;4.4765385742e+003;4.4679487305e+003;4.4628203125e+003;4.4893588867e+003;4.4762822266e+003;4.4670512695e+003;4.4897436523e+003;4.5303847656e+003;
2.8906250000e-001;4.5002563477e+003;4.5167949219e+003;4.4748715820e+003;4.5173076172e+003;4.4569228516e+003;4.4792309570e+003;4.4806411133e+003;4.4739741211e+003;4.4660258789e+003;4.4923076172e+003;4.4826923828e+003;4.4758974609e+003;4.4929487305e+003;4.5379487305e+003;
2.9687500000e-001;4.5625639648e+003;4.5823076172e+003;4.5311538086e+003;4.5673076172e+003;4.5129487305e+003;4.5237177734e+003;4.5362822266e+003;4.5394873047e+003;4.5242309570e+003;4.5567949219e+003;4.5484614258e+003;4.5389741211e+003;4.5537177734e+003;4.6020512695e+003;
3.0468750000e-001;4.5897436523e+003;4.6125639648e+003;4.5612822266e+003;4.5902563477e+003;4.5450000000e+003;4.5480771484e+003;4.5626923828e+003;4.5726923828e+003;4.5565385742e+003;4.5934614258e+003;4.5843588867e+003;4.5698715820e+003;4.5869228516e+003;4.6352563477e+003;
3.1250000000e-001;4.6012822266e+003;4.6326923828e+003;4.5815385742e+003;4.6050000000e+003;4.5664101563e+003;4.5620512695e+003;4.5751284180e+003;4.5869228516e+003;4.5734614258e+003;4.6094873047e+003;4.6125639648e+003;4.5874360352e+003;4.6102563477e+003;4.6517949219e+003;
3.2031250000e-001;4.6248715820e+003;4.6615385742e+003;4.6016665039e+003;4.6288461914e+003;4.5864101563e+003;4.5806411133e+003;4.5962822266e+003;4.6116665039e+003;4.5953847656e+003;4.6310258789e+003;4.6383334961e+003;4.6133334961e+003;4.6339741211e+003;4.6738461914e+003;
3.2812500000e-001;4.6305126953e+003;4.6737177734e+003;4.6071796875e+003;4.6362822266e+003;4.5888461914e+003;4.5841025391e+003;4.6020512695e+003;4.6234614258e+003;4.6025639648e+003;4.6387177734e+003;4.6482050781e+003;4.6251284180e+003;4.6412822266e+003;4.6816665039e+003;
3.3593750000e-001;4.6066665039e+003;4.6562822266e+003;4.5892309570e+003;4.6170512695e+003;4.5660258789e+003;4.5634614258e+003;4.5829487305e+003;4.6076923828e+003;4.5823076172e+003;4.6187177734e+003;4.6296152344e+003;4.6087177734e+003;4.6216665039e+003;4.6633334961e+003;
3.4375000000e-001;4.6288461914e+003;4.6978203125e+003;4.6332050781e+003;4.6539741211e+003;4.6178203125e+003;4.5978203125e+003;4.6201284180e+003;4.6414101563e+003;4.6217949219e+003;4.6562822266e+003;4.6705126953e+003;4.6378203125e+003;4.6683334961e+003;4.7019228516e+003;
3.5156250000e-001;4.5874360352e+003;4.6826923828e+003;4.6067949219e+003;4.6270512695e+003;4.5901284180e+003;4.5864101563e+003;4.5992309570e+003;4.6029487305e+003;4.5901284180e+003;4.6174360352e+003;4.6394873047e+003;4.6026923828e+003;4.6219228516e+003;4.6662822266e+003;
3.5937500000e-001;4.5807690430e+003;4.6829487305e+003;4.6042309570e+003;4.6260258789e+003;4.5912822266e+003;4.5842309570e+003;4.5950000000e+003;4.5967949219e+003;4.5852563477e+003;4.6143588867e+003;4.6362822266e+003;4.5970512695e+003;4.6185898438e+003;4.6623076172e+003;
3.6718750000e-001;4.4858974609e+003;4.5903847656e+003;4.5130771484e+003;4.5480771484e+003;4.5089741211e+003;4.5067949219e+003;4.5094873047e+003;4.5082050781e+003;4.4951284180e+003;4.5223076172e+003;4.5451284180e+003;4.5097436523e+003;4.5270512695e+003;4.5705126953e+003;
3.7500000000e-001;4.4248715820e+003;4.5265385742e+003;4.4576923828e+003;4.4865385742e+003;4.4466665039e+003;4.4747436523e+003;4.4685898438e+003;4.4701284180e+003;4.4655126953e+003;4.4726923828e+003;4.5012822266e+003;4.4520512695e+003;4.4767949219e+003;4.5189741211e+003;
3.8281250000e-001;4.3629487305e+003;4.4606411133e+003;4.3932050781e+003;4.4250000000e+003;4.3828203125e+003;4.4162822266e+003;4.4074360352e+003;4.4064101563e+003;4.4023076172e+003;4.4085898438e+003;4.4391025391e+003;4.3884614258e+003;4.4156411133e+003;4.4576923828e+003;
3.9062500000e-001;4.3164101563e+003;4.4089741211e+003;4.3394873047e+003;4.3771796875e+003;4.3347436523e+003;4.3575639648e+003;4.3510258789e+003;4.3479487305e+003;4.3370512695e+003;4.3497436523e+003;4.3862822266e+003;4.3403847656e+003;4.3642309570e+003;4.4073076172e+003;
3.9843750000e-001;4.3391025391e+003;4.4326923828e+003;4.3633334961e+003;4.3964101563e+003;4.3571796875e+003;4.3705126953e+003;4.3667949219e+003;4.3693588867e+003;4.3538461914e+003;4.3705126953e+003;4.4094873047e+003;4.3662822266e+003;4.3839741211e+003;4.4310258789e+003;
4.0625000000e-001;4.3587177734e+003;4.4525639648e+003;4.3873076172e+003;4.4133334961e+003;4.3729487305e+003;4.3828203125e+003;4.3835898438e+003;4.3932050781e+003;4.3762822266e+003;4.3876923828e+003;4.4367949219e+003;4.3884614258e+003;4.4021796875e+003;4.4550000000e+003;
4.1406250000e-001;4.3715385742e+003;4.4614101563e+003;4.3962822266e+003;4.4256411133e+003;4.3803847656e+003;4.3910258789e+003;4.3934614258e+003;4.4038461914e+003;4.3888461914e+003;4.3982050781e+003;4.4479487305e+003;4.3960258789e+003;4.4167949219e+003;4.4657690430e+003;
4.2187500000e-001;4.3742309570e+003;4.4583334961e+003;4.3966665039e+003;4.4251284180e+003;4.3739741211e+003;4.3862822266e+003;4.3903847656e+003;4.4053847656e+003;4.3910258789e+003;4.3987177734e+003;4.4473076172e+003;4.3951284180e+003;4.4192309570e+003;4.4666665039e+003;
4.2968750000e-001;4.3467949219e+003;4.4242309570e+003;4.3702563477e+003;4.3921796875e+003;4.3353847656e+003;4.3517949219e+003;4.3571796875e+003;4.3783334961e+003;4.3629487305e+003;4.3669228516e+003;4.4160258789e+003;4.3669228516e+003;4.3880771484e+003;4.4375639648e+003;
4.3750000000e-001;4.2612822266e+003;4.3328203125e+003;4.2779487305e+003;4.3028203125e+003;4.2521796875e+003;4.2642309570e+003;4.2635898438e+003;4.2896152344e+003;4.2766665039e+003;4.2737177734e+003;4.3302563477e+003;4.2816665039e+003;4.2884614258e+003;4.3498715820e+003;
4.4531250000e-001;4.2469228516e+003;4.3205126953e+003;4.2601284180e+003;4.2973076172e+003;4.2460258789e+003;4.2526923828e+003;4.2502563477e+003;4.2737177734e+003;4.2612822266e+003;4.2614101563e+003;4.3156411133e+003;4.2667949219e+003;4.2738461914e+003;4.3365385742e+003;
4.5312500000e-001;4.2261538086e+003;4.3016665039e+003;4.2333334961e+003;4.2728203125e+003;4.2393588867e+003;4.2397436523e+003;4.2419228516e+003;4.2455126953e+003;4.2337177734e+003;4.2157690430e+003;4.2921796875e+003;4.2307690430e+003;4.2482050781e+003;4.3053847656e+003;
4.6093750000e-001;4.2379487305e+003;4.3134614258e+003;4.2525639648e+003;4.2911538086e+003;4.2771796875e+003;4.2767949219e+003;4.2732050781e+003;4.2705126953e+003;4.2657690430e+003;4.2478203125e+003;4.3093588867e+003;4.2507690430e+003;4.2760258789e+003;4.3221796875e+003;
4.6875000000e-001;4.2300000000e+003;4.3026923828e+003;4.2448715820e+003;4.2880771484e+003;4.2744873047e+003;4.2723076172e+003;4.2669228516e+003;4.2593588867e+003;4.2562822266e+003;4.2400000000e+003;4.2967949219e+003;4.2416665039e+003;4.2673076172e+003;4.3128203125e+003;
4.7656250000e-001;4.2583334961e+003;4.3200000000e+003;4.2684614258e+003;4.3071796875e+003;4.2961538086e+003;4.2906411133e+003;4.2866665039e+003;4.2769228516e+003;4.2741025391e+003;4.2510258789e+003;4.3212822266e+003;4.2616665039e+003;4.2883334961e+003;4.3339741211e+003;
4.8437500000e-001;4.1664101563e+003;4.2273076172e+003;4.1837177734e+003;4.2161538086e+003;4.2000000000e+003;4.2007690430e+003;4.1939741211e+003;4.1774360352e+003;4.1696152344e+003;4.1494873047e+003;4.2328203125e+003;4.1701284180e+003;4.1874360352e+003;4.2426923828e+003;
4.9218750000e-001;4.1728203125e+003;4.2388461914e+003;4.1883334961e+003;4.2211538086e+003;4.2087177734e+003;4.2057690430e+003;4.1961538086e+003;4.1850000000e+003;4.1756411133e+003;4.1585898438e+003;4.2411538086e+003;4.1767949219e+003;4.1955126953e+003;4.2514101563e+003;
5.0000000000e-001;4.1478203125e+003;4.2046152344e+003;4.1510258789e+003;4.1862822266e+003;4.1525639648e+003;4.1644873047e+003;4.1571796875e+003;4.1616665039e+003;4.1460258789e+003;4.1257690430e+003;4.2114101563e+003;4.1516665039e+003;4.1734614258e+003;4.2243588867e+003;
5.0781250000e-001;4.1717949219e+003;4.2200000000e+003;4.1725639648e+003;4.2066665039e+003;4.1619228516e+003;4.1762822266e+003;4.1753847656e+003;4.1805126953e+003;4.1648715820e+003;4.1439741211e+003;4.2324360352e+003;4.1741025391e+003;4.1951284180e+003;4.2442309570e+003;
5.1562500000e-001;4.2153847656e+003;4.2567949219e+003;4.2223076172e+003;4.2521796875e+003;4.1988461914e+003;4.2058974609e+003;4.2110258789e+003;4.2262822266e+003;4.2139741211e+003;4.1946152344e+003;4.2819228516e+003;4.2223076172e+003;4.2402563477e+003;4.2885898438e+003;
5.2343750000e-001;4.1900000000e+003;4.2312822266e+003;4.1994873047e+003;4.2300000000e+003;4.1761538086e+003;4.1810258789e+003;4.1838461914e+003;4.2041025391e+003;4.1932050781e+003;4.1729487305e+003;4.2597436523e+003;4.1973076172e+003;4.2146152344e+003;4.2643588867e+003;
5.3125000000e-001;4.2223076172e+003;4.2665385742e+003;4.2193588867e+003;4.2528203125e+003;4.2060258789e+003;4.2026923828e+003;4.2043588867e+003;4.2243588867e+003;4.2150000000e+003;4.1901284180e+003;4.2861538086e+003;4.2160258789e+003;4.2294873047e+003;4.2907690430e+003;
5.3906250000e-001;4.2587177734e+003;4.3043588867e+003;4.2565385742e+003;4.2871796875e+003;4.2432050781e+003;4.2358974609e+003;4.2400000000e+003;4.2602563477e+003;4.2492309570e+003;4.2243588867e+003;4.3200000000e+003;4.2550000000e+003;4.2639741211e+003;4.3273076172e+003;
5.4687500000e-001;4.2526923828e+003;4.2978203125e+003;4.2551284180e+003;4.2834614258e+003;4.2397436523e+003;4.2326923828e+003;4.2375639648e+003;4.2564101563e+003;4.2426923828e+003;4.2161538086e+003;4.3094873047e+003;4.2524360352e+003;4.2597436523e+003;4.3212822266e+003;
5.5468750000e-001;4.2120512695e+003;4.2539741211e+003;4.2179487305e+003;4.2465385742e+003;4.2012822266e+003;4.1991025391e+003;4.2021796875e+003;4.2169228516e+003;4.2006411133e+003;4.1701284180e+003;4.2611538086e+003;4.2106411133e+003;4.2219228516e+003;4.2779487305e+003;
5.6250000000e-001;4.0842307129e+003;4.1161538086e+003;4.0776923828e+003;4.1220512695e+003;4.0719230957e+003;4.1008974609e+003;4.0876923828e+003;4.0823076172e+003;4.0643588867e+003;4.0220512695e+003;4.1123076172e+003;4.0652563477e+003;4.0760256348e+003;4.1343588867e+003;
5.7031250000e-001;4.0701281738e+003;4.1020512695e+003;4.0639743652e+003;4.1106411133e+003;4.0601281738e+003;4.0946154785e+003;4.0828205566e+003;4.0706411133e+003;4.0537180176e+003;4.0094870605e+003;4.0998715820e+003;4.0544870605e+003;4.0587180176e+003;4.1220512695e+003;
5.7812500000e-001;4.1125639648e+003;4.1419228516e+003;4.1066665039e+003;4.1496152344e+003;4.0882050781e+003;4.1425639648e+003;4.1338461914e+003;4.1207690430e+003;4.1108974609e+003;4.0665385742e+003;4.1437177734e+003;4.1016665039e+003;4.1125639648e+003;4.1707690430e+003;
5.8593750000e-001;4.0500000000e+003;4.0628205566e+003;4.0291025391e+003;4.0692307129e+003;4.0126923828e+003;4.0558974609e+003;4.0433332520e+003;4.0294870605e+003;4.0184614258e+003;3.9747436523e+003;4.0605129395e+003;4.0234614258e+003;4.0334614258e+003;4.0888461914e+003;
5.9375000000e-001;4.0607692871e+003;4.0682050781e+003;4.0358974609e+003;4.0765385742e+003;4.0234614258e+003;4.0561538086e+003;4.0444870605e+003;4.0319230957e+003;4.0225642090e+003;3.9792307129e+003;4.0698718262e+003;4.0316667480e+003;4.0388461914e+003;4.0973076172e+003;
6.0156250000e-001;4.0135898438e+003;4.0196154785e+003;3.9932050781e+003;4.0369230957e+003;3.9548718262e+003;4.0015385742e+003;3.9914101563e+003;3.9846154785e+003;3.9734614258e+003;3.9365385742e+003;4.0329487305e+003;3.9921794434e+003;3.9955129395e+003;4.0611538086e+003;
6.0937500000e-001;4.0720512695e+003;4.0752563477e+003;4.0432050781e+003;4.0838461914e+003;4.0191025391e+003;4.0373076172e+003;4.0323076172e+003;4.0282050781e+003;4.0155129395e+003;3.9843588867e+003;4.0751281738e+003;4.0411538086e+003;4.0578205566e+003;4.1114101563e+003;
6.1718750000e-001;4.0653845215e+003;4.0630769043e+003;4.0339743652e+003;4.0758974609e+003;4.0156411133e+003;4.0275642090e+003;4.0215385742e+003;4.0232050781e+003;4.0121794434e+003;3.9767949219e+003;4.0666667480e+003;4.0341025391e+003;4.0484614258e+003;4.1046152344e+003;
6.2500000000e-001;4.0415385742e+003;4.0342307129e+003;4.0087180176e+003;4.0523076172e+003;3.9921794434e+003;4.0033332520e+003;3.9974357910e+003;4.0029487305e+003;3.9924357910e+003;3.9517949219e+003;4.0420512695e+003;4.0107692871e+003;4.0198718262e+003;4.0807692871e+003;
6.3281250000e-001;4.0512819824e+003;4.0408974609e+003;4.0182050781e+003;4.0585898438e+003;4.0016667480e+003;4.0048718262e+003;4.0046154785e+003;4.0173076172e+003;4.0032050781e+003;3.9628205566e+003;4.0530769043e+003;4.0246154785e+003;4.0216667480e+003;4.0885898438e+003;
6.4062500000e-001;4.0215385742e+003;4.0017949219e+003;3.9908974609e+003;4.0262819824e+003;3.9776923828e+003;3.9729487305e+003;3.9721794434e+003;3.9905129395e+003;3.9744870605e+003;3.9341025391e+003;4.0252563477e+003;3.9996154785e+003;3.9887180176e+003;4.0573076172e+003;
6.4843750000e-001;4.0093588867e+003;3.9878205566e+003;3.9757692871e+003;4.0143588867e+003;3.9679487305e+003;3.9666667480e+003;3.9662819824e+003;3.9775642090e+003;3.9632050781e+003;3.9188461914e+003;4.0085898438e+003;3.9800000000e+003;3.9757692871e+003;4.0421794434e+003;
6.5625000000e-001;4.0258974609e+003;4.0056411133e+003;3.9885898438e+003;4.0305129395e+003;3.9865385742e+003;3.9876923828e+003;3.9879487305e+003;3.9941025391e+003;3.9800000000e+003;3.9351281738e+003;4.0196154785e+003;3.9882050781e+003;3.9919230957e+003;4.0547436523e+003;
6.6406250000e-001;4.0347436523e+003;4.0170512695e+003;3.9955129395e+003;4.0424357910e+003;3.9962819824e+003;4.0025642090e+003;3.9982050781e+003;4.0038461914e+003;3.9847436523e+003;3.9455129395e+003;4.0176923828e+003;3.9915385742e+003;3.9966667480e+003;4.0569230957e+003;
6.7187500000e-001;4.0074357910e+003;3.9870512695e+003;3.9667949219e+003;4.0173076172e+003;3.9673076172e+003;3.9774357910e+003;3.9692307129e+003;3.9715385742e+003;3.9511538086e+003;3.9128205566e+003;3.9847436523e+003;3.9638461914e+003;3.9639743652e+003;4.0267949219e+003;
6.7968750000e-001;3.9983332520e+003;3.9744870605e+003;3.9535898438e+003;4.0073076172e+003;3.9555129395e+003;3.9689743652e+003;3.9588461914e+003;3.9535898438e+003;3.9353845215e+003;3.8960256348e+003;3.9711538086e+003;3.9523076172e+003;3.9493588867e+003;4.0151281738e+003;
6.8750000000e-001;4.0500000000e+003;4.0270512695e+003;4.0026923828e+003;4.0494870605e+003;4.0008974609e+003;4.0248718262e+003;4.0167949219e+003;3.9971794434e+003;3.9908974609e+003;3.9534614258e+003;4.0184614258e+003;4.0017949219e+003;3.9938461914e+003;4.0667949219e+003;
6.9531250000e-001;4.0607692871e+003;4.0378205566e+003;4.0110256348e+003;4.0605129395e+003;4.0092307129e+003;4.0308974609e+003;4.0224357910e+003;4.0038461914e+003;3.9973076172e+003;3.9625642090e+003;4.0270512695e+003;4.0102563477e+003;4.0060256348e+003;4.0760256348e+003;
7.0312500000e-001;4.0255129395e+003;3.9991025391e+003;3.9701281738e+003;4.0238461914e+003;3.9655129395e+003;3.9965385742e+003;3.9871794434e+003;3.9667949219e+003;3.9608974609e+003;3.9323076172e+003;3.9906411133e+003;3.9738461914e+003;3.9780769043e+003;4.0421794434e+003;
7.1093750000e-001;4.0734614258e+003;4.0492307129e+003;4.0198718262e+003;4.0694870605e+003;4.0096154785e+003;4.0330769043e+003;4.0307692871e+003;4.0152563477e+003;4.0044870605e+003;3.9782050781e+003;4.0397436523e+003;4.0215385742e+003;4.0224357910e+003;4.0843588867e+003;
7.1875000000e-001;4.0934614258e+003;4.0712819824e+003;4.0428205566e+003;4.0926923828e+003;4.0287180176e+003;4.0491025391e+003;4.0458974609e+003;4.0406411133e+003;4.0276923828e+003;4.0030769043e+003;4.0611538086e+003;4.0438461914e+003;4.0438461914e+003;4.1038461914e+003;
7.2656250000e-001;4.0639743652e+003;4.0374357910e+003;4.0107692871e+003;4.0592307129e+003;3.9932050781e+003;4.0116667480e+003;4.0107692871e+003;4.0141025391e+003;3.9938461914e+003;3.9767949219e+003;4.0320512695e+003;4.0106411133e+003;4.0152563477e+003;4.0703845215e+003;
7.3437500000e-001;4.0824357910e+003;4.0532050781e+003;4.0247436523e+003;4.0725642090e+003;4.0080769043e+003;4.0225642090e+003;4.0239743652e+003;4.0317949219e+003;4.0110256348e+003;3.9951281738e+003;4.0535898438e+003;4.0310256348e+003;4.0348718262e+003;4.0893588867e+003;
7.4218750000e-001;4.1312822266e+003;4.0996152344e+003;4.0693588867e+003;4.1201284180e+003;4.0492307129e+003;4.0608974609e+003;4.0633332520e+003;4.0770512695e+003;4.0630769043e+003;4.0421794434e+003;4.1020512695e+003;4.0853845215e+003;4.0871794434e+003;4.1369228516e+003;
7.5000000000e-001;4.1873076172e+003;4.1580771484e+003;4.1251284180e+003;4.1765385742e+003;4.1043588867e+003;4.1135898438e+003;4.1171796875e+003;4.1275639648e+003;4.1200000000e+003;4.0971796875e+003;4.1515385742e+003;4.1379487305e+003;4.1437177734e+003;4.1889741211e+003;
7.5781250000e-001;4.3966665039e+003;4.3898715820e+003;4.3429487305e+003;4.3779487305e+003;4.3266665039e+003;4.3220512695e+003;4.3282050781e+003;4.3376923828e+003;4.3352563477e+003;4.3260258789e+003;4.3592309570e+003;4.3420512695e+003;4.3555126953e+003;4.3989741211e+003;
7.6562500000e-001;4.3928203125e+003;4.3900000000e+003;4.3426923828e+003;4.3752563477e+003;4.3262822266e+003;4.3241025391e+003;4.3294873047e+003;4.3371796875e+003;4.3310258789e+003;4.3246152344e+003;4.3603847656e+003;4.3416665039e+003;4.3514101563e+003;4.3952563477e+003;
7.7343750000e-001;4.3952563477e+003;4.3944873047e+003;4.3482050781e+003;4.3860258789e+003;4.3339741211e+003;4.3362822266e+003;4.3441025391e+003;4.3407690430e+003;4.3306411133e+003;4.3232050781e+003;4.3687177734e+003;4.3443588867e+003;4.3546152344e+003;4.3924360352e+003;
7.8125000000e-001;4.4171796875e+003;4.4180771484e+003;4.3728203125e+003;4.4128203125e+003;4.3600000000e+003;4.3635898438e+003;4.3723076172e+003;4.3666665039e+003;4.3571796875e+003;4.3492309570e+003;4.3933334961e+003;4.3673076172e+003;4.3806411133e+003;4.4167949219e+003;
7.8906250000e-001;4.3705126953e+003;4.3796152344e+003;4.3380771484e+003;4.3706411133e+003;4.3262822266e+003;4.3451284180e+003;4.3475639648e+003;4.3307690430e+003;4.3233334961e+003;4.3117949219e+003;4.3485898438e+003;4.3302563477e+003;4.3423076172e+003;4.3841025391e+003;
7.9687500000e-001;4.3894873047e+003;4.4028203125e+003;4.3564101563e+003;4.3864101563e+003;4.3488461914e+003;4.3665385742e+003;4.3687177734e+003;4.3475639648e+003;4.3402563477e+003;4.3298715820e+003;4.3683334961e+003;4.3488461914e+003;4.3623076172e+003;4.4012822266e+003;
8.0468750000e-001;4.4341025391e+003;4.4517949219e+003;4.4002563477e+003;4.4292309570e+003;4.3962822266e+003;4.4101284180e+003;4.4133334961e+003;4.3925639648e+003;4.3852563477e+003;4.3784614258e+003;4.4161538086e+003;4.3937177734e+003;4.4097436523e+003;4.4447436523e+003;
8.1250000000e-001;4.4667949219e+003;4.4878203125e+003;4.4346152344e+003;4.4644873047e+003;4.4305126953e+003;4.4429487305e+003;4.4469228516e+003;4.4296152344e+003;4.4217949219e+003;4.4184614258e+003;4.4520512695e+003;4.4285898438e+003;4.4461538086e+003;4.4793588867e+003;
8.2031250000e-001;4.5337177734e+003;4.5755126953e+003;4.5165385742e+003;4.5469228516e+003;4.5112822266e+003;4.5143588867e+003;4.5212822266e+003;4.5055126953e+003;4.4997436523e+003;4.4964101563e+003;4.5205126953e+003;4.4996152344e+003;4.5279487305e+003;4.5562822266e+003;
8.2812500000e-001;4.5467949219e+003;4.5991025391e+003;4.5415385742e+003;4.5646152344e+003;4.5267949219e+003;4.5232050781e+003;4.5320512695e+003;4.5342309570e+003;4.5200000000e+003;4.5283334961e+003;4.5578203125e+003;4.5342309570e+003;4.5508974609e+003;4.5853847656e+003;
8.3593750000e-001;4.5884614258e+003;4.6426923828e+003;4.5842309570e+003;4.6047436523e+003;4.5684614258e+003;4.5588461914e+003;4.5701284180e+003;4.5762822266e+003;4.5648715820e+003;4.5734614258e+003;4.6012822266e+003;4.5770512695e+003;4.5964101563e+003;4.6279487305e+003;
8.4375000000e-001;4.6403847656e+003;4.6987177734e+003;4.6375639648e+003;4.6524360352e+003;4.6180771484e+003;4.6012822266e+003;4.6137177734e+003;4.6305126953e+003;4.6261538086e+003;4.6323076172e+003;4.6487177734e+003;4.6271796875e+003;4.6551284180e+003;4.6789741211e+003;
8.5156250000e-001;4.7384614258e+003;4.8150000000e+003;4.7528203125e+003;4.7520512695e+003;4.7287177734e+003;4.6994873047e+003;4.7198715820e+003;4.7469228516e+003;4.7498715820e+003;4.7508974609e+003;4.7760258789e+003;4.7460258789e+003;4.7696152344e+003;4.8024360352e+003;
8.5937500000e-001;4.7300000000e+003;4.8085898438e+003;4.7511538086e+003;4.7483334961e+003;4.7239741211e+003;4.6957690430e+003;4.7165385742e+003;4.7455126953e+003;4.7482050781e+003;4.7530771484e+003;4.7752563477e+003;4.7462822266e+003;4.7679487305e+003;4.8011538086e+003;
8.6718750000e-001;4.6950000000e+003;4.7755126953e+003;4.7198715820e+003;4.7193588867e+003;4.6938461914e+003;4.6720512695e+003;4.6903847656e+003;4.7130771484e+003;4.7080771484e+003;4.7220512695e+003;4.7353847656e+003;4.7107690430e+003;4.7397436523e+003;4.7676923828e+003;
8.7500000000e-001;4.7061538086e+003;4.7900000000e+003;4.7312822266e+003;4.7315385742e+003;4.7096152344e+003;4.6896152344e+003;4.7060258789e+003;4.7261538086e+003;4.7162822266e+003;4.7337177734e+003;4.7444873047e+003;4.7211538086e+003;4.7533334961e+003;4.7800000000e+003;
8.8281250000e-001;4.6151284180e+003;4.7067949219e+003;4.6532050781e+003;4.6542309570e+003;4.6374360352e+003;4.6317949219e+003;4.6455126953e+003;4.6547436523e+003;4.6403847656e+003;4.6492309570e+003;4.6720512695e+003;4.6480771484e+003;4.6647436523e+003;4.7030771484e+003;
8.9062500000e-001;4.5652563477e+003;4.6557690430e+003;4.6038461914e+003;4.6087177734e+003;4.5903847656e+003;4.5911538086e+003;4.6035898438e+003;4.6051284180e+003;4.5925639648e+003;4.5971796875e+003;4.6235898438e+003;4.5971796875e+003;4.6135898438e+003;4.6544873047e+003;
8.9843750000e-001;4.5174360352e+003;4.6064101563e+003;4.5532050781e+003;4.5646152344e+003;4.5452563477e+003;4.5561538086e+003;4.5600000000e+003;4.5570512695e+003;4.5476923828e+003;4.5508974609e+003;4.5728203125e+003;4.5447436523e+003;4.5712822266e+003;4.6083334961e+003;
9.0625000000e-001;4.4787177734e+003;4.5673076172e+003;4.5160258789e+003;4.5279487305e+003;4.5076923828e+003;4.5237177734e+003;4.5228203125e+003;4.5203847656e+003;4.5114101563e+003;4.5138461914e+003;4.5332050781e+003;4.5089741211e+003;4.5369228516e+003;4.5697436523e+003;
9.1406250000e-001;4.3512822266e+003;4.4335898438e+003;4.3897436523e+003;4.4047436523e+003;4.3797436523e+003;4.3988461914e+003;4.3983334961e+003;4.3885898438e+003;4.3767949219e+003;4.3780771484e+003;4.3987177734e+003;4.3848715820e+003;4.4048715820e+003;4.4348715820e+003;
9.2187500000e-001;4.3150000000e+003;4.3917949219e+003;4.3500000000e+003;4.3680771484e+003;4.3380771484e+003;4.3602563477e+003;4.3574360352e+003;4.3503847656e+003;4.3370512695e+003;4.3393588867e+003;4.3585898438e+003;4.3435898438e+003;4.3620512695e+003;4.3956411133e+003;
9.2968750000e-001;4.2576923828e+003;4.3269228516e+003;4.2883334961e+003;4.3106411133e+003;4.2730771484e+003;4.3026923828e+003;4.2950000000e+003;4.2920512695e+003;4.2775639648e+003;4.2783334961e+003;4.2964101563e+003;4.2797436523e+003;4.2971796875e+003;4.3341025391e+003;
9.3750000000e-001;4.1944873047e+003;4.2561538086e+003;4.2205126953e+003;4.2473076172e+003;4.2029487305e+003;4.2400000000e+003;4.2282050781e+003;4.2274360352e+003;4.2132050781e+003;4.2096152344e+003;4.2284614258e+003;4.2101284180e+003;4.2276923828e+003;4.2658974609e+003;
9.4531250000e-001;4.1301284180e+003;4.1788461914e+003;4.1458974609e+003;4.1779487305e+003;4.1288461914e+003;4.1592309570e+003;4.1507690430e+003;4.1612822266e+003;4.1567949219e+003;4.1458974609e+003;4.1655126953e+003;4.1502563477e+003;4.1639741211e+003;4.2042309570e+003;
9.5312500000e-001;4.0376923828e+003;4.0541025391e+003;4.0402563477e+003;4.0717949219e+003;4.0078205566e+003;4.0419230957e+003;4.0289743652e+003;4.0444870605e+003;4.0446154785e+003;4.0200000000e+003;4.0476923828e+003;4.0341025391e+003;4.0461538086e+003;4.0841025391e+003;
9.6093750000e-001;4.0253845215e+003;4.0348718262e+003;4.0270512695e+003;4.0550000000e+003;3.9896154785e+003;4.0232050781e+003;4.0107692871e+003;4.0306411133e+003;4.0319230957e+003;4.0046154785e+003;4.0315385742e+003;4.0226923828e+003;4.0289743652e+003;4.0711538086e+003;
9.6875000000e-001;3.9644870605e+003;3.9637180176e+003;3.9601281738e+003;3.9917949219e+003;3.9178205566e+003;3.9565385742e+003;3.9466667480e+003;3.9689743652e+003;3.9682050781e+003;3.9369230957e+003;3.9628205566e+003;3.9616667480e+003;3.9620512695e+003;4.0100000000e+003;
9.7656250000e-001;3.9029487305e+003;3.8869230957e+003;3.8829487305e+003;3.9270512695e+003;3.8419230957e+003;3.8919230957e+003;3.8852563477e+003;3.8905129395e+003;3.8841025391e+003;3.8544870605e+003;3.8835898438e+003;3.8811538086e+003;3.8870512695e+003;3.9370512695e+003;
9.8437500000e-001;3.8860256348e+003;3.8644870605e+003;3.8620512695e+003;3.9056411133e+003;3.8228205566e+003;3.8756411133e+003;3.8684614258e+003;3.8642307129e+003;3.8588461914e+003;3.8256411133e+003;3.8573076172e+003;3.8576923828e+003;3.8639743652e+003;3.9160256348e+003;
9.9218750000e-001;3.9011538086e+003;3.8711538086e+003;3.8629487305e+003;3.9093588867e+003;3.8365385742e+003;3.8882050781e+003;3.8764101563e+003;3.8673076172e+003;3.8629487305e+003;3.8289743652e+003;3.8597436523e+003;3.8624357910e+003;3.8705129395e+003;3.9214101563e+003;
1.0000000000e+000;3.8788461914e+003;3.8452563477e+003;3.8355129395e+003;3.8856411133e+003;3.8132050781e+003;3.8675642090e+003;3.8515385742e+003;3.8433332520e+003;3.8373076172e+003;3.8070512695e+003;3.8355129395e+003;3.8375642090e+003;3.8453845215e+003;3.8957692871e+003;
1.0078125000e+000;3.7851281738e+003;3.7393588867e+003;3.7324357910e+003;3.7885898438e+003;3.7092307129e+003;3.7760256348e+003;3.7534614258e+003;3.7319230957e+003;3.7266667480e+003;3.7000000000e+003;3.7323076172e+003;3.7266667480e+003;3.7426923828e+003;3.7911538086e+003;
1.0156250000e+000;3.8021794434e+003;3.7539743652e+003;3.7462819824e+003;3.8016667480e+003;3.7237180176e+003;3.7873076172e+003;3.7650000000e+003;3.7435898438e+003;3.7424357910e+003;3.7144870605e+003;3.7473076172e+003;3.7410256348e+003;3.7588461914e+003;3.8055129395e+003;
1.0234375000e+000;3.7750000000e+003;3.7187180176e+003;3.7138461914e+003;3.7712819824e+003;3.6912819824e+003;3.7503845215e+003;3.7284614258e+003;3.7098718262e+003;3.7107692871e+003;3.6828205566e+003;3.7144870605e+003;3.7123076172e+003;3.7256411133e+003;3.7726923828e+003;
1.0312500000e+000;3.7434614258e+003;3.6794870605e+003;3.6774357910e+003;3.7373076172e+003;3.6512819824e+003;3.7139743652e+003;3.6921794434e+003;3.6715385742e+003;3.6700000000e+003;3.6426923828e+003;3.6752563477e+003;3.6735898438e+003;3.6861538086e+003;3.7343588867e+003;
1.0390625000e+000;3.7360256348e+003;3.6535898438e+003;3.6546154785e+003;3.7174357910e+003;3.6060256348e+003;3.6865385742e+003;3.6638461914e+003;3.6507692871e+003;3.6476923828e+003;3.6165385742e+003;3.6475642090e+003;3.6462819824e+003;3.6566667480e+003;3.7078205566e+003;
1.0468750000e+000;3.7103845215e+003;3.6252563477e+003;3.6280769043e+003;3.6911538086e+003;3.5769230957e+003;3.6565385742e+003;3.6343588867e+003;3.6260256348e+003;3.6239743652e+003;3.5897436523e+003;3.6201281738e+003;3.6224357910e+003;3.6282050781e+003;3.6794870605e+003;
1.0546875000e+000;3.6893588867e+003;3.6023076172e+003;3.6058974609e+003;3.6687180176e+003;3.5592307129e+003;3.6303845215e+003;3.6103845215e+003;3.6044870605e+003;3.6025642090e+003;3.5675642090e+003;3.5973076172e+003;3.6017949219e+003;3.6065385742e+003;3.6557692871e+003;
1.0625000000e+000;3.6979487305e+003;3.6094870605e+003;3.6117949219e+003;3.6728205566e+003;3.5738461914e+003;3.6314101563e+003;3.6148718262e+003;3.6116667480e+003;3.6092307129e+003;3.5764101563e+003;3.6035898438e+003;3.6070512695e+003;3.6165385742e+003;3.6616667480e+003;
1.0703125000e+000;3.7105129395e+003;3.6093588867e+003;3.6112819824e+003;3.6712819824e+003;3.5743588867e+003;3.6314101563e+003;3.6134614258e+003;3.6257692871e+003;3.6247436523e+003;3.5901281738e+003;3.6106411133e+003;3.6107692871e+003;3.6217949219e+003;3.6679487305e+003;
1.0781250000e+000;3.6744870605e+003;3.5612819824e+003;3.5629487305e+003;3.6235898438e+003;3.5326923828e+003;3.5830769043e+003;3.5637180176e+003;3.5712819824e+003;3.5600000000e+003;3.5298718262e+003;3.5517949219e+003;3.5616667480e+003;3.5717949219e+003;3.6203845215e+003;
1.0859375000e+000;3.6423076172e+003;3.5262819824e+003;3.5291025391e+003;3.5917949219e+003;3.4979487305e+003;3.5544870605e+003;3.5332050781e+003;3.5337180176e+003;3.5221794434e+003;3.4905129395e+003;3.5155129395e+003;3.5251281738e+003;3.5352563477e+003;3.5832050781e+003;
1.0937500000e+000;3.6674357910e+003;3.5515385742e+003;3.5498718262e+003;3.6187180176e+003;3.5237180176e+003;3.5843588867e+003;3.5583332520e+003;3.5480769043e+003;3.5410256348e+003;3.5108974609e+003;3.5393588867e+003;3.5452563477e+003;3.5547436523e+003;3.6015385742e+003;
1.1015625000e+000;3.6989743652e+003;3.5697436523e+003;3.5752563477e+003;3.6394870605e+003;3.5465385742e+003;3.6105129395e+003;3.5850000000e+003;3.5641025391e+003;3.5537180176e+003;3.5338461914e+003;3.5517949219e+003;3.5592307129e+003;3.5770512695e+003;3.6162819824e+003;
1.1093750000e+000;3.7320512695e+003;3.6051281738e+003;3.6075642090e+003;3.6682050781e+003;3.5791025391e+003;3.6396154785e+003;3.6153845215e+003;3.5947436523e+003;3.5857692871e+003;3.5694870605e+003;3.5842307129e+003;3.5898718262e+003;3.6076923828e+003;3.6464101563e+003;
1.1171875000e+000;3.7412819824e+003;3.6212819824e+003;3.6174357910e+003;3.6785898438e+003;3.5926923828e+003;3.6511538086e+003;3.6233332520e+003;3.6108974609e+003;3.6062819824e+003;3.5925642090e+003;3.6020512695e+003;3.6073076172e+003;3.6189743652e+003;3.6602563477e+003;
1.1250000000e+000;3.7252563477e+003;3.6034614258e+003;3.5989743652e+003;3.6630769043e+003;3.5765385742e+003;3.6361538086e+003;3.6078205566e+003;3.5944870605e+003;3.5912819824e+003;3.5755129395e+003;3.5851281738e+003;3.5916667480e+003;3.6042307129e+003;3.6428205566e+003;
1.1328125000e+000;3.8160256348e+003;3.6828205566e+003;3.6843588867e+003;3.7442307129e+003;3.6583332520e+003;3.7115385742e+003;3.6902563477e+003;3.6733332520e+003;3.6757692871e+003;3.6623076172e+003;3.6721794434e+003;3.6780769043e+003;3.6962819824e+003;3.7251281738e+003;
1.1406250000e+000;3.8170512695e+003;3.6833332520e+003;3.6889743652e+003;3.7464101563e+003;3.6576923828e+003;3.7119230957e+003;3.6905129395e+003;3.6779487305e+003;3.6816667480e+003;3.6682050781e+003;3.6787180176e+003;3.6847436523e+003;3.6964101563e+003;3.7301281738e+003;
1.1484375000e+000;3.8003845215e+003;3.6692307129e+003;3.6723076172e+003;3.7314101563e+003;3.6403845215e+003;3.6920512695e+003;3.6735898438e+003;3.6700000000e+003;3.6730769043e+003;3.6525642090e+003;3.6655129395e+003;3.6698718262e+003;3.6778205566e+003;3.7175642090e+003;
1.1562500000e+000;3.8284614258e+003;3.6991025391e+003;3.6965385742e+003;3.7560256348e+003;3.6675642090e+003;3.7133332520e+003;3.6979487305e+003;3.7017949219e+003;3.7037180176e+003;3.6811538086e+003;3.6915385742e+003;3.6939743652e+003;3.7075642090e+003;3.7446154785e+003;
1.1640625000e+000;3.8202563477e+003;3.6876923828e+003;3.6865385742e+003;3.7398718262e+003;3.6508974609e+003;3.6984614258e+003;3.6843588867e+003;3.7012819824e+003;3.7002563477e+003;3.6800000000e+003;3.6784614258e+003;3.6856411133e+003;3.7034614258e+003;3.7343588867e+003;
1.1718750000e+000;3.8078205566e+003;3.6752563477e+003;3.6723076172e+003;3.7266667480e+003;3.6382050781e+003;3.6857692871e+003;3.6738461914e+003;3.6873076172e+003;3.6853845215e+003;3.6662819824e+003;3.6651281738e+003;3.6721794434e+003;3.6893588867e+003;3.7215385742e+003;
1.1796875000e+000;3.8244870605e+003;3.6941025391e+003;3.6855129395e+003;3.7424357910e+003;3.6564101563e+003;3.6994870605e+003;3.6906411133e+003;3.7034614258e+003;3.7003845215e+003;3.6825642090e+003;3.6820512695e+003;3.6870512695e+003;3.7052563477e+003;3.7388461914e+003;
1.1875000000e+000;3.8456411133e+003;3.7173076172e+003;3.7041025391e+003;3.7629487305e+003;3.6792307129e+003;3.7180769043e+003;3.7112819824e+003;3.7267949219e+003;3.7212819824e+003;3.7043588867e+003;3.7038461914e+003;3.7076923828e+003;3.7269230957e+003;3.7614101563e+003;
1.1953125000e+000;3.7825642090e+003;3.6497436523e+003;3.6446154785e+003;3.7011538086e+003;3.6257692871e+003;3.6842307129e+003;3.6678205566e+003;3.6637180176e+003;3.6528205566e+003;3.6320512695e+003;3.6384614258e+003;3.6457692871e+003;3.6550000000e+003;3.6958974609e+003;
1.2031250000e+000;3.7883332520e+003;3.6574357910e+003;3.6516667480e+003;3.7073076172e+003;3.6347436523e+003;3.6962819824e+003;3.6757692871e+003;3.6697436523e+003;3.6593588867e+003;3.6403845215e+003;3.6442307129e+003;3.6524357910e+003;3.6585898438e+003;3.7012819824e+003;
1.2109375000e+000;3.7655129395e+003;3.6344870605e+003;3.6280769043e+003;3.6864101563e+003;3.6071794434e+003;3.6730769043e+003;3.6519230957e+003;3.6370512695e+003;3.6317949219e+003;3.6147436523e+003;3.6157692871e+003;3.6241025391e+003;3.6378205566e+003;3.6787180176e+003;
1.2187500000e+000;3.7830769043e+003;3.6469230957e+003;3.6408974609e+003;3.7023076172e+003;3.6187180176e+003;3.6811538086e+003;3.6601281738e+003;3.6379487305e+003;3.6429487305e+003;3.6323076172e+003;3.6389743652e+003;3.6415385742e+003;3.6611538086e+003;3.6971794434e+003;
1.2265625000e+000;3.7957692871e+003;3.6623076172e+003;3.6525642090e+003;3.7084614258e+003;3.6235898438e+003;3.6808974609e+003;3.6511538086e+003;3.6287180176e+003;3.6329487305e+003;3.6306411133e+003;3.6392307129e+003;3.6465385742e+003;3.6594870605e+003;3.7028205566e+003;
1.2343750000e+000;3.7902563477e+003;3.6585898438e+003;3.6494870605e+003;3.7038461914e+003;3.6201281738e+003;3.6775642090e+003;3.6502563477e+003;3.6302563477e+003;3.6364101563e+003;3.6317949219e+003;3.6387180176e+003;3.6478205566e+003;3.6543588867e+003;3.7015385742e+003;
1.2421875000e+000;3.7466667480e+003;3.6130769043e+003;3.6079487305e+003;3.6642307129e+003;3.5783332520e+003;3.6374357910e+003;3.6189743652e+003;3.6047436523e+003;3.6093588867e+003;3.5956411133e+003;3.5979487305e+003;3.6126923828e+003;3.6158974609e+003;3.6598718262e+003;
1.2500000000e+000;3.7683332520e+003;3.6315385742e+003;3.6273076172e+003;3.6830769043e+003;3.5969230957e+003;3.6521794434e+003;3.6396154785e+003;3.6321794434e+003;3.6333332520e+003;3.6171794434e+003;3.6170512695e+003;3.6330769043e+003;3.6406411133e+003;3.6793588867e+003;
1.2578125000e+000;3.7915385742e+003;3.6487180176e+003;3.6517949219e+003;3.7015385742e+003;3.6094870605e+003;3.6619230957e+003;3.6570512695e+003;3.6717949219e+003;3.6650000000e+003;3.6482050781e+003;3.6453845215e+003;3.6625642090e+003;3.6655129395e+003;3.7080769043e+003;
1.2656250000e+000;3.7620512695e+003;3.6216667480e+003;3.6242307129e+003;3.6753845215e+003;3.5826923828e+003;3.6353845215e+003;3.6303845215e+003;3.6460256348e+003;3.6398718262e+003;3.6212819824e+003;3.6193588867e+003;3.6362819824e+003;3.6355129395e+003;3.6819230957e+003;
1.2734375000e+000;3.7684614258e+003;3.6320512695e+003;3.6279487305e+003;3.6806411133e+003;3.5938461914e+003;3.6393588867e+003;3.6344870605e+003;3.6558974609e+003;3.6514101563e+003;3.6338461914e+003;3.6265385742e+003;3.6398718262e+003;3.6421794434e+003;3.6900000000e+003;
1.2812500000e+000;3.7747436523e+003;3.6355129395e+003;3.6312819824e+003;3.6824357910e+003;3.5967949219e+003;3.6420512695e+003;3.6362819824e+003;3.6616667480e+003;3.6552563477e+003;3.6410256348e+003;3.6293588867e+003;3.6411538086e+003;3.6469230957e+003;3.6942307129e+003;
1.2890625000e+000;3.7862819824e+003;3.6426923828e+003;3.6417949219e+003;3.6893588867e+003;3.6098718262e+003;3.6587180176e+003;3.6456411133e+003;3.6632050781e+003;3.6523076172e+003;3.6471794434e+003;3.6362819824e+003;3.6485898438e+003;3.6557692871e+003;3.7012819824e+003;
1.2968750000e+000;3.8092307129e+003;3.6712819824e+003;3.6684614258e+003;3.7155129395e+003;3.6403845215e+003;3.6856411133e+003;3.6705129395e+003;3.6860256348e+003;3.6791025391e+003;3.6761538086e+003;3.6660256348e+003;3.6771794434e+003;3.6850000000e+003;3.7288461914e+003;
1.3046875000e+000;3.8051281738e+003;3.6715385742e+003;3.6674357910e+003;3.7150000000e+003;3.6408974609e+003;3.6857692871e+003;3.6685898438e+003;3.6823076172e+003;3.6792307129e+003;3.6775642090e+003;3.6678205566e+003;3.6766667480e+003;3.6867949219e+003;3.7284614258e+003;
1.3125000000e+000;3.7719230957e+003;3.6387180176e+003;3.6338461914e+003;3.6835898438e+003;3.6074357910e+003;3.6561538086e+003;3.6375642090e+003;3.6460256348e+003;3.6442307129e+003;3.6432050781e+003;3.6342307129e+003;3.6403845215e+003;3.6544870605e+003;3.6939743652e+003;
1.3203125000e+000;3.8162819824e+003;3.6770512695e+003;3.6678205566e+003;3.7216667480e+003;3.6497436523e+003;3.6983332520e+003;3.6798718262e+003;3.6650000000e+003;3.6588461914e+003;3.6688461914e+003;3.6580769043e+003;3.6684614258e+003;3.6842307129e+003;3.7197436523e+003;
1.3281250000e+000;3.8211538086e+003;3.6826923828e+003;3.6767949219e+003;3.7293588867e+003;3.6579487305e+003;3.7037180176e+003;3.6852563477e+003;3.6689743652e+003;3.6644870605e+003;3.6742307129e+003;3.6644870605e+003;3.6798718262e+003;3.6887180176e+003;3.7262819824e+003;
1.3359375000e+000;3.8639743652e+003;3.7334614258e+003;3.7216667480e+003;3.7744870605e+003;3.7051281738e+003;3.7438461914e+003;3.7274357910e+003;3.7107692871e+003;3.7062819824e+003;3.7191025391e+003;3.7130769043e+003;3.7260256348e+003;3.7378205566e+003;3.7764101563e+003;
1.3437500000e+000;3.8153845215e+003;3.6870512695e+003;3.6833332520e+003;3.7317949219e+003;3.6598718262e+003;3.7025642090e+003;3.6880769043e+003;3.6707692871e+003;3.6651281738e+003;3.6778205566e+003;3.6694870605e+003;3.6857692871e+003;3.6973076172e+003;3.7353845215e+003;
1.3515625000e+000;3.8115385742e+003;3.6791025391e+003;3.6794870605e+003;3.7264101563e+003;3.6548718262e+003;3.6950000000e+003;3.6847436523e+003;3.6647436523e+003;3.6616667480e+003;3.6688461914e+003;3.6643588867e+003;3.6800000000e+003;3.6901281738e+003;3.7275642090e+003;
1.3593750000e+000;3.8182050781e+003;3.6738461914e+003;3.6765385742e+003;3.7252563477e+003;3.6442307129e+003;3.6767949219e+003;3.6735898438e+003;3.6764101563e+003;3.6708974609e+003;3.6737180176e+003;3.6666667480e+003;3.6815385742e+003;3.6880769043e+003;3.7244870605e+003;
1.3671875000e+000;3.7833332520e+003;3.6394870605e+003;3.6406411133e+003;3.6896154785e+003;3.6084614258e+003;3.6401281738e+003;3.6406411133e+003;3.6546154785e+003;3.6461538086e+003;3.6424357910e+003;3.6369230957e+003;3.6547436523e+003;3.6615385742e+003;3.6911538086e+003;
1.3750000000e+000;3.7862819824e+003;3.6439743652e+003;3.6442307129e+003;3.6912819824e+003;3.6139743652e+003;3.6453845215e+003;3.6460256348e+003;3.6660256348e+003;3.6578205566e+003;3.6524357910e+003;3.6462819824e+003;3.6621794434e+003;3.6720512695e+003;3.6974357910e+003;
1.3828125000e+000;3.7348718262e+003;3.5856411133e+003;3.5838461914e+003;3.6350000000e+003;3.5573076172e+003;3.5961538086e+003;3.5924357910e+003;3.6053845215e+003;3.6074357910e+003;3.5962819824e+003;3.5893588867e+003;3.6033332520e+003;3.6116667480e+003;3.6388461914e+003;
1.3906250000e+000;3.7565385742e+003;3.6052563477e+003;3.6010256348e+003;3.6535898438e+003;3.5783332520e+003;3.6151281738e+003;3.6080769043e+003;3.6155129395e+003;3.6212819824e+003;3.6112819824e+003;3.6043588867e+003;3.6173076172e+003;3.6253845215e+003;3.6526923828e+003;
1.3984375000e+000;3.7596154785e+003;3.6079487305e+003;3.6070512695e+003;3.6587180176e+003;3.5870512695e+003;3.6242307129e+003;3.6070512695e+003;3.6094870605e+003;3.6129487305e+003;3.6071794434e+003;3.5996154785e+003;3.6161538086e+003;3.6217949219e+003;3.6482050781e+003;
1.4062500000e+000;3.7350000000e+003;3.5832050781e+003;3.5848718262e+003;3.6357692871e+003;3.5660256348e+003;3.6050000000e+003;3.5850000000e+003;3.5835898438e+003;3.5825642090e+003;3.5770512695e+003;3.5721794434e+003;3.5905129395e+003;3.5951281738e+003;3.6214101563e+003;
1.4140625000e+000;3.7589743652e+003;3.6110256348e+003;3.6047436523e+003;3.6542307129e+003;3.5937180176e+003;3.6321794434e+003;3.6102563477e+003;3.6007692871e+003;3.6002563477e+003;3.5926923828e+003;3.5917949219e+003;3.6042307129e+003;3.6142307129e+003;3.6405129395e+003;
1.4218750000e+000;3.7374357910e+003;3.5910256348e+003;3.5850000000e+003;3.6360256348e+003;3.5710256348e+003;3.6148718262e+003;3.5888461914e+003;3.5766667480e+003;3.5807692871e+003;3.5716667480e+003;3.5684614258e+003;3.5832050781e+003;3.5921794434e+003;3.6198718262e+003;
1.4296875000e+000;3.6967949219e+003;3.5500000000e+003;3.5464101563e+003;3.5998718262e+003;3.5293588867e+003;3.5780769043e+003;3.5484614258e+003;3.5306411133e+003;3.5382050781e+003;3.5278205566e+003;3.5237180176e+003;3.5428205566e+003;3.5507692871e+003;3.5789743652e+003;
1.4375000000e+000;3.6733332520e+003;3.5246154785e+003;3.5225642090e+003;3.5775642090e+003;3.5053845215e+003;3.5541025391e+003;3.5238461914e+003;3.4997436523e+003;3.5088461914e+003;3.4983332520e+003;3.4960256348e+003;3.5180769043e+003;3.5265385742e+003;3.5541025391e+003;
1.4453125000e+000;3.6733332520e+003;3.5137180176e+003;3.5141025391e+003;3.5674357910e+003;3.4916667480e+003;3.5411538086e+003;3.5194870605e+003;3.4965385742e+003;3.5019230957e+003;3.4955129395e+003;3.4984614258e+003;3.5215385742e+003;3.5252563477e+003;3.5528205566e+003;
1.4531250000e+000;3.6616667480e+003;3.4980769043e+003;3.5023076172e+003;3.5543588867e+003;3.4741025391e+003;3.5250000000e+003;3.5055129395e+003;3.4834614258e+003;3.4885898438e+003;3.4803845215e+003;3.4837180176e+003;3.5071794434e+003;3.5115385742e+003;3.5373076172e+003;
1.4609375000e+000;3.6682050781e+003;3.5010256348e+003;3.5075642090e+003;3.5528205566e+003;3.4685898438e+003;3.5117949219e+003;3.4973076172e+003;3.4871794434e+003;3.4937180176e+003;3.4776923828e+003;3.4821794434e+003;3.5082050781e+003;3.5047436523e+003;3.5367949219e+003;
1.4687500000e+000;3.6753845215e+003;3.5060256348e+003;3.5047436523e+003;3.5561538086e+003;3.4730769043e+003;3.5201281738e+003;3.5094870605e+003;3.5050000000e+003;3.5015385742e+003;3.4875642090e+003;3.4891025391e+003;3.5144870605e+003;3.5175642090e+003;3.5443588867e+003;
1.4765625000e+000;3.7041025391e+003;3.5341025391e+003;3.5341025391e+003;3.5844870605e+003;3.5029487305e+003;3.5487180176e+003;3.5397436523e+003;3.5424357910e+003;3.5374357910e+003;3.5267949219e+003;3.5223076172e+003;3.5465385742e+003;3.5546154785e+003;3.5783332520e+003;
1.4843750000e+000;3.6651281738e+003;3.4955129395e+003;3.4975642090e+003;3.5429487305e+003;3.4639743652e+003;3.5061538086e+003;3.5020512695e+003;3.5091025391e+003;3.5079487305e+003;3.4916667480e+003;3.4876923828e+003;3.5087180176e+003;3.5117949219e+003;3.5424357910e+003;
1.4921875000e+000;3.6982050781e+003;3.5369230957e+003;3.5260256348e+003;3.5782050781e+003;3.5092307129e+003;3.5461538086e+003;3.5260256348e+003;3.5296154785e+003;3.5251281738e+003;3.5261538086e+003;3.5193588867e+003;3.5385898438e+003;3.5478205566e+003;3.5712819824e+003;
1.5000000000e+000;3.6696154785e+003;3.5114101563e+003;3.5006411133e+003;3.5566667480e+003;3.4852563477e+003;3.5284614258e+003;3.5016667480e+003;3.5010256348e+003;3.4939743652e+003;3.4993588867e+003;3.4929487305e+003;3.5121794434e+003;3.5242307129e+003;3.5447436523e+003;
1.5078125000e+000;3.6457692871e+003;3.4911538086e+003;3.4783332520e+003;3.5379487305e+003;3.4646154785e+003;3.5130769043e+003;3.4841025391e+003;3.4748718262e+003;3.4684614258e+003;3.4730769043e+003;3.4700000000e+003;3.4880769043e+003;3.5028205566e+003;3.5219230957e+003;
1.5156250000e+000;3.6711538086e+003;3.5216667480e+003;3.4996154785e+003;3.5628205566e+003;3.4925642090e+003;3.5405129395e+003;3.5141025391e+003;3.4938461914e+003;3.4946154785e+003;3.4946154785e+003;3.4930769043e+003;3.5110256348e+003;3.5251281738e+003;3.5470512695e+003;
1.5234375000e+000;3.6616667480e+003;3.5032050781e+003;3.4853845215e+003;3.5479487305e+003;3.4810256348e+003;3.5302563477e+003;3.4950000000e+003;3.4729487305e+003;3.4728205566e+003;3.4794870605e+003;3.4743588867e+003;3.4952563477e+003;3.5024357910e+003;3.5238461914e+003;
1.5312500000e+000;3.6755129395e+003;3.5180769043e+003;3.4989743652e+003;3.5607692871e+003;3.4951281738e+003;3.5421794434e+003;3.5067949219e+003;3.4824357910e+003;3.4824357910e+003;3.4902563477e+003;3.4882050781e+003;3.5053845215e+003;3.5155129395e+003;3.5342307129e+003;
1.5390625000e+000;3.6973076172e+003;3.5420512695e+003;3.5211538086e+003;3.5814101563e+003;3.5167949219e+003;3.5610256348e+003;3.5275642090e+003;3.5038461914e+003;3.5047436523e+003;3.5125642090e+003;3.5119230957e+003;3.5264101563e+003;3.5396154785e+003;3.5569230957e+003;
1.5468750000e+000;3.6880769043e+003;3.5282050781e+003;3.5110256348e+003;3.5698718262e+003;3.5025642090e+003;3.5458974609e+003;3.5164101563e+003;3.4979487305e+003;3.4991025391e+003;3.5047436523e+003;3.5003845215e+003;3.5216667480e+003;3.5323076172e+003;3.5511538086e+003;
1.5546875000e+000;3.6838461914e+003;3.5185898438e+003;3.5041025391e+003;3.5633332520e+003;3.4953845215e+003;3.5365385742e+003;3.5089743652e+003;3.4921794434e+003;3.4920512695e+003;3.4971794434e+003;3.4908974609e+003;3.5174357910e+003;3.5243588867e+003;3.5443588867e+003;
1.5625000000e+000;3.7074357910e+003;3.5400000000e+003;3.5255129395e+003;3.5842307129e+003;3.5178205566e+003;3.5533332520e+003;3.5280769043e+003;3.5142307129e+003;3.5132050781e+003;3.5184614258e+003;3.5117949219e+003;3.5402563477e+003;3.5439743652e+003;3.5655129395e+003;
1.5703125000e+000;3.7101281738e+003;3.5467949219e+003;3.5394870605e+003;3.5916667480e+003;3.5164101563e+003;3.5512819824e+003;3.5353845215e+003;3.5315385742e+003;3.5293588867e+003;3.5319230957e+003;3.5235898438e+003;3.5519230957e+003;3.5580769043e+003;3.5824357910e+003;
1.5781250000e+000;3.7310256348e+003;3.5653845215e+003;3.5602563477e+003;3.6125642090e+003;3.5358974609e+003;3.5680769043e+003;3.5567949219e+003;3.5560256348e+003;3.5537180176e+003;3.5584614258e+003;3.5471794434e+003;3.5769230957e+003;3.5826923828e+003;3.6055129395e+003;
1.5859375000e+000;3.6962819824e+003;3.5350000000e+003;3.5265385742e+003;3.5803845215e+003;3.4997436523e+003;3.5353845215e+003;3.5305129395e+003;3.5367949219e+003;3.5330769043e+003;3.5411538086e+003;3.5294870605e+003;3.5542307129e+003;3.5539743652e+003;3.5793588867e+003;
1.5937500000e+000;3.7515385742e+003;3.5974357910e+003;3.5821794434e+003;3.6357692871e+003;3.5635898438e+003;3.5935898438e+003;3.5846154785e+003;3.5953845215e+003;3.5907692871e+003;3.6020512695e+003;3.5887180176e+003;3.6042307129e+003;3.6165385742e+003;3.6379487305e+003;
1.6015625000e+000;3.7425642090e+003;3.5902563477e+003;3.5774357910e+003;3.6326923828e+003;3.5597436523e+003;3.5912819824e+003;3.5787180176e+003;3.5878205566e+003;3.5814101563e+003;3.5961538086e+003;3.5803845215e+003;3.5976923828e+003;3.6075642090e+003;3.6312819824e+003;
1.6093750000e+000;3.7856411133e+003;3.6425642090e+003;3.6207692871e+003;3.6775642090e+003;3.6151281738e+003;3.6398718262e+003;3.6266667480e+003;3.6216667480e+003;3.6166667480e+003;3.6385898438e+003;3.6169230957e+003;3.6316667480e+003;3.6475642090e+003;3.6701281738e+003;
1.6171875000e+000;3.8103845215e+003;3.6684614258e+003;3.6450000000e+003;3.7000000000e+003;3.6423076172e+003;3.6648718262e+003;3.6500000000e+003;3.6469230957e+003;3.6450000000e+003;3.6666667480e+003;3.6417949219e+003;3.6553845215e+003;3.6741025391e+003;3.6944870605e+003;
1.6250000000e+000;3.7865385742e+003;3.6458974609e+003;3.6261538086e+003;3.6817949219e+003;3.6255129395e+003;3.6512819824e+003;3.6315385742e+003;3.6262819824e+003;3.6250000000e+003;3.6461538086e+003;3.6210256348e+003;3.6402563477e+003;3.6534614258e+003;3.6757692871e+003;
1.6328125000e+000;3.7891025391e+003;3.6521794434e+003;3.6305129395e+003;3.6885898438e+003;3.6328205566e+003;3.6571794434e+003;3.6373076172e+003;3.6276923828e+003;3.6251281738e+003;3.6487180176e+003;3.6264101563e+003;3.6478205566e+003;3.6575642090e+003;3.6816667480e+003;
1.6406250000e+000;3.8084614258e+003;3.6793588867e+003;3.6526923828e+003;3.7091025391e+003;3.6511538086e+003;3.6751281738e+003;3.6516667480e+003;3.6435898438e+003;3.6471794434e+003;3.6743588867e+003;3.6535898438e+003;3.6725642090e+003;3.6758974609e+003;3.7035898438e+003;
1.6484375000e+000;3.7869230957e+003;3.6547436523e+003;3.6321794434e+003;3.6842307129e+003;3.6257692871e+003;3.6534614258e+003;3.6284614258e+003;3.6189743652e+003;3.6265385742e+003;3.6498718262e+003;3.6287180176e+003;3.6471794434e+003;3.6514101563e+003;3.6785898438e+003;
1.6562500000e+000;3.8179487305e+003;3.6841025391e+003;3.6638461914e+003;3.7074357910e+003;3.6579487305e+003;3.6824357910e+003;3.6587180176e+003;3.6457692871e+003;3.6564101563e+003;3.6801281738e+003;3.6576923828e+003;3.6743588867e+003;3.6869230957e+003;3.7094870605e+003;
1.6640625000e+000;3.8388461914e+003;3.7076923828e+003;3.6857692871e+003;3.7287180176e+003;3.6825642090e+003;3.7037180176e+003;3.6807692871e+003;3.6692307129e+003;3.6787180176e+003;3.7064101563e+003;3.6824357910e+003;3.7003845215e+003;3.7152563477e+003;3.7356411133e+003;
1.6718750000e+000;3.8134614258e+003;3.6869230957e+003;3.6661538086e+003;3.7165385742e+003;3.6569230957e+003;3.6764101563e+003;3.6583332520e+003;3.6460256348e+003;3.6557692871e+003;3.6766667480e+003;3.6606411133e+003;3.6870512695e+003;3.6916667480e+003;3.7157692871e+003;
1.6796875000e+000;3.8425642090e+003;3.7162819824e+003;3.6970512695e+003;3.7453845215e+003;3.6824357910e+003;3.6993588867e+003;3.6839743652e+003;3.6756411133e+003;3.6864101563e+003;3.7048718262e+003;3.6894870605e+003;3.7156411133e+003;3.7166667480e+003;3.7443588867e+003;
1.6875000000e+000;3.8670512695e+003;3.7414101563e+003;3.7246154785e+003;3.7678205566e+003;3.7043588867e+003;3.7194870605e+003;3.7062819824e+003;3.7056411133e+003;3.7155129395e+003;3.7346154785e+003;3.7166667480e+003;3.7420512695e+003;3.7403845215e+003;3.7708974609e+003;
1.6953125000e+000;3.8610256348e+003;3.7362819824e+003;3.7216667480e+003;3.7601281738e+003;3.6976923828e+003;3.7130769043e+003;3.7021794434e+003;3.7078205566e+003;3.7151281738e+003;3.7361538086e+003;3.7153845215e+003;3.7405129395e+003;3.7374357910e+003;3.7685898438e+003;
1.7031250000e+000;3.8646154785e+003;3.7500000000e+003;3.7239743652e+003;3.7691025391e+003;3.7201281738e+003;3.7291025391e+003;3.7265385742e+003;3.7376923828e+003;3.7416667480e+003;3.7644870605e+003;3.7402563477e+003;3.7557692871e+003;3.7630769043e+003;3.7842307129e+003;
1.7109375000e+000;3.8405129395e+003;3.7328205566e+003;3.7061538086e+003;3.7526923828e+003;3.7094870605e+003;3.7273076172e+003;3.7214101563e+003;3.7193588867e+003;3.7197436523e+003;3.7421794434e+003;3.7087180176e+003;3.7233332520e+003;3.7332050781e+003;3.7510256348e+003;
1.7187500000e+000;3.8728205566e+003;3.7694870605e+003;3.7378205566e+003;3.7817949219e+003;3.7460256348e+003;3.7607692871e+003;3.7528205566e+003;3.7489743652e+003;3.7487180176e+003;3.7779487305e+003;3.7429487305e+003;3.7562819824e+003;3.7684614258e+003;3.7851281738e+003;
1.7265625000e+000;3.8826923828e+003;3.7885898438e+003;3.7533332520e+003;3.7965385742e+003;3.7658974609e+003;3.7812819824e+003;3.7652563477e+003;3.7569230957e+003;3.7557692871e+003;3.7921794434e+003;3.7569230957e+003;3.7737180176e+003;3.7819230957e+003;3.8047436523e+003;
1.7343750000e+000;3.9196154785e+003;3.8269230957e+003;3.7921794434e+003;3.8356411133e+003;3.8094870605e+003;3.8178205566e+003;3.7939743652e+003;3.7748718262e+003;3.7792307129e+003;3.8138461914e+003;3.7838461914e+003;3.8057692871e+003;3.8103845215e+003;3.8323076172e+003;
1.7421875000e+000;3.9008974609e+003;3.8087180176e+003;3.7726923828e+003;3.8153845215e+003;3.7883332520e+003;3.7988461914e+003;3.7730769043e+003;3.7529487305e+003;3.7579487305e+003;3.7924357910e+003;3.7673076172e+003;3.7874357910e+003;3.7934614258e+003;3.8133332520e+003;
1.7500000000e+000;3.9321794434e+003;3.8441025391e+003;3.8012819824e+003;3.8443588867e+003;3.8189743652e+003;3.8264101563e+003;3.7994870605e+003;3.7801281738e+003;3.7875642090e+003;3.8265385742e+003;3.8021794434e+003;3.8160256348e+003;3.8298718262e+003;3.8448718262e+003;
1.7578125000e+000;3.9685898438e+003;3.8829487305e+003;3.8375642090e+003;3.8819230957e+003;3.8560256348e+003;3.8592307129e+003;3.8332050781e+003;3.8174357910e+003;3.8282050781e+003;3.8697436523e+003;3.8394870605e+003;3.8521794434e+003;3.8682050781e+003;3.8824357910e+003;
1.7656250000e+000;3.9332050781e+003;3.8505129395e+003;3.8091025391e+003;3.8543588867e+003;3.8144870605e+003;3.8216667480e+003;3.8003845215e+003;3.7837180176e+003;3.8024357910e+003;3.8355129395e+003;3.8039743652e+003;3.8252563477e+003;3.8347436523e+003;3.8516667480e+003;
1.7734375000e+000;3.9332050781e+003;3.8532050781e+003;3.8126923828e+003;3.8530769043e+003;3.8141025391e+003;3.8211538086e+003;3.8019230957e+003;3.7858974609e+003;3.8034614258e+003;3.8342307129e+003;3.8078205566e+003;3.8319230957e+003;3.8378205566e+003;3.8542307129e+003;
1.7812500000e+000;3.9341025391e+003;3.8558974609e+003;3.8242307129e+003;3.8535898438e+003;3.8148718262e+003;3.8211538086e+003;3.8083332520e+003;3.8030769043e+003;3.8132050781e+003;3.8457692871e+003;3.8216667480e+003;3.8497436523e+003;3.8466667480e+003;3.8638461914e+003;
1.7890625000e+000;3.9117949219e+003;3.8301281738e+003;3.8057692871e+003;3.8341025391e+003;3.7902563477e+003;3.7980769043e+003;3.7905129395e+003;3.7892307129e+003;3.7964101563e+003;3.8285898438e+003;3.8030769043e+003;3.8308974609e+003;3.8273076172e+003;3.8450000000e+003;
1.7968750000e+000;3.9542307129e+003;3.8705129395e+003;3.8489743652e+003;3.8783332520e+003;3.8324357910e+003;3.8283332520e+003;3.8374357910e+003;3.8488461914e+003;3.8558974609e+003;3.8843588867e+003;3.8542307129e+003;3.8707692871e+003;3.8841025391e+003;3.8943588867e+003;
1.8046875000e+000;3.9600000000e+003;3.8793588867e+003;3.8569230957e+003;3.8852563477e+003;3.8412819824e+003;3.8362819824e+003;3.8453845215e+003;3.8612819824e+003;3.8660256348e+003;3.8955129395e+003;3.8637180176e+003;3.8820512695e+003;3.8915385742e+003;3.9021794434e+003;
1.8125000000e+000;3.9378205566e+003;3.8584614258e+003;3.8370512695e+003;3.8655129395e+003;3.8221794434e+003;3.8208974609e+003;3.8273076172e+003;3.8417949219e+003;3.8424357910e+003;3.8728205566e+003;3.8410256348e+003;3.8642307129e+003;3.8665385742e+003;3.8794870605e+003;
1.8203125000e+000;3.9635898438e+003;3.9014101563e+003;3.8644870605e+003;3.9015385742e+003;3.8702563477e+003;3.8733332520e+003;3.8629487305e+003;3.8547436523e+003;3.8615385742e+003;3.8971794434e+003;3.8587180176e+003;3.8792307129e+003;3.8929487305e+003;3.9032050781e+003;
1.8281250000e+000;3.9483332520e+003;3.8916667480e+003;3.8521794434e+003;3.8917949219e+003;3.8630769043e+003;3.8682050781e+003;3.8553845215e+003;3.8438461914e+003;3.8506411133e+003;3.8883332520e+003;3.8476923828e+003;3.8701281738e+003;3.8793588867e+003;3.8894870605e+003;
1.8359375000e+000;3.9623076172e+003;3.9065385742e+003;3.8696154785e+003;3.9102563477e+003;3.8883332520e+003;3.8971794434e+003;3.8833332520e+003;3.8719230957e+003;3.8764101563e+003;3.9139743652e+003;3.8671794434e+003;3.8900000000e+003;3.9017949219e+003;3.9133332520e+003;
1.8437500000e+000;3.9150000000e+003;3.8535898438e+003;3.8232050781e+003;3.8582050781e+003;3.8369230957e+003;3.8450000000e+003;3.8275642090e+003;3.8084614258e+003;3.8202563477e+003;3.8544870605e+003;3.8133332520e+003;3.8350000000e+003;3.8526923828e+003;3.8620512695e+003;
1.8515625000e+000;3.9508974609e+003;3.8923076172e+003;3.8585898438e+003;3.8929487305e+003;3.8728205566e+003;3.8743588867e+003;3.8582050781e+003;3.8391025391e+003;3.8524357910e+003;3.8894870605e+003;3.8507692871e+003;3.8708974609e+003;3.8870512695e+003;3.8975642090e+003;
1.8593750000e+000;3.9589743652e+003;3.9025642090e+003;3.8719230957e+003;3.9021794434e+003;3.8757692871e+003;3.8752563477e+003;3.8624357910e+003;3.8457692871e+003;3.8573076172e+003;3.8962819824e+003;3.8656411133e+003;3.8853845215e+003;3.8966667480e+003;3.9129487305e+003;
1.8671875000e+000;3.9620512695e+003;3.9048718262e+003;3.8735898438e+003;3.9007692871e+003;3.8757692871e+003;3.8732050781e+003;3.8643588867e+003;3.8456411133e+003;3.8561538086e+003;3.8955129395e+003;3.8674357910e+003;3.8882050781e+003;3.9001281738e+003;3.9152563477e+003;
1.8750000000e+000;3.9858974609e+003;3.9296154785e+003;3.8952563477e+003;3.9192307129e+003;3.8948718262e+003;3.8866667480e+003;3.8864101563e+003;3.8734614258e+003;3.8826923828e+003;3.9250000000e+003;3.8921794434e+003;3.9191025391e+003;3.9280769043e+003;3.9412819824e+003;
1.8828125000e+000;3.9680769043e+003;3.9119230957e+003;3.8794870605e+003;3.9051281738e+003;3.8756411133e+003;3.8682050781e+003;3.8705129395e+003;3.8614101563e+003;3.8702563477e+003;3.9121794434e+003;3.8760256348e+003;3.9058974609e+003;3.9125642090e+003;3.9261538086e+003;
1.8906250000e+000;3.9923076172e+003;3.9376923828e+003;3.9056411133e+003;3.9325642090e+003;3.8971794434e+003;3.8821794434e+003;3.8923076172e+003;3.8891025391e+003;3.8982050781e+003;3.9414101563e+003;3.9071794434e+003;3.9288461914e+003;3.9398718262e+003;3.9534614258e+003;
1.8984375000e+000;4.0125642090e+003;3.9575642090e+003;3.9260256348e+003;3.9491025391e+003;3.9156411133e+003;3.8974357910e+003;3.9097436523e+003;3.9146154785e+003;3.9206411133e+003;3.9652563477e+003;3.9312819824e+003;3.9530769043e+003;3.9608974609e+003;3.9764101563e+003;
1.9062500000e+000;3.9655129395e+003;3.9067949219e+003;3.8820512695e+003;3.9019230957e+003;3.8643588867e+003;3.8503845215e+003;3.8678205566e+003;3.8826923828e+003;3.8806411133e+003;3.9183332520e+003;3.8843588867e+003;3.9132050781e+003;3.9126923828e+003;3.9325642090e+003;
1.9140625000e+000;3.9488461914e+003;3.8911538086e+003;3.8658974609e+003;3.8883332520e+003;3.8487180176e+003;3.8361538086e+003;3.8561538086e+003;3.8694870605e+003;3.8676923828e+003;3.9011538086e+003;3.8662819824e+003;3.8942307129e+003;3.8965385742e+003;3.9148718262e+003;
1.9218750000e+000;3.9591025391e+003;3.9112819824e+003;3.8755129395e+003;3.9051281738e+003;3.8728205566e+003;3.8643588867e+003;3.8733332520e+003;3.8756411133e+003;3.8779487305e+003;3.9167949219e+003;3.8742307129e+003;3.8980769043e+003;3.9114101563e+003;3.9200000000e+003;
1.9296875000e+000;3.9593588867e+003;3.9107692871e+003;3.8758974609e+003;3.9051281738e+003;3.8764101563e+003;3.8714101563e+003;3.8752563477e+003;3.8701281738e+003;3.8696154785e+003;3.9093588867e+003;3.8679487305e+003;3.8967949219e+003;3.9082050781e+003;3.9171794434e+003;
1.9375000000e+000;3.9898718262e+003;3.9412819824e+003;3.9071794434e+003;3.9342307129e+003;3.9114101563e+003;3.9053845215e+003;3.9069230957e+003;3.8955129395e+003;3.8935898438e+003;3.9323076172e+003;3.8935898438e+003;3.9261538086e+003;3.9357692871e+003;3.9464101563e+003;
1.9453125000e+000;4.0450000000e+003;3.9993588867e+003;3.9647436523e+003;3.9887180176e+003;3.9733332520e+003;3.9619230957e+003;3.9625642090e+003;3.9498718262e+003;3.9497436523e+003;3.9879487305e+003;3.9510256348e+003;3.9832050781e+003;3.9920512695e+003;4.0047436523e+003;
1.9531250000e+000;4.0710256348e+003;4.0446154785e+003;4.0019230957e+003;4.0276923828e+003;4.0219230957e+003;4.0138461914e+003;4.0052563477e+003;3.9852563477e+003;3.9942307129e+003;4.0443588867e+003;4.0014101563e+003;4.0235898438e+003;4.0408974609e+003;4.0507692871e+003;
1.9609375000e+000;4.1053847656e+003;4.0878205566e+003;4.0507692871e+003;4.0617949219e+003;4.0737180176e+003;4.0592307129e+003;4.0541025391e+003;4.0316667480e+003;4.0442307129e+003;4.0910256348e+003;4.0428205566e+003;4.0651281738e+003;4.0778205566e+003;4.0857692871e+003;
1.9687500000e+000;4.0984614258e+003;4.0817949219e+003;4.0423076172e+003;4.0553845215e+003;4.0655129395e+003;4.0493588867e+003;4.0451281738e+003;4.0203845215e+003;4.0320512695e+003;4.0797436523e+003;4.0339743652e+003;4.0571794434e+003;4.0680769043e+003;4.0782050781e+003;
1.9765625000e+000;4.1601284180e+003;4.1443588867e+003;4.1026923828e+003;4.1119228516e+003;4.1193588867e+003;4.0967949219e+003;4.0955129395e+003;4.0757692871e+003;4.0832050781e+003;4.1369228516e+003;4.0935898438e+003;4.1175639648e+003;4.1283334961e+003;4.1432050781e+003;
1.9843750000e+000;4.2191025391e+003;4.2038461914e+003;4.1710258789e+003;4.1635898438e+003;4.1757690430e+003;4.1375639648e+003;4.1514101563e+003;4.1496152344e+003;4.1421796875e+003;4.2042309570e+003;4.1657690430e+003;4.1885898438e+003;4.1948715820e+003;4.2082050781e+003;
1.9921875000e+000;4.2296152344e+003;4.2152563477e+003;4.1812822266e+003;4.1728203125e+003;4.1844873047e+003;4.1402563477e+003;4.1587177734e+003;4.1637177734e+003;4.1553847656e+003;4.2179487305e+003;4.1791025391e+003;4.2011538086e+003;4.2067949219e+003;4.2189741211e+003;
2.0000000000e+000;4.1693588867e+003;4.1550000000e+003;4.1296152344e+003;4.1183334961e+003;4.1196152344e+003;4.0789743652e+003;4.1025639648e+003;4.1164101563e+003;4.1115385742e+003;4.1651284180e+003;4.1274360352e+003;4.1493588867e+003;4.1547436523e+003;4.1670512695e+003;
2.0078125000e+000;4.1479487305e+003;4.1341025391e+003;4.1125639648e+003;4.1014101563e+003;4.0991025391e+003;4.0612819824e+003;4.0858974609e+003;4.1011538086e+003;4.0980771484e+003;4.1461538086e+003;4.1108974609e+003;4.1316665039e+003;4.1389741211e+003;4.1503847656e+003;
2.0156250000e+000;4.1638461914e+003;4.1541025391e+003;4.1279487305e+003;4.1243588867e+003;4.1217949219e+003;4.0834614258e+003;4.0983334961e+003;4.1241025391e+003;4.1185898438e+003;4.1692309570e+003;4.1260258789e+003;4.1478203125e+003;4.1532050781e+003;4.1637177734e+003;
2.0234375000e+000;4.1270512695e+003;4.1161538086e+003;4.0889743652e+003;4.0869230957e+003;4.0860256348e+003;4.0515385742e+003;4.0619230957e+003;4.0826923828e+003;4.0780769043e+003;4.1274360352e+003;4.0807692871e+003;4.1047436523e+003;4.1065385742e+003;4.1193588867e+003;
2.0312500000e+000;4.0933332520e+003;4.0812819824e+003;4.0524357910e+003;4.0483332520e+003;4.0598718262e+003;4.0321794434e+003;4.0394870605e+003;4.0408974609e+003;4.0430769043e+003;4.0823076172e+003;4.0385898438e+003;4.0626923828e+003;4.0634614258e+003;4.0774357910e+003;
2.0390625000e+000;4.1015385742e+003;4.0905129395e+003;4.0619230957e+003;4.0576923828e+003;4.0739743652e+003;4.0491025391e+003;4.0552563477e+003;4.0525642090e+003;4.0562819824e+003;4.0924357910e+003;4.0523076172e+003;4.0758974609e+003;4.0773076172e+003;4.0893588867e+003;
2.0468750000e+000;4.0439743652e+003;4.0356411133e+003;4.0064101563e+003;4.0160256348e+003;4.0267949219e+003;4.0111538086e+003;4.0089743652e+003;3.9971794434e+003;3.9989743652e+003;4.0321794434e+003;3.9984614258e+003;4.0242307129e+003;4.0244870605e+003;4.0314101563e+003;
2.0546875000e+000;4.0534614258e+003;4.0470512695e+003;4.0128205566e+003;4.0252563477e+003;4.0383332520e+003;4.0208974609e+003;4.0164101563e+003;4.0000000000e+003;4.0051281738e+003;4.0364101563e+003;4.0025642090e+003;4.0270512695e+003;4.0274357910e+003;4.0351281738e+003;
2.0625000000e+000;4.0744870605e+003;4.0703845215e+003;4.0315385742e+003;4.0447436523e+003;4.0608974609e+003;4.0428205566e+003;4.0356411133e+003;4.0178205566e+003;4.0271794434e+003;4.0570512695e+003;4.0220512695e+003;4.0447436523e+003;4.0450000000e+003;4.0539743652e+003;
2.0703125000e+000;4.0742307129e+003;4.0707692871e+003;4.0307692871e+003;4.0447436523e+003;4.0606411133e+003;4.0460256348e+003;4.0358974609e+003;4.0188461914e+003;4.0310256348e+003;4.0602563477e+003;4.0243588867e+003;4.0455129395e+003;4.0460256348e+003;4.0552563477e+003;
2.0781250000e+000;3.9970512695e+003;3.9837180176e+003;3.9534614258e+003;3.9733332520e+003;3.9775642090e+003;3.9671794434e+003;3.9588461914e+003;3.9406411133e+003;3.9479487305e+003;3.9838461914e+003;3.9493588867e+003;3.9650000000e+003;3.9824357910e+003;3.9785898438e+003;
2.0859375000e+000;3.9774357910e+003;3.9630769043e+003;3.9366667480e+003;3.9538461914e+003;3.9558974609e+003;3.9438461914e+003;3.9383332520e+003;3.9220512695e+003;3.9264101563e+003;3.9621794434e+003;3.9284614258e+003;3.9469230957e+003;3.9612819824e+003;3.9605129395e+003;
2.0937500000e+000;3.9211538086e+003;3.9003845215e+003;3.8766667480e+003;3.8957692871e+003;3.8834614258e+003;3.8748718262e+003;3.8774357910e+003;3.8607692871e+003;3.8557692871e+003;3.8884614258e+003;3.8658974609e+003;3.8900000000e+003;3.8976923828e+003;3.9033332520e+003;
2.1015625000e+000;3.9551281738e+003;3.9291025391e+003;3.9057692871e+003;3.9203845215e+003;3.9025642090e+003;3.8843588867e+003;3.8930769043e+003;3.8982050781e+003;3.8916667480e+003;3.9324357910e+003;3.9057692871e+003;3.9242307129e+003;3.9351281738e+003;3.9356411133e+003;
2.1093750000e+000;3.9311538086e+003;3.9053845215e+003;3.8844870605e+003;3.8966667480e+003;3.8775642090e+003;3.8575642090e+003;3.8691025391e+003;3.8761538086e+003;3.8721794434e+003;3.9093588867e+003;3.8838461914e+003;3.9039743652e+003;3.9091025391e+003;3.9141025391e+003;
2.1171875000e+000;3.9370512695e+003;3.9138461914e+003;3.8891025391e+003;3.9060256348e+003;3.8843588867e+003;3.8611538086e+003;3.8741025391e+003;3.8900000000e+003;3.8969230957e+003;3.9212819824e+003;3.8929487305e+003;3.9165385742e+003;3.9207692871e+003;3.9287180176e+003;
2.1250000000e+000;3.9205129395e+003;3.8871794434e+003;3.8641025391e+003;3.8820512695e+003;3.8655129395e+003;3.8553845215e+003;3.8598718262e+003;3.8688461914e+003;3.8774357910e+003;3.8992307129e+003;3.8667949219e+003;3.8869230957e+003;3.9023076172e+003;3.8987180176e+003;
2.1328125000e+000;3.9582050781e+003;3.9266667480e+003;3.9011538086e+003;3.9151281738e+003;3.9058974609e+003;3.8955129395e+003;3.8989743652e+003;3.9041025391e+003;3.9116667480e+003;3.9367949219e+003;3.9026923828e+003;3.9211538086e+003;3.9383332520e+003;3.9338461914e+003;
2.1406250000e+000;3.9848718262e+003;3.9552563477e+003;3.9293588867e+003;3.9408974609e+003;3.9360256348e+003;3.9258974609e+003;3.9273076172e+003;3.9305129395e+003;3.9366667480e+003;3.9646154785e+003;3.9284614258e+003;3.9471794434e+003;3.9626923828e+003;3.9605129395e+003;
2.1484375000e+000;3.9753845215e+003;3.9443588867e+003;3.9237180176e+003;3.9384614258e+003;3.9343588867e+003;3.9275642090e+003;3.9230769043e+003;3.9194870605e+003;3.9226923828e+003;3.9511538086e+003;3.9148718262e+003;3.9355129395e+003;3.9473076172e+003;3.9502563477e+003;
2.1562500000e+000;4.0348718262e+003;4.0088461914e+003;3.9832050781e+003;4.0014101563e+003;4.0064101563e+003;3.9974357910e+003;3.9861538086e+003;3.9730769043e+003;3.9808974609e+003;4.0147436523e+003;3.9751281738e+003;3.9902563477e+003;4.0123076172e+003;4.0101281738e+003;
2.1640625000e+000;4.0212819824e+003;3.9987180176e+003;3.9721794434e+003;3.9893588867e+003;3.9952563477e+003;3.9889743652e+003;3.9741025391e+003;3.9571794434e+003;3.9675642090e+003;4.0019230957e+003;3.9629487305e+003;3.9797436523e+003;3.9979487305e+003;3.9983332520e+003;
2.1718750000e+000;4.0192307129e+003;3.9979487305e+003;3.9712819824e+003;3.9871794434e+003;3.9938461914e+003;3.9794870605e+003;3.9651281738e+003;3.9373076172e+003;3.9515385742e+003;3.9846154785e+003;3.9534614258e+003;3.9715385742e+003;3.9839743652e+003;3.9885898438e+003;
2.1796875000e+000;4.0326923828e+003;4.0123076172e+003;3.9864101563e+003;4.0024357910e+003;4.0069230957e+003;3.9910256348e+003;3.9778205566e+003;3.9533332520e+003;3.9667949219e+003;4.0021794434e+003;3.9691025391e+003;3.9867949219e+003;3.9994870605e+003;4.0043588867e+003;
2.1875000000e+000;4.0173076172e+003;3.9983332520e+003;3.9742307129e+003;3.9912819824e+003;3.9905129395e+003;3.9773076172e+003;3.9655129395e+003;3.9435898438e+003;3.9544870605e+003;3.9915385742e+003;3.9565385742e+003;3.9758974609e+003;3.9862819824e+003;3.9932050781e+003;
2.1953125000e+000;3.9892307129e+003;3.9708974609e+003;3.9476923828e+003;3.9667949219e+003;3.9605129395e+003;3.9493588867e+003;3.9416667480e+003;3.9194870605e+003;3.9265385742e+003;3.9629487305e+003;3.9285898438e+003;3.9502563477e+003;3.9578205566e+003;3.9674357910e+003;
2.2031250000e+000;3.9956411133e+003;3.9683332520e+003;3.9464101563e+003;3.9602563477e+003;3.9471794434e+003;3.9287180176e+003;3.9385898438e+003;3.9296154785e+003;3.9258974609e+003;3.9624357910e+003;3.9323076172e+003;3.9537180176e+003;3.9605129395e+003;3.9756411133e+003;
2.2109375000e+000;3.9791025391e+003;3.9508974609e+003;3.9315385742e+003;3.9421794434e+003;3.9258974609e+003;3.9110256348e+003;3.9205129395e+003;3.9148718262e+003;3.9124357910e+003;3.9475642090e+003;3.9189743652e+003;3.9405129395e+003;3.9475642090e+003;3.9625642090e+003;
2.2187500000e+000;4.0473076172e+003;4.0215385742e+003;3.9974357910e+003;4.0050000000e+003;3.9876923828e+003;3.9594870605e+003;3.9774357910e+003;3.9911538086e+003;3.9943588867e+003;4.0252563477e+003;4.0012819824e+003;4.0184614258e+003;4.0251281738e+003;4.0388461914e+003;
2.2265625000e+000;4.0038461914e+003;3.9774357910e+003;3.9521794434e+003;3.9641025391e+003;3.9457692871e+003;3.9176923828e+003;3.9332050781e+003;3.9557692871e+003;3.9585898438e+003;3.9964101563e+003;3.9653845215e+003;3.9761538086e+003;3.9894870605e+003;4.0016667480e+003;
2.2343750000e+000;4.0134614258e+003;3.9898718262e+003;3.9611538086e+003;3.9730769043e+003;3.9596154785e+003;3.9312819824e+003;3.9433332520e+003;3.9641025391e+003;3.9684614258e+003;4.0057692871e+003;3.9739743652e+003;3.9820512695e+003;3.9985898438e+003;4.0102563477e+003;
2.2421875000e+000;3.9870512695e+003;3.9706411133e+003;3.9410256348e+003;3.9556411133e+003;3.9417949219e+003;3.9261538086e+003;3.9258974609e+003;3.9378205566e+003;3.9430769043e+003;3.9667949219e+003;3.9378205566e+003;3.9541025391e+003;3.9607692871e+003;3.9800000000e+003;
2.2500000000e+000;4.0023076172e+003;3.9842307129e+003;3.9571794434e+003;3.9720512695e+003;3.9602563477e+003;3.9500000000e+003;3.9470512695e+003;3.9424357910e+003;3.9467949219e+003;3.9717949219e+003;3.9464101563e+003;3.9671794434e+003;3.9744870605e+003;3.9888461914e+003;
2.2578125000e+000;3.9875642090e+003;3.9693588867e+003;3.9441025391e+003;3.9598718262e+003;3.9488461914e+003;3.9397436523e+003;3.9342307129e+003;3.9280769043e+003;3.9319230957e+003;3.9594870605e+003;3.9321794434e+003;3.9546154785e+003;3.9611538086e+003;3.9753845215e+003;
2.2656250000e+000;3.9505129395e+003;3.9315385742e+003;3.9044870605e+003;3.9338461914e+003;3.9265385742e+003;3.9194870605e+003;3.9116667480e+003;3.8875642090e+003;3.8950000000e+003;3.9201281738e+003;3.8957692871e+003;3.9174357910e+003;3.9253845215e+003;3.9437180176e+003;
2.2734375000e+000;3.9721794434e+003;3.9547436523e+003;3.9260256348e+003;3.9562819824e+003;3.9514101563e+003;3.9430769043e+003;3.9346154785e+003;3.9100000000e+003;3.9198718262e+003;3.9444870605e+003;3.9210256348e+003;3.9416667480e+003;3.9480769043e+003;3.9687180176e+003;
2.2812500000e+000;3.9382050781e+003;3.9217949219e+003;3.8971794434e+003;3.9235898438e+003;3.9133332520e+003;3.9098718262e+003;3.8989743652e+003;3.8769230957e+003;3.8853845215e+003;3.9093588867e+003;3.8871794434e+003;3.9124357910e+003;3.9101281738e+003;3.9341025391e+003;
2.2890625000e+000;3.9130769043e+003;3.8966667480e+003;3.8725642090e+003;3.8974357910e+003;3.8834614258e+003;3.8810256348e+003;3.8715385742e+003;3.8471794434e+003;3.8537180176e+003;3.8779487305e+003;3.8566667480e+003;3.8846154785e+003;3.8801281738e+003;3.9029487305e+003;
2.2968750000e+000;3.9147436523e+003;3.8982050781e+003;3.8714101563e+003;3.8960256348e+003;3.8810256348e+003;3.8751281738e+003;3.8685898438e+003;3.8426923828e+003;3.8496154785e+003;3.8748718262e+003;3.8529487305e+003;3.8814101563e+003;3.8782050781e+003;3.8978205566e+003;
2.3046875000e+000;3.9256411133e+003;3.9032050781e+003;3.8747436523e+003;3.9005129395e+003;3.8837180176e+003;3.8700000000e+003;3.8682050781e+003;3.8484614258e+003;3.8615385742e+003;3.8866667480e+003;3.8611538086e+003;3.8879487305e+003;3.8879487305e+003;3.9025642090e+003;
2.3125000000e+000;3.9033332520e+003;3.8748718262e+003;3.8502563477e+003;3.8764101563e+003;3.8550000000e+003;3.8421794434e+003;3.8420512695e+003;3.8270512695e+003;3.8411538086e+003;3.8642307129e+003;3.8398718262e+003;3.8653845215e+003;3.8658974609e+003;3.8797436523e+003;
2.3203125000e+000;3.8864101563e+003;3.8534614258e+003;3.8324357910e+003;3.8575642090e+003;3.8312819824e+003;3.8194870605e+003;3.8217949219e+003;3.8123076172e+003;3.8248718262e+003;3.8464101563e+003;3.8250000000e+003;3.8480769043e+003;3.8502563477e+003;3.8634614258e+003;
2.3281250000e+000;3.8502563477e+003;3.8152563477e+003;3.8008974609e+003;3.8157692871e+003;3.7853845215e+003;3.7696154785e+003;3.7841025391e+003;3.8051281738e+003;3.8157692871e+003;3.8275642090e+003;3.8016667480e+003;3.8278205566e+003;3.8274357910e+003;3.8429487305e+003;
2.3359375000e+000;3.8643588867e+003;3.8275642090e+003;3.8129487305e+003;3.8276923828e+003;3.8001281738e+003;3.7861538086e+003;3.8002563477e+003;3.8189743652e+003;3.8315385742e+003;3.8412819824e+003;3.8144870605e+003;3.8394870605e+003;3.8383332520e+003;3.8525642090e+003;
2.3437500000e+000;3.8544870605e+003;3.8257692871e+003;3.8055129395e+003;3.8232050781e+003;3.7992307129e+003;3.7975642090e+003;3.8000000000e+003;3.8158974609e+003;3.8265385742e+003;3.8380769043e+003;3.8029487305e+003;3.8276923828e+003;3.8260256348e+003;3.8376923828e+003;
2.3515625000e+000;3.8644870605e+003;3.8353845215e+003;3.8080769043e+003;3.8321794434e+003;3.8158974609e+003;3.8110256348e+003;3.8060256348e+003;3.8029487305e+003;3.8087180176e+003;3.8253845215e+003;3.7919230957e+003;3.8220512695e+003;3.8173076172e+003;3.8356411133e+003;
2.3593750000e+000;3.8814101563e+003;3.8523076172e+003;3.8239743652e+003;3.8488461914e+003;3.8358974609e+003;3.8312819824e+003;3.8217949219e+003;3.8162819824e+003;3.8232050781e+003;3.8411538086e+003;3.8096154785e+003;3.8364101563e+003;3.8335898438e+003;3.8507692871e+003;
2.3671875000e+000;3.8548718262e+003;3.8325642090e+003;3.7984614258e+003;3.8284614258e+003;3.8251281738e+003;3.8256411133e+003;3.8076923828e+003;3.7830769043e+003;3.8019230957e+003;3.8196154785e+003;3.7883332520e+003;3.8058974609e+003;3.8151281738e+003;3.8241025391e+003;
2.3750000000e+000;3.8947436523e+003;3.8646154785e+003;3.8323076172e+003;3.8626923828e+003;3.8600000000e+003;3.8556411133e+003;3.8379487305e+003;3.8073076172e+003;3.8275642090e+003;3.8564101563e+003;3.8225642090e+003;3.8403845215e+003;3.8467949219e+003;3.8592307129e+003;
2.3828125000e+000;3.8860256348e+003;3.8547436523e+003;3.8241025391e+003;3.8552563477e+003;3.8503845215e+003;3.8469230957e+003;3.8300000000e+003;3.7938461914e+003;3.8128205566e+003;3.8415385742e+003;3.8133332520e+003;3.8306411133e+003;3.8380769043e+003;3.8487180176e+003;
2.3906250000e+000;3.8980769043e+003;3.8691025391e+003;3.8379487305e+003;3.8688461914e+003;3.8646154785e+003;3.8587180176e+003;3.8443588867e+003;3.8044870605e+003;3.8216667480e+003;3.8503845215e+003;3.8265385742e+003;3.8438461914e+003;3.8537180176e+003;3.8615385742e+003;
2.3984375000e+000;3.9450000000e+003;3.9200000000e+003;3.8917949219e+003;3.9165385742e+003;3.9119230957e+003;3.8992307129e+003;3.8937180176e+003;3.8642307129e+003;3.8728205566e+003;3.9060256348e+003;3.8793588867e+003;3.9062819824e+003;3.9091025391e+003;3.9197436523e+003;
2.4062500000e+000;3.9689743652e+003;3.9310256348e+003;3.9124357910e+003;3.9300000000e+003;3.9089743652e+003;3.8942307129e+003;3.9082050781e+003;3.8938461914e+003;3.8946154785e+003;3.9262819824e+003;3.9052563477e+003;3.9382050781e+003;3.9256411133e+003;3.9452563477e+003;
2.4140625000e+000;4.0141025391e+003;3.9751281738e+003;3.9575642090e+003;3.9712819824e+003;3.9500000000e+003;3.9296154785e+003;3.9487180176e+003;3.9416667480e+003;3.9442307129e+003;3.9747436523e+003;3.9566667480e+003;3.9835898438e+003;3.9739743652e+003;3.9900000000e+003;
2.4218750000e+000;4.0438461914e+003;4.0058974609e+003;3.9925642090e+003;4.0006411133e+003;3.9794870605e+003;3.9551281738e+003;3.9761538086e+003;3.9814101563e+003;3.9843588867e+003;4.0152563477e+003;3.9956411133e+003;4.0191025391e+003;4.0110256348e+003;4.0239743652e+003;
2.4296875000e+000;4.0235898438e+003;3.9873076172e+003;3.9843588867e+003;3.9852563477e+003;3.9601281738e+003;3.9342307129e+003;3.9583332520e+003;3.9846154785e+003;3.9847436523e+003;4.0138461914e+003;3.9860256348e+003;4.0116667480e+003;4.0025642090e+003;4.0125642090e+003;
2.4375000000e+000;4.0235898438e+003;3.9887180176e+003;3.9837180176e+003;3.9858974609e+003;3.9602563477e+003;3.9311538086e+003;3.9597436523e+003;3.9888461914e+003;3.9902563477e+003;4.0156411133e+003;3.9858974609e+003;4.0111538086e+003;4.0042307129e+003;4.0120512695e+003;
2.4453125000e+000;4.0397436523e+003;4.0084614258e+003;3.9964101563e+003;4.0016667480e+003;3.9778205566e+003;3.9447436523e+003;3.9770512695e+003;4.0062819824e+003;4.0110256348e+003;4.0332050781e+003;4.0015385742e+003;4.0243588867e+003;4.0211538086e+003;4.0264101563e+003;
2.4531250000e+000;4.0070512695e+003;3.9978205566e+003;3.9658974609e+003;3.9805129395e+003;3.9823076172e+003;3.9593588867e+003;3.9624357910e+003;3.9742307129e+003;3.9846154785e+003;4.0043588867e+003;3.9647436523e+003;3.9835898438e+003;3.9887180176e+003;3.9919230957e+003;
2.4609375000e+000;4.0324357910e+003;4.0276923828e+003;3.9919230957e+003;4.0091025391e+003;4.0157692871e+003;3.9917949219e+003;3.9891025391e+003;3.9980769043e+003;4.0108974609e+003;4.0326923828e+003;3.9907692871e+003;4.0083332520e+003;4.0178205566e+003;4.0170512695e+003;
2.4687500000e+000;3.9883332520e+003;3.9860256348e+003;3.9461538086e+003;3.9698718262e+003;3.9767949219e+003;3.9667949219e+003;3.9502563477e+003;3.9360256348e+003;3.9566667480e+003;3.9842307129e+003;3.9414101563e+003;3.9557692871e+003;3.9679487305e+003;3.9669230957e+003;
2.4765625000e+000;4.0401281738e+003;4.0271794434e+003;3.9932050781e+003;4.0106411133e+003;4.0257692871e+003;4.0244870605e+003;3.9998718262e+003;3.9815385742e+003;4.0075642090e+003;4.0355129395e+003;3.9946154785e+003;4.0056411133e+003;4.0170512695e+003;4.0116667480e+003;
2.4843750000e+000;4.0366667480e+003;4.0216667480e+003;3.9926923828e+003;4.0085898438e+003;4.0214101563e+003;4.0207692871e+003;3.9975642090e+003;3.9764101563e+003;4.0021794434e+003;4.0284614258e+003;3.9911538086e+003;4.0043588867e+003;4.0134614258e+003;4.0051281738e+003;
2.4921875000e+000;4.0860256348e+003;4.0693588867e+003;4.0430769043e+003;4.0542307129e+003;4.0607692871e+003;4.0412819824e+003;4.0342307129e+003;4.0053845215e+003;4.0261538086e+003;4.0700000000e+003;4.0389743652e+003;4.0607692871e+003;4.0632050781e+003;4.0589743652e+003;
2.5000000000e+000;4.0620512695e+003;4.0401281738e+003;4.0165385742e+003;4.0288461914e+003;4.0183332520e+003;3.9960256348e+003;4.0074357910e+003;3.9823076172e+003;3.9878205566e+003;4.0403845215e+003;4.0188461914e+003;4.0394870605e+003;4.0394870605e+003;4.0414101563e+003;
2.5078125000e+000;4.0853845215e+003;4.0630769043e+003;4.0406411133e+003;4.0500000000e+003;4.0393588867e+003;4.0137180176e+003;4.0284614258e+003;4.0115385742e+003;4.0143588867e+003;4.0624357910e+003;4.0411538086e+003;4.0619230957e+003;4.0621794434e+003;4.0607692871e+003;
2.5156250000e+000;4.1043588867e+003;4.0821794434e+003;4.0610256348e+003;4.0664101563e+003;4.0575642090e+003;4.0280769043e+003;4.0435898438e+003;4.0383332520e+003;4.0417949219e+003;4.0855129395e+003;4.0603845215e+003;4.0826923828e+003;4.0819230957e+003;4.0778205566e+003;
2.5234375000e+000;4.0630769043e+003;4.0391025391e+003;4.0217949219e+003;4.0244870605e+003;4.0147436523e+003;3.9829487305e+003;4.0003845215e+003;4.0082050781e+003;4.0188461914e+003;4.0552563477e+003;4.0247436523e+003;4.0478205566e+003;4.0439743652e+003;4.0411538086e+003;
2.5312500000e+000;4.1067949219e+003;4.0914101563e+003;4.0692307129e+003;4.0732050781e+003;4.0605129395e+003;4.0265385742e+003;4.0552563477e+003;4.0744870605e+003;4.0852563477e+003;4.1119228516e+003;4.0825642090e+003;4.0956411133e+003;4.0975639648e+003;4.0944870605e+003;
2.5390625000e+000;4.1137177734e+003;4.1037177734e+003;4.0802563477e+003;4.0841025391e+003;4.0717949219e+003;4.0432050781e+003;4.0689743652e+003;4.0942307129e+003;4.1020512695e+003;4.1252563477e+003;4.0916667480e+003;4.1083334961e+003;4.1075639648e+003;4.1029487305e+003;
2.5468750000e+000;4.0934614258e+003;4.0865385742e+003;4.0621794434e+003;4.0667949219e+003;4.0573076172e+003;4.0361538086e+003;4.0564101563e+003;4.0820512695e+003;4.0875642090e+003;4.1078203125e+003;4.0701281738e+003;4.0912819824e+003;4.0880769043e+003;4.0816667480e+003;
2.5546875000e+000;4.0778205566e+003;4.0728205566e+003;4.0417949219e+003;4.0494870605e+003;4.0551281738e+003;4.0392307129e+003;4.0493588867e+003;4.0652563477e+003;4.0712819824e+003;4.0916667480e+003;4.0503845215e+003;4.0676923828e+003;4.0705129395e+003;4.0611538086e+003;
2.5625000000e+000;4.0860256348e+003;4.0824357910e+003;4.0483332520e+003;4.0578205566e+003;4.0689743652e+003;4.0528205566e+003;4.0583332520e+003;4.0714101563e+003;4.0791025391e+003;4.1023076172e+003;4.0596154785e+003;4.0717949219e+003;4.0780769043e+003;4.0691025391e+003;
2.5703125000e+000;4.0739743652e+003;4.0721794434e+003;4.0382050781e+003;4.0501281738e+003;4.0615385742e+003;4.0479487305e+003;4.0480769043e+003;4.0580769043e+003;4.0670512695e+003;4.0924357910e+003;4.0487180176e+003;4.0598718262e+003;4.0653845215e+003;4.0576923828e+003;
2.5781250000e+000;4.0912819824e+003;4.1078203125e+003;4.0585898438e+003;4.0730769043e+003;4.0907692871e+003;4.0796154785e+003;4.0676923828e+003;4.0484614258e+003;4.0637180176e+003;4.0974360352e+003;4.0551281738e+003;4.0673076172e+003;4.0796154785e+003;4.0639743652e+003;
2.5859375000e+000;4.0764101563e+003;4.0908974609e+003;4.0415385742e+003;4.0578205566e+003;4.0726923828e+003;4.0651281738e+003;4.0510256348e+003;4.0301281738e+003;4.0424357910e+003;4.0784614258e+003;4.0380769043e+003;4.0491025391e+003;4.0602563477e+003;4.0488461914e+003;
2.5937500000e+000;4.1008974609e+003;4.1042309570e+003;4.0582050781e+003;4.0794870605e+003;4.0919230957e+003;4.0787180176e+003;4.0702563477e+003;4.0335898438e+003;4.0446154785e+003;4.0838461914e+003;4.0523076172e+003;4.0696154785e+003;4.0738461914e+003;4.0707692871e+003;
2.6015625000e+000;4.0539743652e+003;4.0562819824e+003;4.0232050781e+003;4.0371794434e+003;4.0397436523e+003;4.0296154785e+003;4.0223076172e+003;3.9896154785e+003;3.9983332520e+003;4.0319230957e+003;4.0053845215e+003;4.0338461914e+003;4.0267949219e+003;4.0320512695e+003;
2.6093750000e+000;4.0567949219e+003;4.0573076172e+003;4.0246154785e+003;4.0384614258e+003;4.0400000000e+003;4.0278205566e+003;4.0243588867e+003;3.9944870605e+003;3.9980769043e+003;4.0342307129e+003;4.0087180176e+003;4.0353845215e+003;4.0292307129e+003;4.0352563477e+003;
2.6171875000e+000;4.0782050781e+003;4.0762819824e+003;4.0467949219e+003;4.0591025391e+003;4.0598718262e+003;4.0348718262e+003;4.0426923828e+003;4.0378205566e+003;4.0319230957e+003;4.0765385742e+003;4.0441025391e+003;4.0692307129e+003;4.0644870605e+003;4.0648718262e+003;
2.6250000000e+000;4.0666667480e+003;4.0656411133e+003;4.0384614258e+003;4.0478205566e+003;4.0471794434e+003;4.0198718262e+003;4.0308974609e+003;4.0358974609e+003;4.0297436523e+003;4.0701281738e+003;4.0373076172e+003;4.0619230957e+003;4.0596154785e+003;4.0552563477e+003;
2.6328125000e+000;4.0997436523e+003;4.1012822266e+003;4.0766667480e+003;4.0753845215e+003;4.0752563477e+003;4.0434614258e+003;4.0617949219e+003;4.0861538086e+003;4.0833332520e+003;4.1142309570e+003;4.0815385742e+003;4.1005126953e+003;4.1017949219e+003;4.0935898438e+003;
2.6406250000e+000;4.1053847656e+003;4.1065385742e+003;4.0851281738e+003;4.0796154785e+003;4.0791025391e+003;4.0492307129e+003;4.0688461914e+003;4.0993588867e+003;4.0988461914e+003;4.1258974609e+003;4.0923076172e+003;4.1103847656e+003;4.1074360352e+003;4.1032050781e+003;
2.6484375000e+000;4.0721794434e+003;4.0764101563e+003;4.0565385742e+003;4.0560256348e+003;4.0575642090e+003;4.0398718262e+003;4.0524357910e+003;4.0660256348e+003;4.0702563477e+003;4.0914101563e+003;4.0528205566e+003;4.0761538086e+003;4.0658974609e+003;4.0691025391e+003;
2.6562500000e+000;4.0982050781e+003;4.1071796875e+003;4.0819230957e+003;4.0839743652e+003;4.0911538086e+003;4.0737180176e+003;4.0815385742e+003;4.0902563477e+003;4.0943588867e+003;4.1182050781e+003;4.0776923828e+003;4.0993588867e+003;4.0951281738e+003;4.0925642090e+003;
2.6640625000e+000;4.1028203125e+003;4.1139741211e+003;4.0829487305e+003;4.0897436523e+003;4.1024360352e+003;4.0920512695e+003;4.0892307129e+003;4.0917949219e+003;4.0952563477e+003;4.1228203125e+003;4.0837180176e+003;4.1010258789e+003;4.1050000000e+003;4.0924357910e+003;
2.6718750000e+000;4.0944870605e+003;4.1033334961e+003;4.0716667480e+003;4.0815385742e+003;4.0947436523e+003;4.0871794434e+003;4.0810256348e+003;4.0766667480e+003;4.0814101563e+003;4.1079487305e+003;4.0715385742e+003;4.0891025391e+003;4.0930769043e+003;4.0812819824e+003;
2.6796875000e+000;4.1880771484e+003;4.2005126953e+003;4.1650000000e+003;4.1748715820e+003;4.1985898438e+003;4.1807690430e+003;4.1671796875e+003;4.1532050781e+003;4.1621796875e+003;4.1908974609e+003;4.1528203125e+003;4.1741025391e+003;4.1787177734e+003;4.1730771484e+003;
2.6875000000e+000;4.1773076172e+003;4.1911538086e+003;4.1570512695e+003;4.1657690430e+003;4.1921796875e+003;4.1751284180e+003;4.1585898438e+003;4.1429487305e+003;4.1514101563e+003;4.1816665039e+003;4.1437177734e+003;4.1632050781e+003;4.1705126953e+003;4.1608974609e+003;
2.6953125000e+000;4.1485898438e+003;4.1617949219e+003;4.1288461914e+003;4.1373076172e+003;4.1662822266e+003;4.1517949219e+003;4.1334614258e+003;4.1125639648e+003;4.1212822266e+003;4.1515385742e+003;4.1165385742e+003;4.1328203125e+003;4.1430771484e+003;4.1280771484e+003;
2.7031250000e+000;4.1273076172e+003;4.1411538086e+003;4.1119228516e+003;4.1124360352e+003;4.1348715820e+003;4.1248715820e+003;4.1112822266e+003;4.0874357910e+003;4.0887180176e+003;4.1188461914e+003;4.0975639648e+003;4.1233334961e+003;4.1184614258e+003;4.1120512695e+003;
2.7109375000e+000;4.1239741211e+003;4.1365385742e+003;4.1103847656e+003;4.1084614258e+003;4.1284614258e+003;4.1157690430e+003;4.1057690430e+003;4.0807692871e+003;4.0801281738e+003;4.1120512695e+003;4.0957692871e+003;4.1180771484e+003;4.1175639648e+003;4.1103847656e+003;
2.7187500000e+000;4.1339741211e+003;4.1417949219e+003;4.1196152344e+003;4.1166665039e+003;4.1284614258e+003;4.1103847656e+003;4.1080771484e+003;4.1000000000e+003;4.0982050781e+003;4.1366665039e+003;4.1220512695e+003;4.1357690430e+003;4.1387177734e+003;4.1269228516e+003;
2.7265625000e+000;4.1237177734e+003;4.1252563477e+003;4.1089741211e+003;4.1001284180e+003;4.1025639648e+003;4.0807692871e+003;4.0857692871e+003;4.1030771484e+003;4.1033334961e+003;4.1321796875e+003;4.1173076172e+003;4.1401284180e+003;4.1366665039e+003;4.1243588867e+003;
2.7343750000e+000;4.1429487305e+003;4.1456411133e+003;4.1285898438e+003;4.1169228516e+003;4.1208974609e+003;4.0942307129e+003;4.1017949219e+003;4.1288461914e+003;4.1321796875e+003;4.1600000000e+003;4.1424360352e+003;4.1626923828e+003;4.1610258789e+003;4.1482050781e+003;
2.7421875000e+000;4.0912819824e+003;4.1014101563e+003;4.0775642090e+003;4.0726923828e+003;4.0744870605e+003;4.0580769043e+003;4.0687180176e+003;4.0896154785e+003;4.0976923828e+003;4.1216665039e+003;4.0969228516e+003;4.1087177734e+003;4.1102563477e+003;4.0975639648e+003;
2.7500000000e+000;4.1060258789e+003;4.1178203125e+003;4.0907692871e+003;4.0878205566e+003;4.0917949219e+003;4.0791025391e+003;4.0878205566e+003;4.1042309570e+003;4.1116665039e+003;4.1350000000e+003;4.1087177734e+003;4.1191025391e+003;4.1246152344e+003;4.1093588867e+003;
2.7578125000e+000;4.1201284180e+003;4.1325639648e+003;4.1076923828e+003;4.1029487305e+003;4.1142309570e+003;4.1091025391e+003;4.1061538086e+003;4.1232050781e+003;4.1280771484e+003;4.1528203125e+003;4.1192309570e+003;4.1311538086e+003;4.1424360352e+003;4.1246152344e+003;
2.7656250000e+000;4.0991025391e+003;4.1126923828e+003;4.0880769043e+003;4.0843588867e+003;4.0998715820e+003;4.0988461914e+003;4.0906411133e+003;4.1037177734e+003;4.1080771484e+003;4.1321796875e+003;4.0969228516e+003;4.1100000000e+003;4.1215385742e+003;4.1043588867e+003;
2.7734375000e+000;4.1171796875e+003;4.1452563477e+003;4.1014101563e+003;4.1106411133e+003;4.1362822266e+003;4.1353847656e+003;4.1271796875e+003;4.1183334961e+003;4.1271796875e+003;4.1473076172e+003;4.1201284180e+003;4.1265385742e+003;4.1383334961e+003;4.1269228516e+003;
2.7812500000e+000;4.1069228516e+003;4.1367949219e+003;4.0941025391e+003;4.1041025391e+003;4.1265385742e+003;4.1289741211e+003;4.1189741211e+003;4.1079487305e+003;4.1174360352e+003;4.1374360352e+003;4.1121796875e+003;4.1183334961e+003;4.1288461914e+003;4.1201284180e+003;
2.7890625000e+000;4.0637180176e+003;4.0906411133e+003;4.0576923828e+003;4.0646154785e+003;4.0824357910e+003;4.0929487305e+003;4.0769230957e+003;4.0620512695e+003;4.0688461914e+003;4.0911538086e+003;4.0651281738e+003;4.0753845215e+003;4.0865385742e+003;4.0743588867e+003;
2.7968750000e+000;4.0732050781e+003;4.0994873047e+003;4.0667949219e+003;4.0726923828e+003;4.0939743652e+003;4.1041025391e+003;4.0862819824e+003;4.0706411133e+003;4.0752563477e+003;4.1002563477e+003;4.0717949219e+003;4.0834614258e+003;4.0966665039e+003;4.0801281738e+003;
2.8046875000e+000;4.0523076172e+003;4.0778205566e+003;4.0432050781e+003;4.0547436523e+003;4.0771794434e+003;4.0880769043e+003;4.0697436523e+003;4.0460256348e+003;4.0479487305e+003;4.0696154785e+003;4.0515385742e+003;4.0642307129e+003;4.0676923828e+003;4.0626923828e+003;
2.8125000000e+000;4.0408974609e+003;4.0655129395e+003;4.0316667480e+003;4.0443588867e+003;4.0637180176e+003;4.0737180176e+003;4.0588461914e+003;4.0285898438e+003;4.0289743652e+003;4.0493588867e+003;4.0394870605e+003;4.0519230957e+003;4.0530769043e+003;4.0526923828e+003;
2.8203125000e+000;4.0560256348e+003;4.0810256348e+003;4.0474357910e+003;4.0584614258e+003;4.0764101563e+003;4.0828205566e+003;4.0720512695e+003;4.0405129395e+003;4.0373076172e+003;4.0602563477e+003;4.0543588867e+003;4.0674357910e+003;4.0687180176e+003;4.0687180176e+003;
2.8281250000e+000;4.0744870605e+003;4.1007690430e+003;4.0682050781e+003;4.0753845215e+003;4.0926923828e+003;4.0958974609e+003;4.0871794434e+003;4.0617949219e+003;4.0529487305e+003;4.0811538086e+003;4.0730769043e+003;4.0898718262e+003;4.0905129395e+003;4.0887180176e+003;
2.8359375000e+000;4.0464101563e+003;4.0706411133e+003;4.0453845215e+003;4.0496154785e+003;4.0544870605e+003;4.0543588867e+003;4.0503845215e+003;4.0405129395e+003;4.0325642090e+003;4.0539743652e+003;4.0442307129e+003;4.0692307129e+003;4.0630769043e+003;4.0642307129e+003;
2.8437500000e+000;4.0537180176e+003;4.0673076172e+003;4.0460256348e+003;4.0456411133e+003;4.0433332520e+003;4.0383332520e+003;4.0400000000e+003;4.0529487305e+003;4.0548718262e+003;4.0778205566e+003;4.0602563477e+003;4.0769230957e+003;4.0705129395e+003;4.0715385742e+003;
2.8515625000e+000;4.0529487305e+003;4.0676923828e+003;4.0465385742e+003;4.0464101563e+003;4.0441025391e+003;4.0370512695e+003;4.0411538086e+003;4.0528205566e+003;4.0569230957e+003;4.0762819824e+003;4.0591025391e+003;4.0747436523e+003;4.0674357910e+003;4.0692307129e+003;
2.8593750000e+000;4.0801281738e+003;4.1006411133e+003;4.0769230957e+003;4.0787180176e+003;4.0782050781e+003;4.0700000000e+003;4.0719230957e+003;4.0842307129e+003;4.0939743652e+003;4.1091025391e+003;4.0917949219e+003;4.1033334961e+003;4.0952563477e+003;4.0962822266e+003;
2.8671875000e+000;4.0800000000e+003;4.1044873047e+003;4.0730769043e+003;4.0785898438e+003;4.0914101563e+003;4.0876923828e+003;4.0797436523e+003;4.0870512695e+003;4.0971796875e+003;4.1173076172e+003;4.0853845215e+003;4.0944870605e+003;4.1038461914e+003;4.0976923828e+003;
2.8750000000e+000;4.0735898438e+003;4.1008974609e+003;4.0664101563e+003;4.0765385742e+003;4.0880769043e+003;4.0873076172e+003;4.0775642090e+003;4.0832050781e+003;4.0944870605e+003;4.1134614258e+003;4.0806411133e+003;4.0884614258e+003;4.0978203125e+003;4.0934614258e+003;
2.8828125000e+000;4.0416667480e+003;4.0697436523e+003;4.0308974609e+003;4.0517949219e+003;4.0598718262e+003;4.0692307129e+003;4.0574357910e+003;4.0507692871e+003;4.0624357910e+003;4.0748718262e+003;4.0482050781e+003;4.0532050781e+003;4.0602563477e+003;4.0570512695e+003;
2.8906250000e+000;4.0625642090e+003;4.0898718262e+003;4.0484614258e+003;4.0700000000e+003;4.0828205566e+003;4.0917949219e+003;4.0797436523e+003;4.0684614258e+003;4.0798718262e+003;4.0920512695e+003;4.0652563477e+003;4.0694870605e+003;4.0789743652e+003;4.0734614258e+003;
2.8984375000e+000;4.0528205566e+003;4.0869230957e+003;4.0444870605e+003;4.0596154785e+003;4.0797436523e+003;4.0846154785e+003;4.0706411133e+003;4.0605129395e+003;4.0696154785e+003;4.0896154785e+003;4.0539743652e+003;4.0619230957e+003;4.0724357910e+003;4.0662819824e+003;
2.9062500000e+000;4.0175642090e+003;4.0539743652e+003;4.0120512695e+003;4.0284614258e+003;4.0444870605e+003;4.0514101563e+003;4.0396154785e+003;4.0229487305e+003;4.0297436523e+003;4.0488461914e+003;4.0196154785e+003;4.0274357910e+003;4.0353845215e+003;4.0306411133e+003;
2.9140625000e+000;4.0676923828e+003;4.1025639648e+003;4.0629487305e+003;4.0773076172e+003;4.0924357910e+003;4.0933332520e+003;4.0894870605e+003;4.0619230957e+003;4.0679487305e+003;4.0884614258e+003;4.0692307129e+003;4.0757692871e+003;4.0829487305e+003;4.0775642090e+003;
2.9218750000e+000;4.1032050781e+003;4.1335898438e+003;4.0994873047e+003;4.1098715820e+003;4.1250000000e+003;4.1225639648e+003;4.1200000000e+003;4.0942307129e+003;4.1014101563e+003;4.1264101563e+003;4.1050000000e+003;4.1139741211e+003;4.1206411133e+003;4.1146152344e+003;
2.9296875000e+000;4.0729487305e+003;4.0946154785e+003;4.0702563477e+003;4.0756411133e+003;4.0787180176e+003;4.0738461914e+003;4.0712819824e+003;4.0561538086e+003;4.0589743652e+003;4.0953845215e+003;4.0788461914e+003;4.0902563477e+003;4.0976923828e+003;4.0915385742e+003;
2.9375000000e+000;4.0889743652e+003;4.1103847656e+003;4.0826923828e+003;4.0878205566e+003;4.0892307129e+003;4.0785898438e+003;4.0797436523e+003;4.0696154785e+003;4.0707692871e+003;4.1089741211e+003;4.0965385742e+003;4.1034614258e+003;4.1138461914e+003;4.1079487305e+003;
2.9453125000e+000;4.1016665039e+003;4.1219228516e+003;4.0925642090e+003;4.0966665039e+003;4.0970512695e+003;4.0819230957e+003;4.0870512695e+003;4.0828205566e+003;4.0846154785e+003;4.1225639648e+003;4.1101284180e+003;4.1147436523e+003;4.1260258789e+003;4.1207690430e+003;
2.9531250000e+000;4.0893588867e+003;4.1070512695e+003;4.0796154785e+003;4.0824357910e+003;4.0812819824e+003;4.0660256348e+003;4.0733332520e+003;4.0738461914e+003;4.0785898438e+003;4.1130771484e+003;4.0974360352e+003;4.1035898438e+003;4.1130771484e+003;4.1079487305e+003;
2.9609375000e+000;4.0587180176e+003;4.0776923828e+003;4.0557692871e+003;4.0543588867e+003;4.0502563477e+003;4.0391025391e+003;4.0433332520e+003;4.0612819824e+003;4.0701281738e+003;4.0938461914e+003;4.0739743652e+003;4.0821794434e+003;4.0842307129e+003;4.0783332520e+003;
2.9687500000e+000;4.0347436523e+003;4.0510256348e+003;4.0306411133e+003;4.0315385742e+003;4.0224357910e+003;4.0164101563e+003;4.0189743652e+003;4.0384614258e+003;4.0444870605e+003;4.0665385742e+003;4.0493588867e+003;4.0567949219e+003;4.0575642090e+003;4.0547436523e+003;
2.9765625000e+000;3.9680769043e+003;3.9776923828e+003;3.9558974609e+003;3.9684614258e+003;3.9620512695e+003;3.9702563477e+003;3.9658974609e+003;3.9728205566e+003;3.9824357910e+003;3.9915385742e+003;3.9723076172e+003;3.9826923828e+003;3.9911538086e+003;3.9850000000e+003;
2.9843750000e+000;3.9226923828e+003;3.9410256348e+003;3.9162819824e+003;3.9317949219e+003;3.9310256348e+003;3.9489743652e+003;3.9347436523e+003;3.9366667480e+003;3.9475642090e+003;3.9548718262e+003;3.9311538086e+003;3.9401281738e+003;3.9435898438e+003;3.9419230957e+003;
2.9921875000e+000;3.9448718262e+003;3.9607692871e+003;3.9326923828e+003;3.9498718262e+003;3.9505129395e+003;3.9667949219e+003;3.9537180176e+003;3.9479487305e+003;3.9602563477e+003;3.9707692871e+003;3.9487180176e+003;3.9516667480e+003;3.9601281738e+003;3.9584614258e+003;
3.0000000000e+000;4.0025642090e+003;4.0197436523e+003;3.9835898438e+003;4.0064101563e+003;4.0115385742e+003;4.0214101563e+003;4.0088461914e+003;3.9955129395e+003;4.0162819824e+003;4.0314101563e+003;4.0030769043e+003;4.0048718262e+003;4.0216667480e+003;4.0138461914e+003;
3.0078125000e+000;3.9719230957e+003;3.9907692871e+003;3.9603845215e+003;3.9810256348e+003;3.9819230957e+003;3.9974357910e+003;3.9829487305e+003;3.9598718262e+003;3.9752563477e+003;3.9905129395e+003;3.9710256348e+003;3.9803845215e+003;3.9839743652e+003;3.9847436523e+003;
3.0156250000e+000;4.0065385742e+003;4.0242307129e+003;3.9946154785e+003;4.0128205566e+003;4.0137180176e+003;4.0253845215e+003;4.0123076172e+003;3.9887180176e+003;3.9998718262e+003;4.0224357910e+003;4.0048718262e+003;4.0128205566e+003;4.0169230957e+003;4.0179487305e+003;
3.0234375000e+000;3.9987180176e+003;4.0123076172e+003;3.9874357910e+003;4.0070512695e+003;4.0003845215e+003;4.0058974609e+003;3.9989743652e+003;3.9671794434e+003;3.9733332520e+003;4.0029487305e+003;3.9946154785e+003;4.0093588867e+003;4.0084614258e+003;4.0074357910e+003;
3.0312500000e+000;4.0151281738e+003;4.0289743652e+003;4.0034614258e+003;4.0220512695e+003;4.0153845215e+003;4.0176923828e+003;4.0135898438e+003;3.9817949219e+003;3.9876923828e+003;4.0165385742e+003;4.0119230957e+003;4.0291025391e+003;4.0252563477e+003;4.0241025391e+003;
3.0390625000e+000;4.0428205566e+003;4.0515385742e+003;4.0317949219e+003;4.0429487305e+003;4.0342307129e+003;4.0329487305e+003;4.0328205566e+003;4.0119230957e+003;4.0157692871e+003;4.0478205566e+003;4.0420512695e+003;4.0619230957e+003;4.0552563477e+003;4.0542307129e+003;
3.0468750000e+000;4.0352563477e+003;4.0378205566e+003;4.0235898438e+003;4.0325642090e+003;4.0197436523e+003;4.0170512695e+003;4.0193588867e+003;4.0035898438e+003;4.0074357910e+003;4.0406411133e+003;4.0333332520e+003;4.0524357910e+003;4.0458974609e+003;4.0461538086e+003;
3.0546875000e+000;4.0825642090e+003;4.0869230957e+003;4.0674357910e+003;4.0789743652e+003;4.0616667480e+003;4.0448718262e+003;4.0507692871e+003;4.0551281738e+003;4.0670512695e+003;4.0935898438e+003;4.0850000000e+003;4.0992309570e+003;4.0882050781e+003;4.0947436523e+003;
3.0625000000e+000;4.0753845215e+003;4.0856411133e+003;4.0623076172e+003;4.0765385742e+003;4.0583332520e+003;4.0443588867e+003;4.0460256348e+003;4.0564101563e+003;4.0691025391e+003;4.0938461914e+003;4.0819230957e+003;4.0970512695e+003;4.0860256348e+003;4.0908974609e+003;
3.0703125000e+000;4.0501281738e+003;4.0639743652e+003;4.0389743652e+003;4.0557692871e+003;4.0371794434e+003;4.0284614258e+003;4.0262819824e+003;4.0373076172e+003;4.0493588867e+003;4.0739743652e+003;4.0578205566e+003;4.0732050781e+003;4.0666667480e+003;4.0675642090e+003;
3.0781250000e+000;4.0393588867e+003;4.0539743652e+003;4.0284614258e+003;4.0460256348e+003;4.0294870605e+003;4.0224357910e+003;4.0200000000e+003;4.0291025391e+003;4.0406411133e+003;4.0657692871e+003;4.0456411133e+003;4.0588461914e+003;4.0605129395e+003;4.0566667480e+003;
3.0859375000e+000;4.0212819824e+003;4.0356411133e+003;4.0094870605e+003;4.0287180176e+003;4.0158974609e+003;4.0155129395e+003;4.0141025391e+003;4.0262819824e+003;4.0483332520e+003;4.0550000000e+003;4.0289743652e+003;4.0421794434e+003;4.0391025391e+003;4.0457692871e+003;
3.0937500000e+000;3.9894870605e+003;4.0070512695e+003;3.9770512695e+003;4.0007692871e+003;3.9888461914e+003;3.9950000000e+003;3.9903845215e+003;3.9942307129e+003;4.0150000000e+003;4.0219230957e+003;3.9952563477e+003;4.0110256348e+003;4.0065385742e+003;4.0133332520e+003;
3.1015625000e+000;4.0212819824e+003;4.0451281738e+003;4.0083332520e+003;4.0348718262e+003;4.0343588867e+003;4.0374357910e+003;4.0271794434e+003;4.0200000000e+003;4.0365385742e+003;4.0608974609e+003;4.0267949219e+003;4.0378205566e+003;4.0456411133e+003;4.0438461914e+003;
3.1093750000e+000;3.9874357910e+003;4.0079487305e+003;3.9744870605e+003;4.0026923828e+003;3.9960256348e+003;4.0026923828e+003;3.9883332520e+003;3.9664101563e+003;3.9852563477e+003;4.0033332520e+003;3.9815385742e+003;4.0015385742e+003;4.0011538086e+003;4.0087180176e+003;
3.1171875000e+000;4.0008974609e+003;4.0200000000e+003;3.9852563477e+003;4.0142307129e+003;4.0093588867e+003;4.0150000000e+003;3.9991025391e+003;3.9755129395e+003;3.9932050781e+003;4.0142307129e+003;3.9953845215e+003;4.0157692871e+003;4.0143588867e+003;4.0223076172e+003;
3.1250000000e+000;3.9611538086e+003;3.9706411133e+003;3.9488461914e+003;3.9708974609e+003;3.9684614258e+003;3.9725642090e+003;3.9637180176e+003;3.9344870605e+003;3.9438461914e+003;3.9715385742e+003;3.9542307129e+003;3.9738461914e+003;3.9708974609e+003;3.9753845215e+003;
3.1328125000e+000;3.9987180176e+003;4.0078205566e+003;3.9860256348e+003;4.0007692871e+003;3.9907692871e+003;3.9878205566e+003;3.9843588867e+003;3.9582050781e+003;3.9674357910e+003;4.0002563477e+003;3.9820512695e+003;4.0014101563e+003;3.9941025391e+003;4.0034614258e+003;
3.1406250000e+000;3.9742307129e+003;3.9832050781e+003;3.9628205566e+003;3.9767949219e+003;3.9616667480e+003;3.9592307129e+003;3.9558974609e+003;3.9344870605e+003;3.9425642090e+003;3.9762819824e+003;3.9605129395e+003;3.9805129395e+003;3.9702563477e+003;3.9824357910e+003;
3.1484375000e+000;4.0126923828e+003;4.0246154785e+003;4.0005129395e+003;4.0101281738e+003;3.9955129395e+003;3.9769230957e+003;3.9867949219e+003;3.9798718262e+003;3.9944870605e+003;4.0265385742e+003;4.0083332520e+003;4.0243588867e+003;4.0237180176e+003;4.0278205566e+003;
3.1562500000e+000;4.0442307129e+003;4.0587180176e+003;4.0312819824e+003;4.0400000000e+003;4.0248718262e+003;4.0014101563e+003;4.0130769043e+003;4.0156411133e+003;4.0344870605e+003;4.0683332520e+003;4.0432050781e+003;4.0575642090e+003;4.0571794434e+003;4.0617949219e+003;
3.1640625000e+000;4.0396154785e+003;4.0584614258e+003;4.0276923828e+003;4.0393588867e+003;4.0188461914e+003;3.9929487305e+003;4.0029487305e+003;4.0182050781e+003;4.0382050781e+003;4.0719230957e+003;4.0442307129e+003;4.0524357910e+003;4.0501281738e+003;4.0594870605e+003;
3.1718750000e+000;4.0471794434e+003;4.0694870605e+003;4.0369230957e+003;4.0502563477e+003;4.0303845215e+003;4.0038461914e+003;4.0128205566e+003;4.0297436523e+003;4.0474357910e+003;4.0798718262e+003;4.0553845215e+003;4.0579487305e+003;4.0608974609e+003;4.0682050781e+003;
3.1796875000e+000;4.0443588867e+003;4.0761538086e+003;4.0410256348e+003;4.0534614258e+003;4.0461538086e+003;4.0344870605e+003;4.0371794434e+003;4.0503845215e+003;4.0641025391e+003;4.0915385742e+003;4.0624357910e+003;4.0611538086e+003;4.0803845215e+003;4.0787180176e+003;
3.1875000000e+000;4.0215385742e+003;4.0523076172e+003;4.0161538086e+003;4.0307692871e+003;4.0285898438e+003;4.0200000000e+003;4.0228205566e+003;4.0305129395e+003;4.0443588867e+003;4.0683332520e+003;4.0375642090e+003;4.0397436523e+003;4.0567949219e+003;4.0564101563e+003;
3.1953125000e+000;4.0265385742e+003;4.0564101563e+003;4.0173076172e+003;4.0351281738e+003;4.0382050781e+003;4.0260256348e+003;4.0314101563e+003;4.0344870605e+003;4.0493588867e+003;4.0711538086e+003;4.0400000000e+003;4.0441025391e+003;4.0579487305e+003;4.0587180176e+003;
3.2031250000e+000;4.0519230957e+003;4.0825642090e+003;4.0402563477e+003;4.0607692871e+003;4.0669230957e+003;4.0487180176e+003;4.0570512695e+003;4.0580769043e+003;4.0744870605e+003;4.0965385742e+003;4.0642307129e+003;4.0684614258e+003;4.0798718262e+003;4.0810256348e+003;
3.2109375000e+000;4.0041025391e+003;4.0420512695e+003;3.9933332520e+003;4.0211538086e+003;4.0219230957e+003;4.0151281738e+003;4.0150000000e+003;3.9948718262e+003;4.0134614258e+003;4.0424357910e+003;4.0069230957e+003;4.0100000000e+003;4.0262819824e+003;4.0232050781e+003;
3.2187500000e+000;4.0230769043e+003;4.0620512695e+003;4.0116667480e+003;4.0391025391e+003;4.0452563477e+003;4.0356411133e+003;4.0329487305e+003;4.0106411133e+003;4.0297436523e+003;4.0602563477e+003;4.0275642090e+003;4.0292307129e+003;4.0455129395e+003;4.0419230957e+003;
3.2265625000e+000;4.0180769043e+003;4.0548718262e+003;4.0164101563e+003;4.0410256348e+003;4.0450000000e+003;4.0360256348e+003;4.0337180176e+003;3.9993588867e+003;4.0253845215e+003;4.0569230957e+003;4.0282050781e+003;4.0316667480e+003;4.0419230957e+003;4.0373076172e+003;
3.2343750000e+000;4.0466667480e+003;4.0814101563e+003;4.0425642090e+003;4.0612819824e+003;4.0641025391e+003;4.0517949219e+003;4.0525642090e+003;4.0148718262e+003;4.0406411133e+003;4.0811538086e+003;4.0478205566e+003;4.0588461914e+003;4.0712819824e+003;4.0667949219e+003;
3.2421875000e+000;4.0261538086e+003;4.0574357910e+003;4.0233332520e+003;4.0396154785e+003;4.0398718262e+003;4.0280769043e+003;4.0265385742e+003;3.9950000000e+003;4.0157692871e+003;4.0579487305e+003;4.0270512695e+003;4.0437180176e+003;4.0479487305e+003;4.0488461914e+003;
3.2500000000e+000;4.0310256348e+003;4.0589743652e+003;4.0314101563e+003;4.0428205566e+003;4.0334614258e+003;4.0157692871e+003;4.0235898438e+003;3.9960256348e+003;4.0167949219e+003;4.0485898438e+003;4.0329487305e+003;4.0552563477e+003;4.0460256348e+003;4.0551281738e+003;
3.2578125000e+000;4.0264101563e+003;4.0503845215e+003;4.0246154785e+003;4.0305129395e+003;4.0147436523e+003;3.9894870605e+003;4.0017949219e+003;4.0047436523e+003;4.0242307129e+003;4.0519230957e+003;4.0341025391e+003;4.0544870605e+003;4.0493588867e+003;4.0584614258e+003;
3.2656250000e+000;4.0180769043e+003;4.0378205566e+003;4.0150000000e+003;4.0188461914e+003;4.0023076172e+003;3.9753845215e+003;3.9871794434e+003;3.9974357910e+003;4.0124357910e+003;4.0402563477e+003;4.0250000000e+003;4.0447436523e+003;4.0382050781e+003;4.0493588867e+003;
3.2734375000e+000;4.0371794434e+003;4.0600000000e+003;4.0430769043e+003;4.0408974609e+003;4.0288461914e+003;4.0023076172e+003;4.0146154785e+003;4.0312819824e+003;4.0478205566e+003;4.0705129395e+003;4.0560256348e+003;4.0764101563e+003;4.0600000000e+003;4.0802563477e+003;
3.2812500000e+000;4.0061538086e+003;4.0333332520e+003;4.0158974609e+003;4.0160256348e+003;4.0051281738e+003;3.9828205566e+003;3.9946154785e+003;4.0078205566e+003;4.0256411133e+003;4.0455129395e+003;4.0279487305e+003;4.0493588867e+003;4.0346154785e+003;4.0526923828e+003;
3.2890625000e+000;3.9950000000e+003;4.0279487305e+003;4.0016667480e+003;4.0096154785e+003;4.0065385742e+003;3.9852563477e+003;3.9971794434e+003;4.0051281738e+003;4.0201281738e+003;4.0392307129e+003;4.0125642090e+003;4.0317949219e+003;4.0297436523e+003;4.0353845215e+003;
3.2968750000e+000;4.0051281738e+003;4.0378205566e+003;4.0089743652e+003;4.0185898438e+003;4.0188461914e+003;3.9991025391e+003;4.0094870605e+003;4.0170512695e+003;4.0303845215e+003;4.0502563477e+003;4.0194870605e+003;4.0373076172e+003;4.0384614258e+003;4.0401281738e+003;
3.3046875000e+000;3.9643588867e+003;3.9929487305e+003;3.9702563477e+003;3.9792307129e+003;3.9824357910e+003;3.9770512695e+003;3.9815385742e+003;3.9682050781e+003;3.9832050781e+003;4.0017949219e+003;3.9776923828e+003;3.9933332520e+003;3.9882050781e+003;3.9943588867e+003;
3.3125000000e+000;3.9829487305e+003;4.0132050781e+003;3.9892307129e+003;3.9978205566e+003;4.0066667480e+003;3.9988461914e+003;4.0021794434e+003;3.9835898438e+003;3.9996154785e+003;4.0197436523e+003;3.9994870605e+003;4.0132050781e+003;4.0082050781e+003;4.0137180176e+003;
3.3203125000e+000;4.0020512695e+003;4.0330769043e+003;4.0079487305e+003;4.0161538086e+003;4.0297436523e+003;4.0193588867e+003;4.0201281738e+003;4.0017949219e+003;4.0178205566e+003;4.0398718262e+003;4.0203845215e+003;4.0341025391e+003;4.0289743652e+003;4.0317949219e+003;
3.3281250000e+000;3.9941025391e+003;4.0224357910e+003;3.9988461914e+003;4.0070512695e+003;4.0207692871e+003;4.0112819824e+003;4.0093588867e+003;3.9921794434e+003;4.0079487305e+003;4.0293588867e+003;4.0093588867e+003;4.0260256348e+003;4.0191025391e+003;4.0191025391e+003;
3.3359375000e+000;3.9932050781e+003;4.0075642090e+003;3.9826923828e+003;3.9941025391e+003;4.0003845215e+003;3.9892307129e+003;3.9946154785e+003;3.9603845215e+003;3.9797436523e+003;3.9987180176e+003;3.9823076172e+003;4.0046154785e+003;3.9970512695e+003;3.9987180176e+003;
3.3437500000e+000;3.9970512695e+003;4.0116667480e+003;3.9867949219e+003;3.9979487305e+003;4.0044870605e+003;3.9911538086e+003;3.9978205566e+003;3.9651281738e+003;3.9814101563e+003;4.0030769043e+003;3.9875642090e+003;4.0115385742e+003;4.0016667480e+003;4.0056411133e+003;
3.3515625000e+000;3.9607692871e+003;3.9701281738e+003;3.9503845215e+003;3.9602563477e+003;3.9598718262e+003;3.9450000000e+003;3.9551281738e+003;3.9261538086e+003;3.9378205566e+003;3.9553845215e+003;3.9465385742e+003;3.9807692871e+003;3.9616667480e+003;3.9653845215e+003;
3.3593750000e+000;3.9289743652e+003;3.9342307129e+003;3.9207692871e+003;3.9293588867e+003;3.9126923828e+003;3.8956411133e+003;3.9078205566e+003;3.8997436523e+003;3.9188461914e+003;3.9338461914e+003;3.9232050781e+003;3.9553845215e+003;3.9352563477e+003;3.9410256348e+003;
3.3671875000e+000;3.9151281738e+003;3.9147436523e+003;3.9058974609e+003;3.9142307129e+003;3.8939743652e+003;3.8766667480e+003;3.8891025391e+003;3.8844870605e+003;3.9048718262e+003;3.9185898438e+003;3.9087180176e+003;3.9391025391e+003;3.9194870605e+003;3.9266667480e+003;
3.3750000000e+000;3.9578205566e+003;3.9502563477e+003;3.9411538086e+003;3.9453845215e+003;3.9320512695e+003;3.9137180176e+003;3.9187180176e+003;3.9324357910e+003;3.9505129395e+003;3.9669230957e+003;3.9473076172e+003;3.9726923828e+003;3.9608974609e+003;3.9653845215e+003;
3.3828125000e+000;3.9291025391e+003;3.9246154785e+003;3.9121794434e+003;3.9176923828e+003;3.9070512695e+003;3.8939743652e+003;3.8967949219e+003;3.9106411133e+003;3.9271794434e+003;3.9406411133e+003;3.9180769043e+003;3.9452563477e+003;3.9321794434e+003;3.9373076172e+003;
3.3906250000e+000;3.9046154785e+003;3.9075642090e+003;3.8870512695e+003;3.8975642090e+003;3.8950000000e+003;3.8864101563e+003;3.8915385742e+003;3.8935898438e+003;3.9108974609e+003;3.9155129395e+003;3.8930769043e+003;3.9200000000e+003;3.9053845215e+003;3.9101281738e+003;
3.3984375000e+000;3.9239743652e+003;3.9287180176e+003;3.9062819824e+003;3.9188461914e+003;3.9188461914e+003;3.9096154785e+003;3.9153845215e+003;3.9160256348e+003;3.9328205566e+003;3.9375642090e+003;3.9133332520e+003;3.9378205566e+003;3.9244870605e+003;3.9267949219e+003;
3.4062500000e+000;3.8838461914e+003;3.8848718262e+003;3.8650000000e+003;3.8847436523e+003;3.8791025391e+003;3.8825642090e+003;3.8834614258e+003;3.8815385742e+003;3.8864101563e+003;3.8950000000e+003;3.8652563477e+003;3.8893588867e+003;3.8770512695e+003;3.8751281738e+003;
3.4140625000e+000;3.9125642090e+003;3.9123076172e+003;3.8819230957e+003;3.9023076172e+003;3.9088461914e+003;3.9121794434e+003;3.9115385742e+003;3.8925642090e+003;3.9051281738e+003;3.9138461914e+003;3.8858974609e+003;3.9055129395e+003;3.8985898438e+003;3.9007692871e+003;
3.4218750000e+000;3.9001281738e+003;3.8980769043e+003;3.8673076172e+003;3.8875642090e+003;3.8930769043e+003;3.8998718262e+003;3.8964101563e+003;3.8728205566e+003;3.8880769043e+003;3.9015385742e+003;3.8755129395e+003;3.8944870605e+003;3.8884614258e+003;3.8906411133e+003;
3.4296875000e+000;3.8933332520e+003;3.8898718262e+003;3.8591025391e+003;3.8794870605e+003;3.8839743652e+003;3.8925642090e+003;3.8875642090e+003;3.8591025391e+003;3.8741025391e+003;3.8932050781e+003;3.8720512695e+003;3.8891025391e+003;3.8852563477e+003;3.8857692871e+003;
