Time (s);AF3;F7;F3;FC5;T7;P7;O1;O2;P8;T8;FC6;F4;F8;AF4;Sampling Rate
0.0000000000e+000;3.0994870605e+003;2.9351281738e+003;2.9814101563e+003;3.0242307129e+003;2.9411538086e+003;3.0196154785e+003;3.0271794434e+003;2.9964101563e+003;3.0110256348e+003;2.9469230957e+003;2.9700000000e+003;3.0051281738e+003;2.9685898438e+003;3.0038461914e+003;128
7.8125000000e-003;2.9780769043e+003;2.7888461914e+003;2.8316667480e+003;2.9117949219e+003;2.7947436523e+003;2.8744870605e+003;2.8860256348e+003;2.8652563477e+003;2.8825642090e+003;2.8058974609e+003;2.8238461914e+003;2.8584614258e+003;2.8143588867e+003;2.8544870605e+003;
1.5625000000e-002;2.8934614258e+003;2.6892307129e+003;2.7284614258e+003;2.8200000000e+003;2.7023076172e+003;2.7794870605e+003;2.7876923828e+003;2.7616667480e+003;2.7828205566e+003;2.7030769043e+003;2.7215385742e+003;2.7514101563e+003;2.7198718262e+003;2.7519230957e+003;
2.3437500000e-002;2.8579487305e+003;2.6450000000e+003;2.6865385742e+003;2.7797436523e+003;2.6623076172e+003;2.7325642090e+003;2.7432050781e+003;2.7167949219e+003;2.7396154785e+003;2.6615385742e+003;2.6708974609e+003;2.7070512695e+003;2.6769230957e+003;2.7083332520e+003;
3.1250000000e-002;2.7883332520e+003;2.5541025391e+003;2.6012819824e+003;2.6897436523e+003;2.5708974609e+003;2.6423076172e+003;2.6537180176e+003;2.6223076172e+003;2.6460256348e+003;2.5705129395e+003;2.5767949219e+003;2.6169230957e+003;2.5837180176e+003;2.6170512695e+003;
3.9062500000e-002;2.6847436523e+003;2.4282050781e+003;2.4788461914e+003;2.5769230957e+003;2.4353845215e+003;2.5415385742e+003;2.5373076172e+003;2.4820512695e+003;2.5038461914e+003;2.4312819824e+003;2.4582050781e+003;2.5073076172e+003;2.4548718262e+003;2.5015385742e+003;
4.6875000000e-002;2.6678205566e+003;2.4101281738e+003;2.4552563477e+003;2.5625642090e+003;2.4194870605e+003;2.5200000000e+003;2.5164101563e+003;2.4556411133e+003;2.4791025391e+003;2.4100000000e+003;2.4410256348e+003;2.4856411133e+003;2.4357692871e+003;2.4816667480e+003;
5.4687500000e-002;2.6642307129e+003;2.4025642090e+003;2.4432050781e+003;2.5553845215e+003;2.4146154785e+003;2.5067949219e+003;2.5055129395e+003;2.4401281738e+003;2.4652563477e+003;2.3998718262e+003;2.4332050781e+003;2.4730769043e+003;2.4276923828e+003;2.4702563477e+003;
6.2500000000e-002;2.6658974609e+003;2.3967949219e+003;2.4369230957e+003;2.5492307129e+003;2.4106411133e+003;2.4979487305e+003;2.4979487305e+003;2.4292307129e+003;2.4550000000e+003;2.3923076172e+003;2.4256411133e+003;2.4651281738e+003;2.4226923828e+003;2.4621794434e+003;
7.0312500000e-002;2.6923076172e+003;2.3950000000e+003;2.4439743652e+003;2.5570512695e+003;2.4044870605e+003;2.5002563477e+003;2.4948718262e+003;2.4302563477e+003;2.4562819824e+003;2.3906411133e+003;2.4167949219e+003;2.4717949219e+003;2.4253845215e+003;2.4687180176e+003;
7.8125000000e-002;2.7003845215e+003;2.3988461914e+003;2.4479487305e+003;2.5630769043e+003;2.4055129395e+003;2.5024357910e+003;2.4994870605e+003;2.4392307129e+003;2.4660256348e+003;2.3984614258e+003;2.4210256348e+003;2.4783332520e+003;2.4273076172e+003;2.4721794434e+003;
8.5937500000e-002;2.7047436523e+003;2.3937180176e+003;2.4451281738e+003;2.5633332520e+003;2.4034614258e+003;2.4958974609e+003;2.5014101563e+003;2.4451281738e+003;2.4717949219e+003;2.3993588867e+003;2.4160256348e+003;2.4737180176e+003;2.4185898438e+003;2.4634614258e+003;
9.3750000000e-002;2.7276923828e+003;2.4157692871e+003;2.4639743652e+003;2.5848718262e+003;2.4298718262e+003;2.5164101563e+003;2.5251281738e+003;2.4705129395e+003;2.4970512695e+003;2.4234614258e+003;2.4382050781e+003;2.4905129395e+003;2.4402563477e+003;2.4812819824e+003;
1.0156250000e-001;2.7980769043e+003;2.4887180176e+003;2.5298718262e+003;2.6466667480e+003;2.4933332520e+003;2.5919230957e+003;2.5965385742e+003;2.5642307129e+003;2.5852563477e+003;2.5124357910e+003;2.5187180176e+003;2.5610256348e+003;2.5220512695e+003;2.5489743652e+003;
1.0937500000e-001;2.7852563477e+003;2.4691025391e+003;2.5178205566e+003;2.6294870605e+003;2.4711538086e+003;2.5769230957e+003;2.5806411133e+003;2.5521794434e+003;2.5697436523e+003;2.4969230957e+003;2.5017949219e+003;2.5475642090e+003;2.5046154785e+003;2.5335898438e+003;
1.1718750000e-001;2.8794870605e+003;2.5553845215e+003;2.6037180176e+003;2.7243588867e+003;2.5764101563e+003;2.6511538086e+003;2.6646154785e+003;2.6312819824e+003;2.6498718262e+003;2.5856411133e+003;2.5794870605e+003;2.6246154785e+003;2.5828205566e+003;2.6160256348e+003;
1.2500000000e-001;3.0379487305e+003;2.7328205566e+003;2.7507692871e+003;2.8747436523e+003;2.7434614258e+003;2.7993588867e+003;2.8112819824e+003;2.7875642090e+003;2.8158974609e+003;2.7528205566e+003;2.7396154785e+003;2.7806411133e+003;2.7480769043e+003;2.7694870605e+003;
1.3281250000e-001;3.0461538086e+003;2.7444870605e+003;2.7594870605e+003;2.8758974609e+003;2.7484614258e+003;2.8079487305e+003;2.8139743652e+003;2.7929487305e+003;2.8224357910e+003;2.7591025391e+003;2.7500000000e+003;2.7874357910e+003;2.7573076172e+003;2.7757692871e+003;
1.4062500000e-001;3.0424357910e+003;2.7432050781e+003;2.7584614258e+003;2.8691025391e+003;2.7452563477e+003;2.8053845215e+003;2.8064101563e+003;2.7847436523e+003;2.8138461914e+003;2.7546154785e+003;2.7494870605e+003;2.7826923828e+003;2.7538461914e+003;2.7716667480e+003;
1.4843750000e-001;3.0401281738e+003;2.7420512695e+003;2.7600000000e+003;2.8691025391e+003;2.7470512695e+003;2.8034614258e+003;2.8029487305e+003;2.7765385742e+003;2.8042307129e+003;2.7530769043e+003;2.7494870605e+003;2.7815385742e+003;2.7511538086e+003;2.7703845215e+003;
1.5625000000e-001;3.0633332520e+003;2.7520512695e+003;2.7870512695e+003;2.8916667480e+003;2.7562819824e+003;2.8250000000e+003;2.8248718262e+003;2.7770512695e+003;2.8011538086e+003;2.7700000000e+003;2.7565385742e+003;2.8144870605e+003;2.7685898438e+003;2.7891025391e+003;
1.6406250000e-001;3.0417949219e+003;2.7325642090e+003;2.7647436523e+003;2.8689743652e+003;2.7312819824e+003;2.8058974609e+003;2.8025642090e+003;2.7515385742e+003;2.7744870605e+003;2.7424357910e+003;2.7346154785e+003;2.7926923828e+003;2.7453845215e+003;2.7648718262e+003;
1.7187500000e-001;3.0374357910e+003;2.7457692871e+003;2.7624357910e+003;2.8835898438e+003;2.7498718262e+003;2.8052563477e+003;2.8017949219e+003;2.7419230957e+003;2.7669230957e+003;2.7412819824e+003;2.7460256348e+003;2.7944870605e+003;2.7471794434e+003;2.7587180176e+003;
1.7968750000e-001;3.1117949219e+003;2.8058974609e+003;2.8467949219e+003;2.9633332520e+003;2.8324357910e+003;2.8883332520e+003;2.8898718262e+003;2.8291025391e+003;2.8557692871e+003;2.8212819824e+003;2.8210256348e+003;2.8787180176e+003;2.8244870605e+003;2.8361538086e+003;
1.8750000000e-001;3.1597436523e+003;2.8589743652e+003;2.8943588867e+003;3.0094870605e+003;2.8820512695e+003;2.9365385742e+003;2.9408974609e+003;2.8824357910e+003;2.9089743652e+003;2.8707692871e+003;2.8670512695e+003;2.9267949219e+003;2.8716667480e+003;2.8855129395e+003;
1.9531250000e-001;3.2788461914e+003;3.0096154785e+003;3.0139743652e+003;3.1211538086e+003;3.0096154785e+003;3.0567949219e+003;3.0642307129e+003;3.0335898438e+003;3.0553845215e+003;3.0253845215e+003;2.9980769043e+003;3.0539743652e+003;3.0067949219e+003;3.0152563477e+003;
2.0312500000e-001;3.2801281738e+003;3.0097436523e+003;3.0179487305e+003;3.1202563477e+003;3.0106411133e+003;3.0628205566e+003;3.0698718262e+003;3.0438461914e+003;3.0633332520e+003;3.0356411133e+003;3.0055129395e+003;3.0597436523e+003;3.0148718262e+003;3.0196154785e+003;
2.1093750000e-001;3.3416667480e+003;3.0670512695e+003;3.0791025391e+003;3.1769230957e+003;3.0788461914e+003;3.1264101563e+003;3.1355129395e+003;3.1078205566e+003;3.1258974609e+003;3.1002563477e+003;3.0766667480e+003;3.1226923828e+003;3.0808974609e+003;3.0823076172e+003;
2.1875000000e-001;3.4106411133e+003;3.1410256348e+003;3.1469230957e+003;3.2444870605e+003;3.1564101563e+003;3.1893588867e+003;3.2011538086e+003;3.1748718262e+003;3.1934614258e+003;3.1711538086e+003;3.1500000000e+003;3.1912819824e+003;3.1492307129e+003;3.1516667480e+003;
2.2656250000e-001;3.4642307129e+003;3.2046154785e+003;3.2141025391e+003;3.3048718262e+003;3.2058974609e+003;3.2347436523e+003;3.2458974609e+003;3.2362819824e+003;3.2578205566e+003;3.2400000000e+003;3.2032050781e+003;3.2558974609e+003;3.2071794434e+003;3.2132050781e+003;
2.3437500000e-001;3.4285898438e+003;3.1676923828e+003;3.1832050781e+003;3.2741025391e+003;3.1638461914e+003;3.2055129395e+003;3.2125642090e+003;3.2050000000e+003;3.2283332520e+003;3.2085898438e+003;3.1647436523e+003;3.2235898438e+003;3.1764101563e+003;3.1811538086e+003;
2.4218750000e-001;3.3942307129e+003;3.1371794434e+003;3.1520512695e+003;3.2458974609e+003;3.1335898438e+003;3.1779487305e+003;3.1821794434e+003;3.1748718262e+003;3.1996154785e+003;3.1789743652e+003;3.1332050781e+003;3.1938461914e+003;3.1487180176e+003;3.1521794434e+003;
2.5000000000e-001;3.3616667480e+003;3.1134614258e+003;3.1224357910e+003;3.2185898438e+003;3.1156411133e+003;3.1480769043e+003;3.1525642090e+003;3.1450000000e+003;3.1701281738e+003;3.1501281738e+003;3.1094870605e+003;3.1679487305e+003;3.1223076172e+003;3.1265385742e+003;
2.5781250000e-001;3.1610256348e+003;2.9130769043e+003;2.9307692871e+003;3.0221794434e+003;2.9176923828e+003;2.9350000000e+003;2.9447436523e+003;2.9200000000e+003;2.9476923828e+003;2.9320512695e+003;2.9180769043e+003;2.9773076172e+003;2.9165385742e+003;2.9362819824e+003;
2.6562500000e-001;3.1064101563e+003;2.8496154785e+003;2.8783332520e+003;2.9710256348e+003;2.8452563477e+003;2.8855129395e+003;2.8917949219e+003;2.8603845215e+003;2.8875642090e+003;2.8708974609e+003;2.8530769043e+003;2.9219230957e+003;2.8579487305e+003;2.8802563477e+003;
2.7343750000e-001;3.0346154785e+003;2.7666667480e+003;2.8042307129e+003;2.9024357910e+003;2.7680769043e+003;2.8158974609e+003;2.8233332520e+003;2.7746154785e+003;2.7930769043e+003;2.7779487305e+003;2.7696154785e+003;2.8487180176e+003;2.7783332520e+003;2.8051281738e+003;
2.8125000000e-001;3.1208974609e+003;2.8512819824e+003;2.8758974609e+003;2.9812819824e+003;2.8594870605e+003;2.8903845215e+003;2.9012819824e+003;2.8408974609e+003;2.8616667480e+003;2.8597436523e+003;2.8696154785e+003;2.9255129395e+003;2.8711538086e+003;2.8857692871e+003;
2.8906250000e-001;3.1488461914e+003;2.8830769043e+003;2.9026923828e+003;3.0041025391e+003;2.8871794434e+003;2.9206411133e+003;2.9316667480e+003;2.8694870605e+003;2.8911538086e+003;2.8914101563e+003;2.8948718262e+003;2.9539743652e+003;2.9029487305e+003;2.9152563477e+003;
2.9687500000e-001;3.2371794434e+003;2.9825642090e+003;2.9985898438e+003;3.0789743652e+003;2.9753845215e+003;3.0242307129e+003;3.0352563477e+003;2.9891025391e+003;3.0110256348e+003;3.0087180176e+003;2.9912819824e+003;3.0523076172e+003;2.9971794434e+003;3.0080769043e+003;
3.0468750000e-001;3.2950000000e+003;3.0433332520e+003;3.0605129395e+003;3.1467949219e+003;3.0467949219e+003;3.0807692871e+003;3.0912819824e+003;3.0648718262e+003;3.1001281738e+003;3.0871794434e+003;3.0584614258e+003;3.1079487305e+003;3.0543588867e+003;3.0606411133e+003;
3.1250000000e-001;3.2962819824e+003;3.0485898438e+003;3.0626923828e+003;3.1470512695e+003;3.0548718262e+003;3.0792307129e+003;3.0905129395e+003;3.0682050781e+003;3.1050000000e+003;3.0902563477e+003;3.0548718262e+003;3.1056411133e+003;3.0588461914e+003;3.0611538086e+003;
3.2031250000e-001;3.2916667480e+003;3.0467949219e+003;3.0596154785e+003;3.1405129395e+003;3.0544870605e+003;3.0741025391e+003;3.0858974609e+003;3.0651281738e+003;3.1005129395e+003;3.0862819824e+003;3.0471794434e+003;3.0996154785e+003;3.0567949219e+003;3.0574357910e+003;
3.2812500000e-001;3.3203845215e+003;3.0798718262e+003;3.0879487305e+003;3.1714101563e+003;3.0865385742e+003;3.1035898438e+003;3.1167949219e+003;3.0919230957e+003;3.1234614258e+003;3.1156411133e+003;3.0819230957e+003;3.1312819824e+003;3.0848718262e+003;3.0898718262e+003;
3.3593750000e-001;3.3702563477e+003;3.1362819824e+003;3.1358974609e+003;3.2251281738e+003;3.1393588867e+003;3.1524357910e+003;3.1661538086e+003;3.1400000000e+003;3.1729487305e+003;3.1694870605e+003;3.1391025391e+003;3.1838461914e+003;3.1361538086e+003;3.1415385742e+003;
3.4375000000e-001;3.4642307129e+003;3.2469230957e+003;3.2291025391e+003;3.3192307129e+003;3.2373076172e+003;3.2439743652e+003;3.2556411133e+003;3.2352563477e+003;3.2755129395e+003;3.2796154785e+003;3.2424357910e+003;3.2829487305e+003;3.2434614258e+003;3.2402563477e+003;
3.5156250000e-001;3.4600000000e+003;3.2443588867e+003;3.2283332520e+003;3.3098718262e+003;3.2301281738e+003;3.2407692871e+003;3.2501281738e+003;3.2321794434e+003;3.2752563477e+003;3.2814101563e+003;3.2370512695e+003;3.2805129395e+003;3.2462819824e+003;3.2392307129e+003;
3.5937500000e-001;3.4093588867e+003;3.1833332520e+003;3.1898718262e+003;3.2503845215e+003;3.1800000000e+003;3.1893588867e+003;3.2023076172e+003;3.1735898438e+003;3.2157692871e+003;3.2184614258e+003;3.1753845215e+003;3.2292307129e+003;3.1924357910e+003;3.1883332520e+003;
3.6718750000e-001;3.4914101563e+003;3.2720512695e+003;3.2716667480e+003;3.3371794434e+003;3.2715385742e+003;3.2675642090e+003;3.2839743652e+003;3.2520512695e+003;3.2915385742e+003;3.2982050781e+003;3.2602563477e+003;3.3129487305e+003;3.2732050781e+003;3.2693588867e+003;
3.7500000000e-001;3.6202563477e+003;3.4129487305e+003;3.3998718262e+003;3.4728205566e+003;3.4085898438e+003;3.3933332520e+003;3.4110256348e+003;3.3797436523e+003;3.4151281738e+003;3.4323076172e+003;3.3975642090e+003;3.4462819824e+003;3.4061538086e+003;3.4005129395e+003;
3.8281250000e-001;3.7971794434e+003;3.6244870605e+003;3.6093588867e+003;3.6523076172e+003;3.6019230957e+003;3.5803845215e+003;3.6005129395e+003;3.5814101563e+003;3.6014101563e+003;3.6521794434e+003;3.6187180176e+003;3.6575642090e+003;3.6175642090e+003;3.6092307129e+003;
3.9062500000e-001;3.7730769043e+003;3.6016667480e+003;3.5889743652e+003;3.6316667480e+003;3.5835898438e+003;3.5623076172e+003;3.5823076172e+003;3.5578205566e+003;3.5757692871e+003;3.6219230957e+003;3.5891025391e+003;3.6361538086e+003;3.5946154785e+003;3.5874357910e+003;
3.9843750000e-001;3.9017949219e+003;3.7447436523e+003;3.7175642090e+003;3.7598718262e+003;3.7207692871e+003;3.7046154785e+003;3.7216667480e+003;3.6980769043e+003;3.7082050781e+003;3.7625642090e+003;3.7214101563e+003;3.7716667480e+003;3.7329487305e+003;3.7228205566e+003;
4.0625000000e-001;3.8167949219e+003;3.6764101563e+003;3.6578205566e+003;3.6879487305e+003;3.6751281738e+003;3.6508974609e+003;3.6753845215e+003;3.6576923828e+003;3.6834614258e+003;3.7217949219e+003;3.6779487305e+003;3.7148718262e+003;3.6743588867e+003;3.6612819824e+003;
4.1406250000e-001;3.8321794434e+003;3.6973076172e+003;3.6780769043e+003;3.7115385742e+003;3.7002563477e+003;3.6757692871e+003;3.6994870605e+003;3.6774357910e+003;3.7062819824e+003;3.7401281738e+003;3.6943588867e+003;3.7279487305e+003;3.6950000000e+003;3.6783332520e+003;
4.2187500000e-001;4.1985898438e+003;4.0942307129e+003;4.0467949219e+003;4.0747436523e+003;4.0734614258e+003;4.0447436523e+003;4.0648718262e+003;4.0501281738e+003;4.0706411133e+003;4.1206411133e+003;4.0617949219e+003;4.0905129395e+003;4.0702563477e+003;4.0479487305e+003;
4.2968750000e-001;4.2776923828e+003;4.1821796875e+003;4.1326923828e+003;4.1508974609e+003;4.1611538086e+003;4.1232050781e+003;4.1443588867e+003;4.1406411133e+003;4.1612822266e+003;4.2143588867e+003;4.1558974609e+003;4.1823076172e+003;4.1585898438e+003;4.1358974609e+003;
4.3750000000e-001;4.1774360352e+003;4.0896154785e+003;4.0550000000e+003;4.0641025391e+003;4.0833332520e+003;4.0391025391e+003;4.0579487305e+003;4.0700000000e+003;4.0960258789e+003;4.1443588867e+003;4.0900000000e+003;4.1137177734e+003;4.0857692871e+003;4.0602563477e+003;
4.4531250000e-001;4.0502563477e+003;3.9637180176e+003;3.9367949219e+003;3.9482050781e+003;3.9584614258e+003;3.9260256348e+003;3.9414101563e+003;3.9506411133e+003;3.9785898438e+003;4.0226923828e+003;3.9691025391e+003;3.9953845215e+003;3.9666667480e+003;3.9415385742e+003;
4.5312500000e-001;3.9750000000e+003;3.9048718262e+003;3.8646154785e+003;3.8816667480e+003;3.8741025391e+003;3.8637180176e+003;3.8789743652e+003;3.8693588867e+003;3.8993588867e+003;3.9421794434e+003;3.8869230957e+003;3.9103845215e+003;3.8889743652e+003;3.8664101563e+003;
4.6093750000e-001;4.0458974609e+003;3.9825642090e+003;3.9376923828e+003;3.9556411133e+003;3.9547436523e+003;3.9302563477e+003;3.9483332520e+003;3.9432050781e+003;3.9728205566e+003;4.0191025391e+003;3.9617949219e+003;3.9819230957e+003;3.9629487305e+003;3.9385898438e+003;
4.6875000000e-001;4.0911538086e+003;4.0329487305e+003;3.9958974609e+003;4.0124357910e+003;4.0244870605e+003;3.9730769043e+003;3.9941025391e+003;4.0026923828e+003;4.0265385742e+003;4.0785898438e+003;4.0158974609e+003;4.0425642090e+003;4.0162819824e+003;3.9930769043e+003;
4.7656250000e-001;4.0552563477e+003;3.9973076172e+003;3.9650000000e+003;3.9775642090e+003;3.9902563477e+003;3.9405129395e+003;3.9611538086e+003;3.9703845215e+003;3.9917949219e+003;4.0448718262e+003;3.9821794434e+003;4.0129487305e+003;3.9806411133e+003;3.9616667480e+003;
4.8437500000e-001;3.9237180176e+003;3.8675642090e+003;3.8352563477e+003;3.8453845215e+003;3.8473076172e+003;3.8224357910e+003;3.8410256348e+003;3.8353845215e+003;3.8579487305e+003;3.9088461914e+003;3.8630769043e+003;3.8873076172e+003;3.8573076172e+003;3.8430769043e+003;
4.9218750000e-001;3.9194870605e+003;3.8638461914e+003;3.8329487305e+003;3.8487180176e+003;3.8508974609e+003;3.8192307129e+003;3.8397436523e+003;3.8284614258e+003;3.8505129395e+003;3.9023076172e+003;3.8594870605e+003;3.8843588867e+003;3.8588461914e+003;3.8421794434e+003;
5.0000000000e-001;3.9721794434e+003;3.9205129395e+003;3.8879487305e+003;3.9092307129e+003;3.9153845215e+003;3.8717949219e+003;3.8957692871e+003;3.8794870605e+003;3.8988461914e+003;3.9553845215e+003;3.9105129395e+003;3.9374357910e+003;3.9153845215e+003;3.8956411133e+003;
5.0781250000e-001;4.7787177734e+003;4.7737177734e+003;4.7165385742e+003;4.6935898438e+003;4.7501284180e+003;4.6834614258e+003;4.7178203125e+003;4.7161538086e+003;4.7226923828e+003;4.8084614258e+003;4.7444873047e+003;4.7589741211e+003;4.7385898438e+003;4.7107690430e+003;
5.1562500000e-001;4.8525639648e+003;4.8547436523e+003;4.8028203125e+003;4.7726923828e+003;4.8410258789e+003;4.7602563477e+003;4.7943588867e+003;4.8026923828e+003;4.8102563477e+003;4.8983334961e+003;4.8275639648e+003;4.8433334961e+003;4.8212822266e+003;4.7925639648e+003;
5.2343750000e-001;4.6519228516e+003;4.7007690430e+003;4.6365385742e+003;4.6137177734e+003;4.6812822266e+003;4.6110258789e+003;4.6316665039e+003;4.6543588867e+003;4.6632050781e+003;4.7556411133e+003;4.6691025391e+003;4.6882050781e+003;4.6543588867e+003;4.6288461914e+003;
5.3125000000e-001;4.8407690430e+003;4.9147436523e+003;4.8385898438e+003;4.8094873047e+003;4.8932050781e+003;4.8067949219e+003;4.8366665039e+003;4.8410258789e+003;4.8512822266e+003;4.9412822266e+003;4.8773076172e+003;4.8755126953e+003;4.8683334961e+003;4.8287177734e+003;
5.3906250000e-001;5.0139741211e+003;5.0975639648e+003;5.0191025391e+003;4.9789741211e+003;5.0812822266e+003;4.9739741211e+003;5.0058974609e+003;5.0175639648e+003;5.0300000000e+003;5.1270512695e+003;5.0597436523e+003;5.0550000000e+003;5.0502563477e+003;5.0082050781e+003;
5.4687500000e-001;4.9874360352e+003;5.1030771484e+003;5.0289741211e+003;4.9583334961e+003;5.0693588867e+003;4.9850000000e+003;4.9982050781e+003;5.0311538086e+003;5.0461538086e+003;5.1600000000e+003;5.0708974609e+003;5.0737177734e+003;5.0560258789e+003;5.0192309570e+003;
5.5468750000e-001;4.8902563477e+003;5.0108974609e+003;4.9448715820e+003;4.8789741211e+003;4.9867949219e+003;4.8957690430e+003;4.9175639648e+003;4.9362822266e+003;4.9461538086e+003;5.0539741211e+003;4.9797436523e+003;4.9811538086e+003;4.9739741211e+003;4.9310258789e+003;
5.6250000000e-001;4.9783334961e+003;5.1041025391e+003;5.0384614258e+003;4.9680771484e+003;5.0824360352e+003;4.9794873047e+003;5.0048715820e+003;5.0217949219e+003;5.0301284180e+003;5.1403847656e+003;5.0721796875e+003;5.0730771484e+003;5.0624360352e+003;5.0223076172e+003;
5.7031250000e-001;5.0591025391e+003;5.1942309570e+003;5.1273076172e+003;5.0507690430e+003;5.1692309570e+003;5.0630771484e+003;5.0870512695e+003;5.1062822266e+003;5.1129487305e+003;5.2283334961e+003;5.1623076172e+003;5.1633334961e+003;5.1458974609e+003;5.1103847656e+003;
5.7812500000e-001;5.0221796875e+003;5.1789741211e+003;5.1097436523e+003;5.0291025391e+003;5.1437177734e+003;5.0508974609e+003;5.0694873047e+003;5.0944873047e+003;5.0960258789e+003;5.2178203125e+003;5.1479487305e+003;5.1514101563e+003;5.1228203125e+003;5.0937177734e+003;
5.8593750000e-001;4.7776923828e+003;4.9439741211e+003;4.8816665039e+003;4.7941025391e+003;4.9230771484e+003;4.8220512695e+003;4.8548715820e+003;4.8660258789e+003;4.8660258789e+003;4.9732050781e+003;4.9073076172e+003;4.9121796875e+003;4.8923076172e+003;4.8589741211e+003;
5.9375000000e-001;4.7655126953e+003;4.9324360352e+003;4.8730771484e+003;4.7839741211e+003;4.9150000000e+003;4.8114101563e+003;4.8447436523e+003;4.8551284180e+003;4.8570512695e+003;4.9602563477e+003;4.8946152344e+003;4.9003847656e+003;4.8824360352e+003;4.8494873047e+003;
6.0156250000e-001;4.7517949219e+003;4.9207690430e+003;4.8630771484e+003;4.7784614258e+003;4.9005126953e+003;4.8050000000e+003;4.8351284180e+003;4.8478203125e+003;4.8500000000e+003;4.9506411133e+003;4.8832050781e+003;4.8935898438e+003;4.8715385742e+003;4.8425639648e+003;
6.0937500000e-001;4.6260258789e+003;4.8011538086e+003;4.7411538086e+003;4.6751284180e+003;4.7680771484e+003;4.7052563477e+003;4.7283334961e+003;4.7451284180e+003;4.7407690430e+003;4.8339741211e+003;4.7680771484e+003;4.7901284180e+003;4.7516665039e+003;4.7335898438e+003;
6.1718750000e-001;4.5551284180e+003;4.7301284180e+003;4.6683334961e+003;4.6069228516e+003;4.6966665039e+003;4.6430771484e+003;4.6651284180e+003;4.6806411133e+003;4.6735898438e+003;4.7615385742e+003;4.7012822266e+003;4.7217949219e+003;4.6826923828e+003;4.6647436523e+003;
6.2500000000e-001;4.5378203125e+003;4.7101284180e+003;4.6480771484e+003;4.5853847656e+003;4.6819228516e+003;4.6287177734e+003;4.6506411133e+003;4.6625639648e+003;4.6561538086e+003;4.7400000000e+003;4.6858974609e+003;4.6992309570e+003;4.6673076172e+003;4.6448715820e+003;
6.3281250000e-001;5.1269228516e+003;5.3288461914e+003;5.2428203125e+003;5.1558974609e+003;5.3098715820e+003;5.2003847656e+003;5.2302563477e+003;5.2466665039e+003;5.2492309570e+003;5.3584614258e+003;5.2932050781e+003;5.2798715820e+003;5.2755126953e+003;5.2408974609e+003;
6.4062500000e-001;5.1884614258e+003;5.4014101563e+003;5.3097436523e+003;5.2135898438e+003;5.3802563477e+003;5.2676923828e+003;5.2964101563e+003;5.3185898438e+003;5.3185898438e+003;5.4319228516e+003;5.3625639648e+003;5.3466665039e+003;5.3447436523e+003;5.3079487305e+003;
6.4843750000e-001;5.4476923828e+003;5.6884614258e+003;5.5956411133e+003;5.4870512695e+003;5.6671796875e+003;5.5524360352e+003;5.5751284180e+003;5.6003847656e+003;5.5996152344e+003;5.7183334961e+003;5.6348715820e+003;5.6219228516e+003;5.6293588867e+003;5.5807690430e+003;
6.5625000000e-001;5.5891025391e+003;5.8447436523e+003;5.7469228516e+003;5.6398715820e+003;5.8250000000e+003;5.6979487305e+003;5.7225639648e+003;5.7515385742e+003;5.7523076172e+003;5.8764101563e+003;5.7880771484e+003;5.7721796875e+003;5.7828203125e+003;5.7285898438e+003;
6.6406250000e-001;5.7189741211e+003;6.0010258789e+003;5.9001284180e+003;5.7823076172e+003;5.9832050781e+003;5.8444873047e+003;5.8700000000e+003;5.9133334961e+003;5.9165385742e+003;6.0511538086e+003;5.9578203125e+003;5.9328203125e+003;5.9412822266e+003;5.8817949219e+003;
6.7187500000e-001;5.2057690430e+003;5.4984614258e+003;5.4153847656e+003;5.2888461914e+003;5.4632050781e+003;5.3720512695e+003;5.3833334961e+003;5.4269228516e+003;5.4332050781e+003;5.5528203125e+003;5.4700000000e+003;5.4564101563e+003;5.4488461914e+003;5.4105126953e+003;
6.7968750000e-001;5.0662822266e+003;5.3589741211e+003;5.2797436523e+003;5.1591025391e+003;5.3232050781e+003;5.2325639648e+003;5.2451284180e+003;5.2832050781e+003;5.2889741211e+003;5.4011538086e+003;5.3262822266e+003;5.3173076172e+003;5.3073076172e+003;5.2706411133e+003;
6.8750000000e-001;4.9288461914e+003;5.2161538086e+003;5.1470512695e+003;5.0285898438e+003;5.1856411133e+003;5.0871796875e+003;5.1064101563e+003;5.1267949219e+003;5.1341025391e+003;5.2335898438e+003;5.1729487305e+003;5.1706411133e+003;5.1624360352e+003;5.1225639648e+003;
6.9531250000e-001;4.9469228516e+003;5.2289741211e+003;5.1651284180e+003;5.0433334961e+003;5.1998715820e+003;5.0992309570e+003;5.1221796875e+003;5.1342309570e+003;5.1434614258e+003;5.2394873047e+003;5.1824360352e+003;5.1807690430e+003;5.1762822266e+003;5.1361538086e+003;
7.0312500000e-001;5.0789741211e+003;5.3583334961e+003;5.2965385742e+003;5.1734614258e+003;5.3274360352e+003;5.2228203125e+003;5.2520512695e+003;5.2647436523e+003;5.2719228516e+003;5.3693588867e+003;5.3151284180e+003;5.3120512695e+003;5.3074360352e+003;5.2761538086e+003;
7.1093750000e-001;5.0921796875e+003;5.3755126953e+003;5.3080771484e+003;5.1879487305e+003;5.3430771484e+003;5.2391025391e+003;5.2676923828e+003;5.2853847656e+003;5.2898715820e+003;5.3891025391e+003;5.3353847656e+003;5.3298715820e+003;5.3255126953e+003;5.2929487305e+003;
7.1875000000e-001;5.1156411133e+003;5.4030771484e+003;5.3287177734e+003;5.2085898438e+003;5.3702563477e+003;5.2730771484e+003;5.2991025391e+003;5.3216665039e+003;5.3239741211e+003;5.4194873047e+003;5.3701284180e+003;5.3566665039e+003;5.3567949219e+003;5.3170512695e+003;
7.2656250000e-001;5.1391025391e+003;5.4255126953e+003;5.3546152344e+003;5.2310258789e+003;5.3961538086e+003;5.3019228516e+003;5.3271796875e+003;5.3496152344e+003;5.3528203125e+003;5.4429487305e+003;5.3948715820e+003;5.3810258789e+003;5.3801284180e+003;5.3405126953e+003;
7.3437500000e-001;5.1674360352e+003;5.4624360352e+003;5.4006411133e+003;5.2729487305e+003;5.4379487305e+003;5.3514101563e+003;5.3692309570e+003;5.4002563477e+003;5.4107690430e+003;5.4926923828e+003;5.4225639648e+003;5.4224360352e+003;5.4088461914e+003;5.3830771484e+003;
7.4218750000e-001;5.1123076172e+003;5.4114101563e+003;5.3501284180e+003;5.2250000000e+003;5.3842309570e+003;5.3076923828e+003;5.3215385742e+003;5.3550000000e+003;5.3675639648e+003;5.4489741211e+003;5.3732050781e+003;5.3744873047e+003;5.3589741211e+003;5.3344873047e+003;
7.5000000000e-001;5.0346152344e+003;5.3332050781e+003;5.2748715820e+003;5.1541025391e+003;5.3069228516e+003;5.2400000000e+003;5.2523076172e+003;5.2825639648e+003;5.2962822266e+003;5.3752563477e+003;5.3035898438e+003;5.3023076172e+003;5.2866665039e+003;5.2611538086e+003;
7.5781250000e-001;4.9755126953e+003;5.2693588867e+003;5.2151284180e+003;5.0998715820e+003;5.2488461914e+003;5.1852563477e+003;5.1996152344e+003;5.2223076172e+003;5.2358974609e+003;5.3108974609e+003;5.2520512695e+003;5.2446152344e+003;5.2308974609e+003;5.2037177734e+003;
7.6562500000e-001;5.0697436523e+003;5.3682050781e+003;5.3041025391e+003;5.1860258789e+003;5.3446152344e+003;5.2712822266e+003;5.2856411133e+003;5.3088461914e+003;5.3250000000e+003;5.4001284180e+003;5.3398715820e+003;5.3358974609e+003;5.3307690430e+003;5.3043588867e+003;
7.7343750000e-001;4.8106411133e+003;5.1029487305e+003;5.0511538086e+003;4.9446152344e+003;5.0888461914e+003;5.0071796875e+003;5.0251284180e+003;5.0458974609e+003;5.0655126953e+003;5.1265385742e+003;5.0842309570e+003;5.0725639648e+003;5.0637177734e+003;5.0443588867e+003;
7.8125000000e-001;4.7867949219e+003;5.0796152344e+003;5.0238461914e+003;4.9252563477e+003;5.0673076172e+003;4.9817949219e+003;5.0032050781e+003;5.0188461914e+003;5.0379487305e+003;5.0967949219e+003;5.0575639648e+003;5.0465385742e+003;5.0411538086e+003;5.0205126953e+003;
7.8906250000e-001;4.8619228516e+003;5.1466665039e+003;5.0960258789e+003;4.9900000000e+003;5.1282050781e+003;5.0489741211e+003;5.0748715820e+003;5.0815385742e+003;5.0973076172e+003;5.1579487305e+003;5.1091025391e+003;5.1142309570e+003;5.1065385742e+003;5.0889741211e+003;
7.9687500000e-001;4.9492309570e+003;5.2373076172e+003;5.1878203125e+003;5.0723076172e+003;5.2017949219e+003;5.1279487305e+003;5.1498715820e+003;5.1738461914e+003;5.1687177734e+003;5.2438461914e+003;5.2116665039e+003;5.2065385742e+003;5.1841025391e+003;5.1733334961e+003;
8.0468750000e-001;4.9510258789e+003;5.2446152344e+003;5.1882050781e+003;5.0784614258e+003;5.2091025391e+003;5.1344873047e+003;5.1585898438e+003;5.1771796875e+003;5.1716665039e+003;5.2478203125e+003;5.2143588867e+003;5.2083334961e+003;5.1919228516e+003;5.1778203125e+003;
8.1250000000e-001;5.0462822266e+003;5.3364101563e+003;5.2848715820e+003;5.1665385742e+003;5.3138461914e+003;5.2358974609e+003;5.2660258789e+003;5.2751284180e+003;5.2735898438e+003;5.3467949219e+003;5.3044873047e+003;5.2975639648e+003;5.2946152344e+003;5.2708974609e+003;
8.2031250000e-001;5.0875639648e+003;5.3717949219e+003;5.3301284180e+003;5.2030771484e+003;5.3579487305e+003;5.2775639648e+003;5.3082050781e+003;5.3224360352e+003;5.3214101563e+003;5.3914101563e+003;5.3473076172e+003;5.3388461914e+003;5.3355126953e+003;5.3107690430e+003;
8.2812500000e-001;4.9655126953e+003;5.2551284180e+003;5.2111538086e+003;5.1001284180e+003;5.2352563477e+003;5.1621796875e+003;5.1865385742e+003;5.2194873047e+003;5.2179487305e+003;5.2773076172e+003;5.2301284180e+003;5.2279487305e+003;5.2132050781e+003;5.1976923828e+003;
8.3593750000e-001;4.9251284180e+003;5.2193588867e+003;5.1662822266e+003;5.0664101563e+003;5.1921796875e+003;5.1275639648e+003;5.1501284180e+003;5.1796152344e+003;5.1805126953e+003;5.2370512695e+003;5.1896152344e+003;5.1882050781e+003;5.1770512695e+003;5.1608974609e+003;
8.4375000000e-001;4.9198715820e+003;5.2144873047e+003;5.1576923828e+003;5.0616665039e+003;5.1851284180e+003;5.1269228516e+003;5.1484614258e+003;5.1735898438e+003;5.1775639648e+003;5.2312822266e+003;5.1873076172e+003;5.1821796875e+003;5.1765385742e+003;5.1584614258e+003;
8.5156250000e-001;4.9273076172e+003;5.2182050781e+003;5.1653847656e+003;5.0650000000e+003;5.1930771484e+003;5.1370512695e+003;5.1573076172e+003;5.1817949219e+003;5.1884614258e+003;5.2387177734e+003;5.2010258789e+003;5.1896152344e+003;5.1880771484e+003;5.1679487305e+003;
8.5937500000e-001;4.7151284180e+003;4.9852563477e+003;4.9569228516e+003;4.8567949219e+003;4.9853847656e+003;4.9328203125e+003;4.9441025391e+003;4.9674360352e+003;4.9852563477e+003;5.0171796875e+003;4.9843588867e+003;4.9706411133e+003;4.9685898438e+003;4.9494873047e+003;
8.6718750000e-001;4.7105126953e+003;4.9787177734e+003;4.9469228516e+003;4.8551284180e+003;4.9757690430e+003;4.9260258789e+003;4.9394873047e+003;4.9529487305e+003;4.9702563477e+003;5.0025639648e+003;4.9751284180e+003;4.9608974609e+003;4.9585898438e+003;4.9416665039e+003;
8.7500000000e-001;4.9514101563e+003;5.2234614258e+003;5.1729487305e+003;5.0765385742e+003;5.2070512695e+003;5.1480771484e+003;5.1643588867e+003;5.1782050781e+003;5.1896152344e+003;5.2275639648e+003;5.2092309570e+003;5.1921796875e+003;5.1960258789e+003;5.1767949219e+003;
8.8281250000e-001;5.0107690430e+003;5.2839741211e+003;5.2376923828e+003;5.1355126953e+003;5.2619228516e+003;5.2010258789e+003;5.2120512695e+003;5.2307690430e+003;5.2405126953e+003;5.2842309570e+003;5.2530771484e+003;5.2480771484e+003;5.2411538086e+003;5.2282050781e+003;
8.9062500000e-001;4.9847436523e+003;5.2583334961e+003;5.2130771484e+003;5.1147436523e+003;5.2362822266e+003;5.1726923828e+003;5.1834614258e+003;5.2005126953e+003;5.2082050781e+003;5.2533334961e+003;5.2292309570e+003;5.2198715820e+003;5.2116665039e+003;5.2007690430e+003;
8.9843750000e-001;4.8744873047e+003;5.1414101563e+003;5.1008974609e+003;5.0035898438e+003;5.1279487305e+003;5.0578203125e+003;5.0714101563e+003;5.0843588867e+003;5.0893588867e+003;5.1315385742e+003;5.1205126953e+003;5.1101284180e+003;5.1062822266e+003;5.0856411133e+003;
9.0625000000e-001;4.8429487305e+003;5.0965385742e+003;5.0667949219e+003;4.9675639648e+003;5.0738461914e+003;5.0189741211e+003;5.0328203125e+003;5.0417949219e+003;5.0500000000e+003;5.0897436523e+003;5.0742309570e+003;5.0723076172e+003;5.0669228516e+003;5.0483334961e+003;
9.1406250000e-001;4.8334614258e+003;5.0897436523e+003;5.0556411133e+003;4.9616665039e+003;5.0626923828e+003;5.0100000000e+003;5.0232050781e+003;5.0352563477e+003;5.0428203125e+003;5.0838461914e+003;5.0687177734e+003;5.0651284180e+003;5.0591025391e+003;5.0429487305e+003;
9.2187500000e-001;4.8166665039e+003;5.0755126953e+003;5.0360258789e+003;4.9456411133e+003;5.0464101563e+003;4.9950000000e+003;5.0080771484e+003;5.0217949219e+003;5.0270512695e+003;5.0689741211e+003;5.0555126953e+003;5.0520512695e+003;5.0437177734e+003;5.0306411133e+003;
9.2968750000e-001;4.8741025391e+003;5.1278203125e+003;5.0852563477e+003;4.9897436523e+003;5.1041025391e+003;5.0455126953e+003;5.0619228516e+003;5.0738461914e+003;5.0755126953e+003;5.1184614258e+003;5.1098715820e+003;5.1070512695e+003;5.0958974609e+003;5.0848715820e+003;
9.3750000000e-001;5.0346152344e+003;5.2856411133e+003;5.2501284180e+003;5.1535898438e+003;5.2646152344e+003;5.1946152344e+003;5.2144873047e+003;5.2434614258e+003;5.2560258789e+003;5.2967949219e+003;5.2783334961e+003;5.2651284180e+003;5.2638461914e+003;5.2387177734e+003;
9.4531250000e-001;4.9853847656e+003;5.2402563477e+003;5.2056411133e+003;5.1119228516e+003;5.2142309570e+003;5.1565385742e+003;5.1734614258e+003;5.2070512695e+003;5.2203847656e+003;5.2555126953e+003;5.2333334961e+003;5.2198715820e+003;5.2201284180e+003;5.1937177734e+003;
9.5312500000e-001;4.9303847656e+003;5.1879487305e+003;5.1529487305e+003;5.0589741211e+003;5.1589741211e+003;5.1143588867e+003;5.1283334961e+003;5.1623076172e+003;5.1721796875e+003;5.2020512695e+003;5.1797436523e+003;5.1657690430e+003;5.1662822266e+003;5.1416665039e+003;
9.6093750000e-001;4.9167949219e+003;5.1729487305e+003;5.1383334961e+003;5.0383334961e+003;5.1570512695e+003;5.1112822266e+003;5.1239741211e+003;5.1608974609e+003;5.1597436523e+003;5.1869228516e+003;5.1664101563e+003;5.1485898438e+003;5.1460258789e+003;5.1264101563e+003;
9.6875000000e-001;4.8955126953e+003;5.1485898438e+003;5.1173076172e+003;5.0194873047e+003;5.1451284180e+003;5.0907690430e+003;5.1043588867e+003;5.1466665039e+003;5.1430771484e+003;5.1691025391e+003;5.1457690430e+003;5.1285898438e+003;5.1223076172e+003;5.1046152344e+003;
9.7656250000e-001;4.8064101563e+003;5.0558974609e+003;5.0292309570e+003;4.9394873047e+003;5.0600000000e+003;5.0055126953e+003;5.0196152344e+003;5.0642309570e+003;5.0612822266e+003;5.0820512695e+003;5.0558974609e+003;5.0417949219e+003;5.0319228516e+003;5.0156411133e+003;
9.8437500000e-001;4.6397436523e+003;4.8717949219e+003;4.8387177734e+003;4.7705126953e+003;4.8615385742e+003;4.8425639648e+003;4.8564101563e+003;4.8551284180e+003;4.8587177734e+003;4.8543588867e+003;4.8475639648e+003;4.8419228516e+003;4.8396152344e+003;4.8279487305e+003;
9.9218750000e-001;4.7447436523e+003;4.9775639648e+003;4.9400000000e+003;4.8691025391e+003;4.9761538086e+003;4.9330771484e+003;4.9484614258e+003;4.9560258789e+003;4.9591025391e+003;4.9612822266e+003;4.9525639648e+003;4.9489741211e+003;4.9456411133e+003;4.9346152344e+003;
1.0000000000e+000;4.6960258789e+003;4.9228203125e+003;4.8984614258e+003;4.8171796875e+003;4.9176923828e+003;4.8651284180e+003;4.8757690430e+003;4.8980771484e+003;4.9012822266e+003;4.9102563477e+003;4.9143588867e+003;4.9029487305e+003;4.8975639648e+003;4.8876923828e+003;
1.0078125000e+000;4.6558974609e+003;4.8647436523e+003;4.8511538086e+003;4.7753847656e+003;4.8432050781e+003;4.8126923828e+003;4.8251284180e+003;4.8233334961e+003;4.8243588867e+003;4.8350000000e+003;4.8489741211e+003;4.8496152344e+003;4.8320512695e+003;4.8365385742e+003;
1.0156250000e+000;4.6889741211e+003;4.8974360352e+003;4.8775639648e+003;4.8070512695e+003;4.8757690430e+003;4.8400000000e+003;4.8542309570e+003;4.8546152344e+003;4.8520512695e+003;4.8676923828e+003;4.8794873047e+003;4.8821796875e+003;4.8653847656e+003;4.8687177734e+003;
1.0234375000e+000;4.6735898438e+003;4.8737177734e+003;4.8597436523e+003;4.7894873047e+003;4.8555126953e+003;4.8091025391e+003;4.8228203125e+003;4.8285898438e+003;4.8207690430e+003;4.8407690430e+003;4.8614101563e+003;4.8625639648e+003;4.8475639648e+003;4.8492309570e+003;
1.0312500000e+000;4.7008974609e+003;4.8956411133e+003;4.8847436523e+003;4.8138461914e+003;4.8774360352e+003;4.8275639648e+003;4.8443588867e+003;4.8448715820e+003;4.8398715820e+003;4.8596152344e+003;4.8798715820e+003;4.8824360352e+003;4.8675639648e+003;4.8710258789e+003;
1.0390625000e+000;4.8351284180e+003;5.0274360352e+003;5.0134614258e+003;4.9351284180e+003;5.0041025391e+003;4.9476923828e+003;4.9719228516e+003;4.9769228516e+003;4.9767949219e+003;4.9974360352e+003;5.0056411133e+003;5.0107690430e+003;4.9975639648e+003;4.9989741211e+003;
1.0468750000e+000;4.8628203125e+003;5.0562822266e+003;5.0441025391e+003;4.9574360352e+003;5.0305126953e+003;4.9760258789e+003;5.0000000000e+003;5.0173076172e+003;5.0180771484e+003;5.0361538086e+003;5.0425639648e+003;5.0438461914e+003;5.0307690430e+003;5.0288461914e+003;
1.0546875000e+000;4.5551284180e+003;4.7476923828e+003;4.7500000000e+003;4.6758974609e+003;4.7364101563e+003;4.7044873047e+003;4.7156411133e+003;4.7598715820e+003;4.7674360352e+003;4.7597436523e+003;4.7721796875e+003;4.7561538086e+003;4.7416665039e+003;4.7402563477e+003;
1.0625000000e+000;4.3733334961e+003;4.5629487305e+003;4.5661538086e+003;4.5107690430e+003;4.5588461914e+003;4.5397436523e+003;4.5487177734e+003;4.5885898438e+003;4.5971796875e+003;4.5792309570e+003;4.5865385742e+003;4.5765385742e+003;4.5606411133e+003;4.5626923828e+003;
1.0703125000e+000;4.0919230957e+003;4.2643588867e+003;4.2720512695e+003;4.2384614258e+003;4.2683334961e+003;4.2766665039e+003;4.2851284180e+003;4.3021796875e+003;4.3070512695e+003;4.2717949219e+003;4.2747436523e+003;4.2810258789e+003;4.2688461914e+003;4.2725639648e+003;
1.0781250000e+000;4.0419230957e+003;4.2035898438e+003;4.2137177734e+003;4.1803847656e+003;4.2075639648e+003;4.2232050781e+003;4.2307690430e+003;4.2388461914e+003;4.2414101563e+003;4.2008974609e+003;4.2082050781e+003;4.2151284180e+003;4.2084614258e+003;4.2110258789e+003;
1.0859375000e+000;4.0071794434e+003;4.1469228516e+003;4.1548715820e+003;4.1319228516e+003;4.1482050781e+003;4.1717949219e+003;4.1724360352e+003;4.1761538086e+003;4.1750000000e+003;4.1276923828e+003;4.1433334961e+003;4.1448715820e+003;4.1370512695e+003;4.1498715820e+003;
1.0937500000e+000;4.0117949219e+003;4.1428203125e+003;4.1508974609e+003;4.1350000000e+003;4.1497436523e+003;4.1725639648e+003;4.1744873047e+003;4.1728203125e+003;4.1703847656e+003;4.1217949219e+003;4.1398715820e+003;4.1424360352e+003;4.1330771484e+003;4.1473076172e+003;
1.1015625000e+000;4.0842307129e+003;4.2066665039e+003;4.2144873047e+003;4.2019228516e+003;4.2212822266e+003;4.2357690430e+003;4.2415385742e+003;4.2316665039e+003;4.2292309570e+003;4.1826923828e+003;4.2062822266e+003;4.2067949219e+003;4.2011538086e+003;4.2110258789e+003;
1.1093750000e+000;4.9607690430e+003;5.1015385742e+003;5.0789741211e+003;5.0323076172e+003;5.0861538086e+003;5.0471796875e+003;5.0621796875e+003;5.0619228516e+003;5.0606411133e+003;5.0714101563e+003;5.0957690430e+003;5.0761538086e+003;5.0800000000e+003;5.0746152344e+003;
1.1171875000e+000;5.0080771484e+003;5.1548715820e+003;5.1315385742e+003;5.0805126953e+003;5.1391025391e+003;5.0882050781e+003;5.1032050781e+003;5.1100000000e+003;5.1066665039e+003;5.1244873047e+003;5.1462822266e+003;5.1274360352e+003;5.1283334961e+003;5.1237177734e+003;
1.1250000000e+000;4.9857690430e+003;5.1474360352e+003;5.1303847656e+003;5.0626923828e+003;5.1242309570e+003;5.0612822266e+003;5.0752563477e+003;5.0820512695e+003;5.0778203125e+003;5.1085898438e+003;5.1374360352e+003;5.1198715820e+003;5.1233334961e+003;5.1107690430e+003;
1.1328125000e+000;5.0276923828e+003;5.1939741211e+003;5.1793588867e+003;5.1030771484e+003;5.1693588867e+003;5.1052563477e+003;5.1170512695e+003;5.1302563477e+003;5.1232050781e+003;5.1647436523e+003;5.1910258789e+003;5.1682050781e+003;5.1787177734e+003;5.1611538086e+003;
1.1406250000e+000;5.0573076172e+003;5.2235898438e+003;5.2102563477e+003;5.1411538086e+003;5.2087177734e+003;5.1338461914e+003;5.1478203125e+003;5.1662822266e+003;5.1557690430e+003;5.1982050781e+003;5.2274360352e+003;5.2012822266e+003;5.2128203125e+003;5.1953847656e+003;
1.1484375000e+000;5.0930771484e+003;5.2697436523e+003;5.2528203125e+003;5.1869228516e+003;5.2558974609e+003;5.1816665039e+003;5.1983334961e+003;5.2353847656e+003;5.2289741211e+003;5.2555126953e+003;5.2774360352e+003;5.2534614258e+003;5.2619228516e+003;5.2444873047e+003;
1.1562500000e+000;5.0857690430e+003;5.2653847656e+003;5.2476923828e+003;5.1761538086e+003;5.2491025391e+003;5.1830771484e+003;5.1992309570e+003;5.2405126953e+003;5.2362822266e+003;5.2538461914e+003;5.2703847656e+003;5.2479487305e+003;5.2565385742e+003;5.2369228516e+003;
1.1640625000e+000;5.1167949219e+003;5.3055126953e+003;5.2820512695e+003;5.2111538086e+003;5.2898715820e+003;5.2257690430e+003;5.2425639648e+003;5.2867949219e+003;5.2796152344e+003;5.2883334961e+003;5.3056411133e+003;5.2756411133e+003;5.2889741211e+003;5.2679487305e+003;
1.1718750000e+000;5.1198715820e+003;5.3160258789e+003;5.2888461914e+003;5.2207690430e+003;5.2975639648e+003;5.2342309570e+003;5.2494873047e+003;5.2969228516e+003;5.2871796875e+003;5.2965385742e+003;5.3148715820e+003;5.2800000000e+003;5.2944873047e+003;5.2751284180e+003;
1.1796875000e+000;4.6907690430e+003;4.8726923828e+003;4.8811538086e+003;4.7993588867e+003;4.8537177734e+003;4.8398715820e+003;4.8391025391e+003;4.8878203125e+003;4.8766665039e+003;4.8712822266e+003;4.8826923828e+003;4.8698715820e+003;4.8658974609e+003;4.8583334961e+003;
1.1875000000e+000;4.4998715820e+003;4.6669228516e+003;4.6914101563e+003;4.6114101563e+003;4.6570512695e+003;4.6555126953e+003;4.6535898438e+003;4.6910258789e+003;4.6811538086e+003;4.6624360352e+003;4.6794873047e+003;4.6766665039e+003;4.6673076172e+003;4.6641025391e+003;
1.1953125000e+000;4.3339741211e+003;4.4880771484e+003;4.5111538086e+003;4.4564101563e+003;4.4870512695e+003;4.4850000000e+003;4.4879487305e+003;4.5061538086e+003;4.4971796875e+003;4.4626923828e+003;4.4970512695e+003;4.4923076172e+003;4.4858974609e+003;4.4882050781e+003;
1.2031250000e+000;4.3174360352e+003;4.4703847656e+003;4.4851284180e+003;4.4446152344e+003;4.4652563477e+003;4.4635898438e+003;4.4682050781e+003;4.4835898438e+003;4.4746152344e+003;4.4403847656e+003;4.4789741211e+003;4.4691025391e+003;4.4648715820e+003;4.4685898438e+003;
1.2109375000e+000;4.3656411133e+003;4.4966665039e+003;4.5133334961e+003;4.4953847656e+003;4.4798715820e+003;4.4934614258e+003;4.5015385742e+003;4.4941025391e+003;4.4882050781e+003;4.4597436523e+003;4.5065385742e+003;4.5007690430e+003;4.4921796875e+003;4.5012822266e+003;
1.2187500000e+000;4.5453847656e+003;4.6729487305e+003;4.6851284180e+003;4.6657690430e+003;4.6558974609e+003;4.6596152344e+003;4.6701284180e+003;4.6519228516e+003;4.6467949219e+003;4.6253847656e+003;4.6773076172e+003;4.6679487305e+003;4.6642309570e+003;4.6725639648e+003;
1.2265625000e+000;4.8123076172e+003;4.9447436523e+003;4.9451284180e+003;4.9184614258e+003;4.9267949219e+003;4.9094873047e+003;4.9232050781e+003;4.9019228516e+003;4.8956411133e+003;4.8880771484e+003;4.9420512695e+003;4.9247436523e+003;4.9291025391e+003;4.9338461914e+003;
1.2343750000e+000;5.0802563477e+003;5.2243588867e+003;5.2102563477e+003;5.1716665039e+003;5.2043588867e+003;5.1611538086e+003;5.1771796875e+003;5.1632050781e+003;5.1541025391e+003;5.1648715820e+003;5.2150000000e+003;5.1902563477e+003;5.2021796875e+003;5.2014101563e+003;
1.2421875000e+000;5.0032050781e+003;5.1829487305e+003;5.1669228516e+003;5.1041025391e+003;5.1633334961e+003;5.1011538086e+003;5.1047436523e+003;5.1241025391e+003;5.1089741211e+003;5.1393588867e+003;5.1676923828e+003;5.1503847656e+003;5.1575639648e+003;5.1535898438e+003;
1.2500000000e+000;4.5351284180e+003;4.6855126953e+003;4.6930771484e+003;4.6480771484e+003;4.6662822266e+003;4.6421796875e+003;4.6478203125e+003;4.6587177734e+003;4.6332050781e+003;4.6394873047e+003;4.6908974609e+003;4.6789741211e+003;4.6701284180e+003;4.6761538086e+003;
1.2578125000e+000;4.4394873047e+003;4.5803847656e+003;4.5937177734e+003;4.5542309570e+003;4.5558974609e+003;4.5432050781e+003;4.5467949219e+003;4.5662822266e+003;4.5433334961e+003;4.5396152344e+003;4.5885898438e+003;4.5833334961e+003;4.5710258789e+003;4.5767949219e+003;
1.2656250000e+000;4.1944873047e+003;4.3185898438e+003;4.3439741211e+003;4.3115385742e+003;4.2980771484e+003;4.2994873047e+003;4.2984614258e+003;4.3273076172e+003;4.3167949219e+003;4.2843588867e+003;4.3293588867e+003;4.3361538086e+003;4.3176923828e+003;4.3328203125e+003;
1.2734375000e+000;4.1262822266e+003;4.2160258789e+003;4.2406411133e+003;4.2246152344e+003;4.2115385742e+003;4.2160258789e+003;4.2266665039e+003;4.2496152344e+003;4.2382050781e+003;4.1852563477e+003;4.2316665039e+003;4.2323076172e+003;4.2280771484e+003;4.2398715820e+003;
1.2812500000e+000;4.0941025391e+003;4.1802563477e+003;4.2028203125e+003;4.1952563477e+003;4.1671796875e+003;4.1880771484e+003;4.1958974609e+003;4.2174360352e+003;4.2080771484e+003;4.1542309570e+003;4.1969228516e+003;4.1984614258e+003;4.1946152344e+003;4.2053847656e+003;
1.2890625000e+000;3.9296154785e+003;4.0043588867e+003;4.0284614258e+003;4.0296154785e+003;3.9907692871e+003;4.0274357910e+003;4.0267949219e+003;4.0419230957e+003;4.0402563477e+003;3.9802563477e+003;4.0264101563e+003;4.0223076172e+003;4.0238461914e+003;4.0360256348e+003;
1.2968750000e+000;3.8569230957e+003;3.9233332520e+003;3.9500000000e+003;3.9528205566e+003;3.9164101563e+003;3.9487180176e+003;3.9467949219e+003;3.9583332520e+003;3.9591025391e+003;3.8944870605e+003;3.9467949219e+003;3.9384614258e+003;3.9429487305e+003;3.9564101563e+003;
1.3046875000e+000;3.6919230957e+003;3.7326923828e+003;3.7644870605e+003;3.7914101563e+003;3.7267949219e+003;3.7683332520e+003;3.7652563477e+003;3.7658974609e+003;3.7694870605e+003;3.6911538086e+003;3.7447436523e+003;3.7485898438e+003;3.7439743652e+003;3.7674357910e+003;
1.3125000000e+000;3.6139743652e+003;3.6447436523e+003;3.6791025391e+003;3.7126923828e+003;3.6384614258e+003;3.6907692871e+003;3.6861538086e+003;3.6798718262e+003;3.6846154785e+003;3.6055129395e+003;3.6578205566e+003;3.6632050781e+003;3.6606411133e+003;3.6847436523e+003;
1.3203125000e+000;3.4771794434e+003;3.4833332520e+003;3.5283332520e+003;3.5575642090e+003;3.4867949219e+003;3.5479487305e+003;3.5408974609e+003;3.5193588867e+003;3.5226923828e+003;3.4465385742e+003;3.5061538086e+003;3.5062819824e+003;3.5151281738e+003;3.5365385742e+003;
1.3281250000e+000;3.4420512695e+003;3.4366667480e+003;3.4846154785e+003;3.5138461914e+003;3.4441025391e+003;3.5033332520e+003;3.4944870605e+003;3.4683332520e+003;3.4691025391e+003;3.3946154785e+003;3.4597436523e+003;3.4608974609e+003;3.4697436523e+003;3.4925642090e+003;
1.3359375000e+000;3.3266667480e+003;3.3041025391e+003;3.3366667480e+003;3.4089743652e+003;3.3078205566e+003;3.3598718262e+003;3.3462819824e+003;3.3206411133e+003;3.3175642090e+003;3.2452563477e+003;3.3101281738e+003;3.3252563477e+003;3.3208974609e+003;3.3553845215e+003;
1.3437500000e+000;3.2447436523e+003;3.2134614258e+003;3.2475642090e+003;3.3278205566e+003;3.2184614258e+003;3.2744870605e+003;3.2612819824e+003;3.2334614258e+003;3.2308974609e+003;3.1557692871e+003;3.2210256348e+003;3.2371794434e+003;3.2311538086e+003;3.2676923828e+003;
1.3515625000e+000;3.1648718262e+003;3.1189743652e+003;3.1626923828e+003;3.2400000000e+003;3.1279487305e+003;3.1896154785e+003;3.1783332520e+003;3.1465385742e+003;3.1442307129e+003;3.0643588867e+003;3.1344870605e+003;3.1491025391e+003;3.1426923828e+003;3.1803845215e+003;
1.3593750000e+000;3.1107692871e+003;3.0461538086e+003;3.1032050781e+003;3.1721794434e+003;3.0594870605e+003;3.1257692871e+003;3.1171794434e+003;3.0829487305e+003;3.0808974609e+003;2.9961538086e+003;3.0728205566e+003;3.0850000000e+003;3.0784614258e+003;3.1174357910e+003;
1.3671875000e+000;3.0000000000e+003;2.8862819824e+003;2.9629487305e+003;3.0432050781e+003;2.8934614258e+003;2.9870512695e+003;2.9852563477e+003;2.9634614258e+003;2.9673076172e+003;2.8642307129e+003;2.9338461914e+003;2.9626923828e+003;2.9465385742e+003;2.9916667480e+003;
1.3750000000e+000;3.1141025391e+003;2.9807692871e+003;3.0416667480e+003;3.1125642090e+003;2.9806411133e+003;3.0625642090e+003;3.0641025391e+003;3.0542307129e+003;3.0647436523e+003;2.9687180176e+003;3.0312819824e+003;3.0505129395e+003;3.0416667480e+003;3.0793588867e+003;
1.3828125000e+000;3.1461538086e+003;3.0044870605e+003;3.0667949219e+003;3.1392307129e+003;3.0044870605e+003;3.0852563477e+003;3.0858974609e+003;3.0779487305e+003;3.0915385742e+003;2.9960256348e+003;3.0634614258e+003;3.0734614258e+003;3.0680769043e+003;3.1030769043e+003;
1.3906250000e+000;3.1824357910e+003;3.0311538086e+003;3.0943588867e+003;3.1730769043e+003;3.0347436523e+003;3.1160256348e+003;3.1123076172e+003;3.0976923828e+003;3.1133332520e+003;3.0158974609e+003;3.0870512695e+003;3.0934614258e+003;3.0889743652e+003;3.1233332520e+003;
1.3984375000e+000;3.5666667480e+003;3.4205129395e+003;3.4643588867e+003;3.5421794434e+003;3.4252563477e+003;3.4787180176e+003;3.4820512695e+003;3.4424357910e+003;3.4556411133e+003;3.3856411133e+003;3.4400000000e+003;3.4565385742e+003;3.4515385742e+003;3.4778205566e+003;
1.4062500000e+000;3.7182050781e+003;3.5717949219e+003;3.6165385742e+003;3.6839743652e+003;3.5785898438e+003;3.6229487305e+003;3.6288461914e+003;3.5889743652e+003;3.6033332520e+003;3.5410256348e+003;3.5925642090e+003;3.6052563477e+003;3.6023076172e+003;3.6250000000e+003;
1.4140625000e+000;3.8875642090e+003;3.7538461914e+003;3.7912819824e+003;3.8411538086e+003;3.7614101563e+003;3.7983332520e+003;3.7942307129e+003;3.7665385742e+003;3.7812819824e+003;3.7279487305e+003;3.7660256348e+003;3.7821794434e+003;3.7765385742e+003;3.7976923828e+003;
1.4218750000e+000;3.8656411133e+003;3.7416667480e+003;3.7726923828e+003;3.8217949219e+003;3.7473076172e+003;3.7870512695e+003;3.7748718262e+003;3.7515385742e+003;3.7646154785e+003;3.7134614258e+003;3.7467949219e+003;3.7693588867e+003;3.7588461914e+003;3.7819230957e+003;
1.4296875000e+000;3.7117949219e+003;3.5957692871e+003;3.6238461914e+003;3.6834614258e+003;3.6065385742e+003;3.6397436523e+003;3.6252563477e+003;3.5971794434e+003;3.6088461914e+003;3.5616667480e+003;3.6061538086e+003;3.6192307129e+003;3.6119230957e+003;3.6293588867e+003;
1.4375000000e+000;3.6850000000e+003;3.5653845215e+003;3.6002563477e+003;3.6573076172e+003;3.5794870605e+003;3.6101281738e+003;3.5953845215e+003;3.5707692871e+003;3.5830769043e+003;3.5369230957e+003;3.5855129395e+003;3.5914101563e+003;3.5853845215e+003;3.6015385742e+003;
1.4453125000e+000;3.5847436523e+003;3.4539743652e+003;3.5062819824e+003;3.5561538086e+003;3.4653845215e+003;3.5103845215e+003;3.4903845215e+003;3.4729487305e+003;3.4833332520e+003;3.4358974609e+003;3.4860256348e+003;3.4975642090e+003;3.4789743652e+003;3.5057692871e+003;
1.4531250000e+000;3.5341025391e+003;3.3969230957e+003;3.4544870605e+003;3.5056411133e+003;3.4051281738e+003;3.4583332520e+003;3.4387180176e+003;3.4203845215e+003;3.4292307129e+003;3.3797436523e+003;3.4289743652e+003;3.4484614258e+003;3.4234614258e+003;3.4558974609e+003;
1.4609375000e+000;3.5574357910e+003;3.4115385742e+003;3.4696154785e+003;3.5342307129e+003;3.4261538086e+003;3.4605129395e+003;3.4587180176e+003;3.4457692871e+003;3.4475642090e+003;3.3997436523e+003;3.4483332520e+003;3.4675642090e+003;3.4453845215e+003;3.4734614258e+003;
1.4687500000e+000;3.6130769043e+003;3.4701281738e+003;3.5244870605e+003;3.5910256348e+003;3.4850000000e+003;3.5102563477e+003;3.5150000000e+003;3.5066667480e+003;3.5051281738e+003;3.4583332520e+003;3.5100000000e+003;3.5229487305e+003;3.5047436523e+003;3.5289743652e+003;
1.4765625000e+000;3.6926923828e+003;3.5552563477e+003;3.6028205566e+003;3.6682050781e+003;3.5657692871e+003;3.5867949219e+003;3.5960256348e+003;3.5914101563e+003;3.5869230957e+003;3.5405129395e+003;3.5944870605e+003;3.6026923828e+003;3.5892307129e+003;3.6093588867e+003;
1.4843750000e+000;3.7883332520e+003;3.6573076172e+003;3.6966667480e+003;3.7574357910e+003;3.6619230957e+003;3.6814101563e+003;3.6926923828e+003;3.6921794434e+003;3.6853845215e+003;3.6405129395e+003;3.6926923828e+003;3.6996154785e+003;3.6894870605e+003;3.7060256348e+003;
1.4921875000e+000;3.7737180176e+003;3.6676923828e+003;3.6953845215e+003;3.7416667480e+003;3.6683332520e+003;3.6993588867e+003;3.6984614258e+003;3.7108974609e+003;3.7076923828e+003;3.6729487305e+003;3.6888461914e+003;3.7029487305e+003;3.6837180176e+003;3.7058974609e+003;
1.5000000000e+000;3.6823076172e+003;3.5778205566e+003;3.6069230957e+003;3.6560256348e+003;3.5791025391e+003;3.6242307129e+003;3.6182050781e+003;3.6228205566e+003;3.6207692871e+003;3.5811538086e+003;3.5978205566e+003;3.6091025391e+003;3.5941025391e+003;3.6139743652e+003;
1.5078125000e+000;3.6937180176e+003;3.5771794434e+003;3.6148718262e+003;3.6594870605e+003;3.5950000000e+003;3.6439743652e+003;3.6370512695e+003;3.6173076172e+003;3.6164101563e+003;3.5655129395e+003;3.5961538086e+003;3.6010256348e+003;3.6048718262e+003;3.6120512695e+003;
1.5156250000e+000;3.8892307129e+003;3.7867949219e+003;3.8043588867e+003;3.8532050781e+003;3.8011538086e+003;3.8296154785e+003;3.8166667480e+003;3.8002563477e+003;3.8183332520e+003;3.7767949219e+003;3.7996154785e+003;3.7951281738e+003;3.8012819824e+003;3.8116667480e+003;
1.5234375000e+000;3.8860256348e+003;3.7880769043e+003;3.8012819824e+003;3.8542307129e+003;3.7975642090e+003;3.8324357910e+003;3.8126923828e+003;3.7991025391e+003;3.8214101563e+003;3.7807692871e+003;3.7993588867e+003;3.7952563477e+003;3.8017949219e+003;3.8097436523e+003;
1.5312500000e+000;3.7592307129e+003;3.6537180176e+003;3.6765385742e+003;3.7315385742e+003;3.6735898438e+003;3.7092307129e+003;3.6773076172e+003;3.6723076172e+003;3.6967949219e+003;3.6643588867e+003;3.6693588867e+003;3.6693588867e+003;3.6837180176e+003;3.6838461914e+003;
1.5390625000e+000;3.5864101563e+003;3.4703845215e+003;3.5017949219e+003;3.5619230957e+003;3.4832050781e+003;3.5201281738e+003;3.4996154785e+003;3.4861538086e+003;3.5074357910e+003;3.4705129395e+003;3.4971794434e+003;3.5017949219e+003;3.5030769043e+003;3.5146154785e+003;
1.5468750000e+000;3.5492307129e+003;3.4291025391e+003;3.4641025391e+003;3.5242307129e+003;3.4350000000e+003;3.4765385742e+003;3.4583332520e+003;3.4426923828e+003;3.4582050781e+003;3.4194870605e+003;3.4519230957e+003;3.4662819824e+003;3.4607692871e+003;3.4753845215e+003;
1.5546875000e+000;3.5561538086e+003;3.4262819824e+003;3.4641025391e+003;3.5208974609e+003;3.4244870605e+003;3.4530769043e+003;3.4444870605e+003;3.4379487305e+003;3.4305129395e+003;3.4098718262e+003;3.4470512695e+003;3.4670512695e+003;3.4525642090e+003;3.4734614258e+003;
1.5625000000e+000;3.5547436523e+003;3.4170512695e+003;3.4601281738e+003;3.5132050781e+003;3.4161538086e+003;3.4452563477e+003;3.4424357910e+003;3.4364101563e+003;3.4243588867e+003;3.4055129395e+003;3.4514101563e+003;3.4653845215e+003;3.4474357910e+003;3.4719230957e+003;
1.5703125000e+000;3.5115385742e+003;3.3530769043e+003;3.4147436523e+003;3.4616667480e+003;3.3553845215e+003;3.4030769043e+003;3.4046154785e+003;3.3978205566e+003;3.3825642090e+003;3.3546154785e+003;3.4094870605e+003;3.4237180176e+003;3.4006411133e+003;3.4257692871e+003;
1.5781250000e+000;3.4833332520e+003;3.3194870605e+003;3.3846154785e+003;3.4347436523e+003;3.3239743652e+003;3.3776923828e+003;3.3782050781e+003;3.3728205566e+003;3.3585898438e+003;3.3251281738e+003;3.3721794434e+003;3.3935898438e+003;3.3698718262e+003;3.3923076172e+003;
1.5859375000e+000;3.4100000000e+003;3.2566667480e+003;3.3002563477e+003;3.3685898438e+003;3.2660256348e+003;3.3101281738e+003;3.3129487305e+003;3.3033332520e+003;3.3010256348e+003;3.2479487305e+003;3.2741025391e+003;3.3065385742e+003;3.2862819824e+003;3.2989743652e+003;
1.5937500000e+000;3.3929487305e+003;3.2393588867e+003;3.2812819824e+003;3.3487180176e+003;3.2505129395e+003;3.2970512695e+003;3.3005129395e+003;3.2860256348e+003;3.2876923828e+003;3.2280769043e+003;3.2555129395e+003;3.2847436523e+003;3.2671794434e+003;3.2758974609e+003;
1.6015625000e+000;3.3725642090e+003;3.2133332520e+003;3.2603845215e+003;3.3253845215e+003;3.2266667480e+003;3.2816667480e+003;3.2829487305e+003;3.2648718262e+003;3.2687180176e+003;3.2065385742e+003;3.2330769043e+003;3.2596154785e+003;3.2434614258e+003;3.2501281738e+003;
1.6093750000e+000;3.3435898438e+003;3.1765385742e+003;3.2305129395e+003;3.2960256348e+003;3.1908974609e+003;3.2571794434e+003;3.2537180176e+003;3.2334614258e+003;3.2379487305e+003;3.1769230957e+003;3.1992307129e+003;3.2255129395e+003;3.2084614258e+003;3.2165385742e+003;
1.6171875000e+000;3.3501281738e+003;3.1875642090e+003;3.2133332520e+003;3.3055129395e+003;3.2001281738e+003;3.2621794434e+003;3.2471794434e+003;3.2182050781e+003;3.2324357910e+003;3.1688461914e+003;3.1965385742e+003;3.2135898438e+003;3.1998718262e+003;3.2150000000e+003;
1.6250000000e+000;3.3530769043e+003;3.1906411133e+003;3.2155129395e+003;3.3066667480e+003;3.2055129395e+003;3.2646154785e+003;3.2479487305e+003;3.2205129395e+003;3.2375642090e+003;3.1737180176e+003;3.2030769043e+003;3.2198718262e+003;3.2037180176e+003;3.2174357910e+003;
1.6328125000e+000;3.2602563477e+003;3.0758974609e+003;3.1235898438e+003;3.2073076172e+003;3.0866667480e+003;3.1573076172e+003;3.1385898438e+003;3.1024357910e+003;3.1271794434e+003;3.0679487305e+003;3.0894870605e+003;3.1207692871e+003;3.0971794434e+003;3.1105129395e+003;
1.6406250000e+000;3.3132050781e+003;3.1273076172e+003;3.1679487305e+003;3.2541025391e+003;3.1258974609e+003;3.1991025391e+003;3.1779487305e+003;3.1487180176e+003;3.1728205566e+003;3.1126923828e+003;3.1365385742e+003;3.1700000000e+003;3.1484614258e+003;3.1685898438e+003;
1.6484375000e+000;3.2838461914e+003;3.0970512695e+003;3.1379487305e+003;3.2269230957e+003;3.0967949219e+003;3.1680769043e+003;3.1462819824e+003;3.1207692871e+003;3.1414101563e+003;3.0812819824e+003;3.1050000000e+003;3.1434614258e+003;3.1161538086e+003;3.1397436523e+003;
1.6562500000e+000;3.3946154785e+003;3.2034614258e+003;3.2288461914e+003;3.3232050781e+003;3.2125642090e+003;3.2488461914e+003;3.2411538086e+003;3.2047436523e+003;3.2146154785e+003;3.1661538086e+003;3.2019230957e+003;3.2344870605e+003;3.2161538086e+003;3.2300000000e+003;
1.6640625000e+000;3.7012819824e+003;3.5234614258e+003;3.5375642090e+003;3.6215385742e+003;3.5158974609e+003;3.5337180176e+003;3.5344870605e+003;3.5196154785e+003;3.5121794434e+003;3.4911538086e+003;3.5257692871e+003;3.5482050781e+003;3.5351281738e+003;3.5446154785e+003;
1.6718750000e+000;3.6921794434e+003;3.5155129395e+003;3.5361538086e+003;3.6182050781e+003;3.5043588867e+003;3.5237180176e+003;3.5241025391e+003;3.5152563477e+003;3.5039743652e+003;3.4898718262e+003;3.5175642090e+003;3.5435898438e+003;3.5262819824e+003;3.5384614258e+003;
1.6796875000e+000;3.6905129395e+003;3.5137180176e+003;3.5405129395e+003;3.6226923828e+003;3.5025642090e+003;3.5215385742e+003;3.5232050781e+003;3.5129487305e+003;3.4996154785e+003;3.4914101563e+003;3.5143588867e+003;3.5441025391e+003;3.5244870605e+003;3.5370512695e+003;
1.6875000000e+000;3.8973076172e+003;3.7298718262e+003;3.7523076172e+003;3.8323076172e+003;3.7198718262e+003;3.7271794434e+003;3.7350000000e+003;3.7171794434e+003;3.7043588867e+003;3.7079487305e+003;3.7298718262e+003;3.7566667480e+003;3.7382050781e+003;3.7441025391e+003;
1.6953125000e+000;4.1097436523e+003;3.9773076172e+003;3.9812819824e+003;4.0515385742e+003;3.9660256348e+003;3.9700000000e+003;3.9684614258e+003;3.9826923828e+003;3.9784614258e+003;3.9815385742e+003;3.9808974609e+003;3.9980769043e+003;3.9837180176e+003;3.9847436523e+003;
1.7031250000e+000;3.9964101563e+003;3.8676923828e+003;3.8770512695e+003;3.9471794434e+003;3.8628205566e+003;3.8738461914e+003;3.8667949219e+003;3.8841025391e+003;3.8835898438e+003;3.8779487305e+003;3.8701281738e+003;3.8916667480e+003;3.8773076172e+003;3.8802563477e+003;
1.7109375000e+000;3.8384614258e+003;3.7048718262e+003;3.7258974609e+003;3.8019230957e+003;3.7184614258e+003;3.7346154785e+003;3.7266667480e+003;3.7152563477e+003;3.7205129395e+003;3.7016667480e+003;3.7075642090e+003;3.7264101563e+003;3.7110256348e+003;3.7169230957e+003;
1.7187500000e+000;3.8691025391e+003;3.7378205566e+003;3.7569230957e+003;3.8369230957e+003;3.7515385742e+003;3.7689743652e+003;3.7588461914e+003;3.7450000000e+003;3.7506411133e+003;3.7351281738e+003;3.7425642090e+003;3.7580769043e+003;3.7421794434e+003;3.7473076172e+003;
1.7265625000e+000;3.8691025391e+003;3.7420512695e+003;3.7597436523e+003;3.8447436523e+003;3.7539743652e+003;3.7770512695e+003;3.7616667480e+003;3.7498718262e+003;3.7561538086e+003;3.7434614258e+003;3.7476923828e+003;3.7630769043e+003;3.7471794434e+003;3.7521794434e+003;
1.7343750000e+000;3.8319230957e+003;3.7084614258e+003;3.7258974609e+003;3.8156411133e+003;3.7183332520e+003;3.7492307129e+003;3.7278205566e+003;3.7173076172e+003;3.7256411133e+003;3.7130769043e+003;3.7132050781e+003;3.7305129395e+003;3.7160256348e+003;3.7215385742e+003;
1.7421875000e+000;3.8323076172e+003;3.7198718262e+003;3.7180769043e+003;3.8024357910e+003;3.7246154785e+003;3.7464101563e+003;3.7338461914e+003;3.7096154785e+003;3.7283332520e+003;3.7087180176e+003;3.7088461914e+003;3.7300000000e+003;3.7180769043e+003;3.7223076172e+003;
1.7500000000e+000;3.8708974609e+003;3.7592307129e+003;3.7560256348e+003;3.8350000000e+003;3.7623076172e+003;3.7838461914e+003;3.7744870605e+003;3.7503845215e+003;3.7648718262e+003;3.7487180176e+003;3.7461538086e+003;3.7696154785e+003;3.7550000000e+003;3.7608974609e+003;
1.7578125000e+000;4.0346154785e+003;3.9250000000e+003;3.9293588867e+003;3.9952563477e+003;3.9187180176e+003;3.9405129395e+003;3.9289743652e+003;3.9121794434e+003;3.9175642090e+003;3.9251281738e+003;3.9155129395e+003;3.9296154785e+003;3.9285898438e+003;3.9282050781e+003;
1.7656250000e+000;4.1576923828e+003;4.0769230957e+003;4.0580769043e+003;4.1316665039e+003;4.0657692871e+003;4.0474357910e+003;4.0438461914e+003;4.0379487305e+003;4.0429487305e+003;4.0602563477e+003;4.0607692871e+003;4.0734614258e+003;4.0728205566e+003;4.0652563477e+003;
1.7734375000e+000;4.1907690430e+003;4.1167949219e+003;4.0924357910e+003;4.1689741211e+003;4.1078203125e+003;4.0824357910e+003;4.0793588867e+003;4.0742307129e+003;4.0773076172e+003;4.0965385742e+003;4.0992309570e+003;4.1116665039e+003;4.1101284180e+003;4.1034614258e+003;
1.7812500000e+000;4.3480771484e+003;4.2856411133e+003;4.2670512695e+003;4.3211538086e+003;4.2685898438e+003;4.2453847656e+003;4.2376923828e+003;4.2392309570e+003;4.2364101563e+003;4.2719228516e+003;4.2673076172e+003;4.2784614258e+003;4.2714101563e+003;4.2746152344e+003;
1.7890625000e+000;4.3912822266e+003;4.3480771484e+003;4.3302563477e+003;4.3688461914e+003;4.3216665039e+003;4.2944873047e+003;4.2903847656e+003;4.3016665039e+003;4.2947436523e+003;4.3405126953e+003;4.3270512695e+003;4.3406411133e+003;4.3352563477e+003;4.3384614258e+003;
1.7968750000e+000;4.4032050781e+003;4.3647436523e+003;4.3462822266e+003;4.3851284180e+003;4.3400000000e+003;4.3146152344e+003;4.3094873047e+003;4.3206411133e+003;4.3129487305e+003;4.3588461914e+003;4.3469228516e+003;4.3560258789e+003;4.3520512695e+003;4.3525639648e+003;
1.8046875000e+000;4.4175639648e+003;4.3839741211e+003;4.3634614258e+003;4.4028203125e+003;4.3621796875e+003;4.3391025391e+003;4.3307690430e+003;4.3403847656e+003;4.3341025391e+003;4.3782050781e+003;4.3675639648e+003;4.3715385742e+003;4.3684614258e+003;4.3665385742e+003;
1.8125000000e+000;4.3978203125e+003;4.3792309570e+003;4.3488461914e+003;4.3896152344e+003;4.3637177734e+003;4.3430771484e+003;4.3269228516e+003;4.3351284180e+003;4.3353847656e+003;4.3708974609e+003;4.3562822266e+003;4.3564101563e+003;4.3557690430e+003;4.3493588867e+003;
1.8203125000e+000;4.0829487305e+003;4.0683332520e+003;4.0500000000e+003;4.0948718262e+003;4.0533332520e+003;4.0692307129e+003;4.0430769043e+003;4.0466667480e+003;4.0508974609e+003;4.0720512695e+003;4.0529487305e+003;4.0684614258e+003;4.0650000000e+003;4.0573076172e+003;
1.8281250000e+000;3.9796154785e+003;3.9591025391e+003;3.9491025391e+003;3.9982050781e+003;3.9451281738e+003;3.9710256348e+003;3.9435898438e+003;3.9411538086e+003;3.9457692871e+003;3.9647436523e+003;3.9482050781e+003;3.9664101563e+003;3.9615385742e+003;3.9555129395e+003;
1.8359375000e+000;3.9267949219e+003;3.9020512695e+003;3.8950000000e+003;3.9496154785e+003;3.8910256348e+003;3.9167949219e+003;3.8901281738e+003;3.8828205566e+003;3.8884614258e+003;3.9061538086e+003;3.8908974609e+003;3.9096154785e+003;3.9038461914e+003;3.8989743652e+003;
1.8437500000e+000;3.9080769043e+003;3.8765385742e+003;3.8683332520e+003;3.9253845215e+003;3.8742307129e+003;3.8865385742e+003;3.8665385742e+003;3.8553845215e+003;3.8652563477e+003;3.8765385742e+003;3.8601281738e+003;3.8802563477e+003;3.8708974609e+003;3.8670512695e+003;
1.8515625000e+000;3.8989743652e+003;3.8610256348e+003;3.8553845215e+003;3.9074357910e+003;3.8620512695e+003;3.8725642090e+003;3.8560256348e+003;3.8417949219e+003;3.8544870605e+003;3.8605129395e+003;3.8456411133e+003;3.8675642090e+003;3.8553845215e+003;3.8526923828e+003;
1.8593750000e+000;3.9008974609e+003;3.8564101563e+003;3.8537180176e+003;3.9001281738e+003;3.8588461914e+003;3.8708974609e+003;3.8558974609e+003;3.8373076172e+003;3.8524357910e+003;3.8550000000e+003;3.8434614258e+003;3.8658974609e+003;3.8524357910e+003;3.8506411133e+003;
1.8671875000e+000;4.2371796875e+003;4.2108974609e+003;4.1865385742e+003;4.2308974609e+003;4.2030771484e+003;4.1937177734e+003;4.1802563477e+003;4.1756411133e+003;4.1903847656e+003;4.2146152344e+003;4.2002563477e+003;4.2082050781e+003;4.2044873047e+003;4.1956411133e+003;
1.8750000000e+000;4.2784614258e+003;4.2521796875e+003;4.2302563477e+003;4.2680771484e+003;4.2451284180e+003;4.2296152344e+003;4.2197436523e+003;4.2197436523e+003;4.2339741211e+003;4.2592309570e+003;4.2476923828e+003;4.2523076172e+003;4.2484614258e+003;4.2384614258e+003;
1.8828125000e+000;4.3085898438e+003;4.2907690430e+003;4.2715385742e+003;4.3033334961e+003;4.2847436523e+003;4.2597436523e+003;4.2501284180e+003;4.2651284180e+003;4.2678203125e+003;4.3032050781e+003;4.2820512695e+003;4.2942309570e+003;4.2835898438e+003;4.2746152344e+003;
1.8906250000e+000;4.5287177734e+003;4.5260258789e+003;4.5003847656e+003;4.5102563477e+003;4.5014101563e+003;4.4726923828e+003;4.4628203125e+003;4.4871796875e+003;4.4969228516e+003;4.5489741211e+003;4.5132050781e+003;4.5198715820e+003;4.5226923828e+003;4.5025639648e+003;
1.8984375000e+000;4.5776923828e+003;4.5752563477e+003;4.5546152344e+003;4.5578203125e+003;4.5506411133e+003;4.5220512695e+003;4.5110258789e+003;4.5412822266e+003;4.5529487305e+003;4.6055126953e+003;4.5705126953e+003;4.5720512695e+003;4.5778203125e+003;4.5539741211e+003;
1.9062500000e+000;4.4239741211e+003;4.4339741211e+003;4.4194873047e+003;4.4294873047e+003;4.4330771484e+003;4.4048715820e+003;4.3916665039e+003;4.4250000000e+003;4.4269228516e+003;4.4603847656e+003;4.4283334961e+003;4.4397436523e+003;4.4244873047e+003;4.4151284180e+003;
1.9140625000e+000;4.1776923828e+003;4.1991025391e+003;4.1752563477e+003;4.2002563477e+003;4.1978203125e+003;4.1976923828e+003;4.1834614258e+003;4.1946152344e+003;4.1912822266e+003;4.2116665039e+003;4.1862822266e+003;4.1971796875e+003;4.1823076172e+003;4.1760258789e+003;
1.9218750000e+000;4.2155126953e+003;4.2328203125e+003;4.2114101563e+003;4.2364101563e+003;4.2303847656e+003;4.2348715820e+003;4.2244873047e+003;4.2239741211e+003;4.2189741211e+003;4.2401284180e+003;4.2210258789e+003;4.2271796875e+003;4.2192309570e+003;4.2083334961e+003;
1.9296875000e+000;4.3453847656e+003;4.3600000000e+003;4.3388461914e+003;4.3589741211e+003;4.3582050781e+003;4.3567949219e+003;4.3519228516e+003;4.3441025391e+003;4.3385898438e+003;4.3634614258e+003;4.3473076172e+003;4.3480771484e+003;4.3474360352e+003;4.3314101563e+003;
1.9375000000e+000;4.6916665039e+003;4.7164101563e+003;4.6858974609e+003;4.6842309570e+003;4.7169228516e+003;4.6882050781e+003;4.6878203125e+003;4.6891025391e+003;4.6871796875e+003;4.7260258789e+003;4.6994873047e+003;4.6920512695e+003;4.6984614258e+003;4.6770512695e+003;
1.9453125000e+000;4.7817949219e+003;4.8165385742e+003;4.7815385742e+003;4.7710258789e+003;4.8152563477e+003;4.7801284180e+003;4.7757690430e+003;4.7884614258e+003;4.7875639648e+003;4.8347436523e+003;4.7987177734e+003;4.7917949219e+003;4.7964101563e+003;4.7753847656e+003;
1.9531250000e+000;4.7362822266e+003;4.7861538086e+003;4.7515385742e+003;4.7467949219e+003;4.7779487305e+003;4.7494873047e+003;4.7346152344e+003;4.7596152344e+003;4.7533334961e+003;4.8141025391e+003;4.7674360352e+003;4.7657690430e+003;4.7687177734e+003;4.7442309570e+003;
1.9609375000e+000;4.6901284180e+003;4.7448715820e+003;4.7116665039e+003;4.7161538086e+003;4.7338461914e+003;4.7087177734e+003;4.6929487305e+003;4.7144873047e+003;4.7062822266e+003;4.7692309570e+003;4.7247436523e+003;4.7233334961e+003;4.7283334961e+003;4.6989741211e+003;
1.9687500000e+000;4.8228203125e+003;4.8901284180e+003;4.8558974609e+003;4.8466665039e+003;4.8773076172e+003;4.8384614258e+003;4.8330771484e+003;4.8337177734e+003;4.8360258789e+003;4.8923076172e+003;4.8634614258e+003;4.8585898438e+003;4.8635898438e+003;4.8341025391e+003;
1.9765625000e+000;4.9102563477e+003;4.9842309570e+003;4.9470512695e+003;4.9262822266e+003;4.9724360352e+003;4.9233334961e+003;4.9184614258e+003;4.9210258789e+003;4.9237177734e+003;4.9817949219e+003;4.9542309570e+003;4.9507690430e+003;4.9533334961e+003;4.9288461914e+003;
1.9843750000e+000;4.9838461914e+003;5.0666665039e+003;5.0253847656e+003;4.9984614258e+003;5.0556411133e+003;4.9955126953e+003;4.9903847656e+003;4.9988461914e+003;4.9979487305e+003;5.0623076172e+003;5.0342309570e+003;5.0324360352e+003;5.0328203125e+003;5.0114101563e+003;
1.9921875000e+000;5.2625639648e+003;5.3884614258e+003;5.3434614258e+003;5.2878203125e+003;5.3634614258e+003;5.2752563477e+003;5.2771796875e+003;5.3019228516e+003;5.2991025391e+003;5.3861538086e+003;5.3624360352e+003;5.3426923828e+003;5.3591025391e+003;5.3275639648e+003;
2.0000000000e+000;5.3348715820e+003;5.4685898438e+003;5.4205126953e+003;5.3600000000e+003;5.4456411133e+003;5.3467949219e+003;5.3480771484e+003;5.3806411133e+003;5.3791025391e+003;5.4680771484e+003;5.4424360352e+003;5.4184614258e+003;5.4370512695e+003;5.4043588867e+003;
2.0078125000e+000;5.2979487305e+003;5.4676923828e+003;5.4108974609e+003;5.3489741211e+003;5.4394873047e+003;5.3416665039e+003;5.3312822266e+003;5.3955126953e+003;5.3934614258e+003;5.4825639648e+003;5.4455126953e+003;5.4208974609e+003;5.4324360352e+003;5.3970512695e+003;
2.0156250000e+000;4.9760258789e+003;5.1633334961e+003;5.1030771484e+003;5.0541025391e+003;5.1376923828e+003;5.0802563477e+003;5.0691025391e+003;5.1261538086e+003;5.1208974609e+003;5.1903847656e+003;5.1466665039e+003;5.1267949219e+003;5.1441025391e+003;5.1055126953e+003;
2.0234375000e+000;4.9316665039e+003;5.1132050781e+003;5.0575639648e+003;5.0151284180e+003;5.1001284180e+003;5.0475639648e+003;5.0394873047e+003;5.0870512695e+003;5.0787177734e+003;5.1415385742e+003;5.1000000000e+003;5.0806411133e+003;5.1005126953e+003;5.0608974609e+003;
2.0312500000e+000;4.8860258789e+003;5.0502563477e+003;5.0170512695e+003;4.9656411133e+003;5.0553847656e+003;5.0284614258e+003;5.0183334961e+003;5.0556411133e+003;5.0491025391e+003;5.0948715820e+003;5.0460258789e+003;5.0312822266e+003;5.0469228516e+003;5.0100000000e+003;
2.0390625000e+000;4.5034614258e+003;4.6648715820e+003;4.6408974609e+003;4.6039741211e+003;4.6717949219e+003;4.6644873047e+003;4.6503847656e+003;4.6838461914e+003;4.6843588867e+003;4.7105126953e+003;4.6689741211e+003;4.6584614258e+003;4.6678203125e+003;4.6420512695e+003;
2.0468750000e+000;4.4130771484e+003;4.5684614258e+003;4.5461538086e+003;4.5194873047e+003;4.5797436523e+003;4.5696152344e+003;4.5596152344e+003;4.5829487305e+003;4.5853847656e+003;4.6058974609e+003;4.5770512695e+003;4.5605126953e+003;4.5762822266e+003;4.5480771484e+003;
2.0546875000e+000;4.3708974609e+003;4.5185898438e+003;4.4987177734e+003;4.4766665039e+003;4.5312822266e+003;4.5201284180e+003;4.5139741211e+003;4.5270512695e+003;4.5315385742e+003;4.5493588867e+003;4.5305126953e+003;4.5089741211e+003;4.5292309570e+003;4.4987177734e+003;
2.0625000000e+000;4.3297436523e+003;4.4655126953e+003;4.4511538086e+003;4.4229487305e+003;4.4706411133e+003;4.4655126953e+003;4.4600000000e+003;4.4598715820e+003;4.4643588867e+003;4.4882050781e+003;4.4744873047e+003;4.4580771484e+003;4.4702563477e+003;4.4478203125e+003;
2.0703125000e+000;4.3142309570e+003;4.4469228516e+003;4.4338461914e+003;4.4015385742e+003;4.4476923828e+003;4.4426923828e+003;4.4360258789e+003;4.4320512695e+003;4.4342309570e+003;4.4639741211e+003;4.4501284180e+003;4.4398715820e+003;4.4471796875e+003;4.4311538086e+003;
2.0781250000e+000;4.3480771484e+003;4.4748715820e+003;4.4612822266e+003;4.4269228516e+003;4.4738461914e+003;4.4562822266e+003;4.4514101563e+003;4.4433334961e+003;4.4419228516e+003;4.4776923828e+003;4.4666665039e+003;4.4628203125e+003;4.4760258789e+003;4.4593588867e+003;
2.0859375000e+000;4.3861538086e+003;4.5074360352e+003;4.4944873047e+003;4.4620512695e+003;4.5074360352e+003;4.4835898438e+003;4.4807690430e+003;4.4730771484e+003;4.4716665039e+003;4.5067949219e+003;4.4975639648e+003;4.4939741211e+003;4.5128203125e+003;4.4916665039e+003;
2.0937500000e+000;4.4088461914e+003;4.5153847656e+003;4.5062822266e+003;4.4910258789e+003;4.5093588867e+003;4.4870512695e+003;4.4839741211e+003;4.4848715820e+003;4.4828203125e+003;4.5171796875e+003;4.5183334961e+003;4.5093588867e+003;4.5246152344e+003;4.5039741211e+003;
2.1015625000e+000;4.3964101563e+003;4.5041025391e+003;4.4932050781e+003;4.4806411133e+003;4.4932050781e+003;4.4705126953e+003;4.4673076172e+003;4.4723076172e+003;4.4691025391e+003;4.5033334961e+003;4.5091025391e+003;4.4994873047e+003;4.5108974609e+003;4.4932050781e+003;
2.1093750000e+000;4.4047436523e+003;4.5144873047e+003;4.5011538086e+003;4.4856411133e+003;4.5000000000e+003;4.4728203125e+003;4.4714101563e+003;4.4808974609e+003;4.4764101563e+003;4.5092309570e+003;4.5176923828e+003;4.5094873047e+003;4.5187177734e+003;4.5033334961e+003;
2.1171875000e+000;4.7860258789e+003;4.9047436523e+003;4.8778203125e+003;4.8434614258e+003;4.8850000000e+003;4.8329487305e+003;4.8414101563e+003;4.8898715820e+003;4.8955126953e+003;4.9241025391e+003;4.9007690430e+003;4.8860258789e+003;4.9024360352e+003;4.8821796875e+003;
2.1250000000e+000;4.7861538086e+003;4.9046152344e+003;4.8824360352e+003;4.8458974609e+003;4.8852563477e+003;4.8416665039e+003;4.8483334961e+003;4.8983334961e+003;4.9024360352e+003;4.9303847656e+003;4.9033334961e+003;4.8925639648e+003;4.9055126953e+003;4.8878203125e+003;
2.1328125000e+000;4.8726923828e+003;5.0073076172e+003;4.9737177734e+003;4.9351284180e+003;4.9984614258e+003;4.9558974609e+003;4.9573076172e+003;4.9971796875e+003;4.9906411133e+003;5.0247436523e+003;4.9992309570e+003;4.9847436523e+003;5.0024360352e+003;4.9824360352e+003;
2.1406250000e+000;4.9428203125e+003;5.0882050781e+003;5.0461538086e+003;5.0110258789e+003;5.0841025391e+003;5.0343588867e+003;5.0347436523e+003;5.0729487305e+003;5.0648715820e+003;5.1050000000e+003;5.0787177734e+003;5.0583334961e+003;5.0796152344e+003;5.0546152344e+003;
2.1484375000e+000;5.0148715820e+003;5.1778203125e+003;5.1298715820e+003;5.0998715820e+003;5.1789741211e+003;5.1234614258e+003;5.1243588867e+003;5.1537177734e+003;5.1508974609e+003;5.1974360352e+003;5.1653847656e+003;5.1438461914e+003;5.1656411133e+003;5.1341025391e+003;
2.1562500000e+000;4.9861538086e+003;5.1676923828e+003;5.1175639648e+003;5.0758974609e+003;5.1625639648e+003;5.1183334961e+003;5.1098715820e+003;5.1306411133e+003;5.1355126953e+003;5.1785898438e+003;5.1500000000e+003;5.1233334961e+003;5.1523076172e+003;5.1171796875e+003;
2.1640625000e+000;4.9988461914e+003;5.1801284180e+003;5.1343588867e+003;5.0888461914e+003;5.1720512695e+003;5.1301284180e+003;5.1219228516e+003;5.1400000000e+003;5.1407690430e+003;5.1875639648e+003;5.1624360352e+003;5.1396152344e+003;5.1667949219e+003;5.1325639648e+003;
2.1718750000e+000;5.0665385742e+003;5.2517949219e+003;5.2094873047e+003;5.1629487305e+003;5.2442309570e+003;5.1919228516e+003;5.1870512695e+003;5.1978203125e+003;5.1892309570e+003;5.2500000000e+003;5.2251284180e+003;5.2124360352e+003;5.2328203125e+003;5.2037177734e+003;
2.1796875000e+000;5.1102563477e+003;5.2997436523e+003;5.2555126953e+003;5.2097436523e+003;5.2967949219e+003;5.2342309570e+003;5.2296152344e+003;5.2383334961e+003;5.2264101563e+003;5.2929487305e+003;5.2693588867e+003;5.2557690430e+003;5.2729487305e+003;5.2479487305e+003;
2.1875000000e+000;5.3391025391e+003;5.5425639648e+003;5.4906411133e+003;5.4330771484e+003;5.5411538086e+003;5.4587177734e+003;5.4548715820e+003;5.4633334961e+003;5.4511538086e+003;5.5274360352e+003;5.5132050781e+003;5.4821796875e+003;5.5016665039e+003;5.4780771484e+003;
2.1953125000e+000;5.4262822266e+003;5.6371796875e+003;5.5842309570e+003;5.5197436523e+003;5.6267949219e+003;5.5443588867e+003;5.5433334961e+003;5.5552563477e+003;5.5414101563e+003;5.6247436523e+003;5.6080771484e+003;5.5761538086e+003;5.5979487305e+003;5.5707690430e+003;
2.2031250000e+000;5.4217949219e+003;5.6498715820e+003;5.6019228516e+003;5.5270512695e+003;5.6219228516e+003;5.5458974609e+003;5.5502563477e+003;5.5761538086e+003;5.5493588867e+003;5.6428203125e+003;5.6207690430e+003;5.5976923828e+003;5.6150000000e+003;5.5860258789e+003;
2.2109375000e+000;5.3244873047e+003;5.5567949219e+003;5.5138461914e+003;5.4375639648e+003;5.5275639648e+003;5.4534614258e+003;5.4592309570e+003;5.4925639648e+003;5.4603847656e+003;5.5503847656e+003;5.5300000000e+003;5.5103847656e+003;5.5237177734e+003;5.4971796875e+003;
2.2187500000e+000;5.1484614258e+003;5.3801284180e+003;5.3407690430e+003;5.2702563477e+003;5.3611538086e+003;5.2817949219e+003;5.2888461914e+003;5.3452563477e+003;5.3164101563e+003;5.3798715820e+003;5.3612822266e+003;5.3401284180e+003;5.3526923828e+003;5.3302563477e+003;
2.2265625000e+000;5.1719228516e+003;5.4061538086e+003;5.3648715820e+003;5.2962822266e+003;5.3880771484e+003;5.3070512695e+003;5.3138461914e+003;5.3791025391e+003;5.3521796875e+003;5.4106411133e+003;5.3862822266e+003;5.3675639648e+003;5.3796152344e+003;5.3576923828e+003;
2.2343750000e+000;5.1780771484e+003;5.4148715820e+003;5.3733334961e+003;5.3071796875e+003;5.3969228516e+003;5.3167949219e+003;5.3225639648e+003;5.3958974609e+003;5.3697436523e+003;5.4244873047e+003;5.3948715820e+003;5.3791025391e+003;5.3896152344e+003;5.3684614258e+003;
2.2421875000e+000;5.1230771484e+003;5.3593588867e+003;5.3212822266e+003;5.2593588867e+003;5.3419228516e+003;5.2680771484e+003;5.2715385742e+003;5.3503847656e+003;5.3250000000e+003;5.3747436523e+003;5.3442309570e+003;5.3285898438e+003;5.3373076172e+003;5.3171796875e+003;
2.2500000000e+000;4.5051284180e+003;4.7128203125e+003;4.7037177734e+003;4.6682050781e+003;4.7041025391e+003;4.6974360352e+003;4.6811538086e+003;4.7293588867e+003;4.7170512695e+003;4.7253847656e+003;4.7226923828e+003;4.7002563477e+003;4.7028203125e+003;4.6882050781e+003;
2.2578125000e+000;4.4625639648e+003;4.6647436523e+003;4.6546152344e+003;4.6226923828e+003;4.6608974609e+003;4.6578203125e+003;4.6406411133e+003;4.6766665039e+003;4.6658974609e+003;4.6685898438e+003;4.6671796875e+003;4.6473076172e+003;4.6537177734e+003;4.6392309570e+003;
2.2656250000e+000;4.4689741211e+003;4.6583334961e+003;4.6424360352e+003;4.6314101563e+003;4.6696152344e+003;4.6580771484e+003;4.6420512695e+003;4.6666665039e+003;4.6587177734e+003;4.6570512695e+003;4.6465385742e+003;4.6353847656e+003;4.6493588867e+003;4.6333334961e+003;
2.2734375000e+000;4.6046152344e+003;4.7869228516e+003;4.7600000000e+003;4.7630771484e+003;4.7926923828e+003;4.7885898438e+003;4.7692309570e+003;4.7643588867e+003;4.7666665039e+003;4.7614101563e+003;4.7585898438e+003;4.7448715820e+003;4.7592309570e+003;4.7426923828e+003;
2.2812500000e+000;4.7773076172e+003;4.9621796875e+003;4.9291025391e+003;4.9251284180e+003;4.9671796875e+003;4.9511538086e+003;4.9320512695e+003;4.9256411133e+003;4.9305126953e+003;4.9319228516e+003;4.9306411133e+003;4.9094873047e+003;4.9287177734e+003;4.9083334961e+003;
2.2890625000e+000;5.1567949219e+003;5.3594873047e+003;5.3180771484e+003;5.2994873047e+003;5.3602563477e+003;5.3073076172e+003;5.2928203125e+003;5.3067949219e+003;5.3032050781e+003;5.3369228516e+003;5.3346152344e+003;5.3017949219e+003;5.3275639648e+003;5.2984614258e+003;
2.2968750000e+000;5.2665385742e+003;5.4805126953e+003;5.4388461914e+003;5.4123076172e+003;5.4739741211e+003;5.4148715820e+003;5.4078203125e+003;5.4337177734e+003;5.4144873047e+003;5.4616665039e+003;5.4596152344e+003;5.4326923828e+003;5.4489741211e+003;5.4228203125e+003;
2.3046875000e+000;5.2548715820e+003;5.4674360352e+003;5.4319228516e+003;5.3992309570e+003;5.4602563477e+003;5.4014101563e+003;5.3978203125e+003;5.4270512695e+003;5.4071796875e+003;5.4528203125e+003;5.4523076172e+003;5.4267949219e+003;5.4382050781e+003;5.4160258789e+003;
2.3125000000e+000;5.1897436523e+003;5.4070512695e+003;5.3773076172e+003;5.3401284180e+003;5.3870512695e+003;5.3292309570e+003;5.3361538086e+003;5.3748715820e+003;5.3512822266e+003;5.3969228516e+003;5.3998715820e+003;5.3721796875e+003;5.3884614258e+003;5.3652563477e+003;
2.3203125000e+000;5.2307690430e+003;5.4544873047e+003;5.4211538086e+003;5.3852563477e+003;5.4314101563e+003;5.3675639648e+003;5.3783334961e+003;5.4214101563e+003;5.3925639648e+003;5.4415385742e+003;5.4433334961e+003;5.4171796875e+003;5.4353847656e+003;5.4101284180e+003;
2.3281250000e+000;5.3662822266e+003;5.5996152344e+003;5.5637177734e+003;5.5262822266e+003;5.5775639648e+003;5.4984614258e+003;5.5134614258e+003;5.5701284180e+003;5.5356411133e+003;5.5883334961e+003;5.5876923828e+003;5.5615385742e+003;5.5780771484e+003;5.5516665039e+003;
2.3359375000e+000;5.3962822266e+003;5.6325639648e+003;5.5970512695e+003;5.5570512695e+003;5.6103847656e+003;5.5301284180e+003;5.5437177734e+003;5.6070512695e+003;5.5756411133e+003;5.6266665039e+003;5.6251284180e+003;5.5948715820e+003;5.6120512695e+003;5.5842309570e+003;
2.3437500000e+000;5.3732050781e+003;5.6174360352e+003;5.5814101563e+003;5.5365385742e+003;5.5947436523e+003;5.5261538086e+003;5.5339741211e+003;5.5901284180e+003;5.5720512695e+003;5.6087177734e+003;5.6106411133e+003;5.5743588867e+003;5.5997436523e+003;5.5711538086e+003;
2.3515625000e+000;5.4252563477e+003;5.6743588867e+003;5.6364101563e+003;5.5934614258e+003;5.6555126953e+003;5.5819228516e+003;5.5900000000e+003;5.6412822266e+003;5.6232050781e+003;5.6585898438e+003;5.6615385742e+003;5.6275639648e+003;5.6512822266e+003;5.6269228516e+003;
2.3593750000e+000;5.4914101563e+003;5.7469228516e+003;5.7060258789e+003;5.6664101563e+003;5.7319228516e+003;5.6515385742e+003;5.6583334961e+003;5.7100000000e+003;5.6903847656e+003;5.7284614258e+003;5.7298715820e+003;5.6967949219e+003;5.7165385742e+003;5.6962822266e+003;
2.3671875000e+000;5.5219228516e+003;5.7839741211e+003;5.7405126953e+003;5.7038461914e+003;5.7701284180e+003;5.6885898438e+003;5.6916665039e+003;5.7469228516e+003;5.7258974609e+003;5.7692309570e+003;5.7664101563e+003;5.7320512695e+003;5.7473076172e+003;5.7293588867e+003;
2.3750000000e+000;5.2980771484e+003;5.5666665039e+003;5.5275639648e+003;5.4912822266e+003;5.5497436523e+003;5.5014101563e+003;5.4942309570e+003;5.5310258789e+003;5.5198715820e+003;5.5528203125e+003;5.5444873047e+003;5.5141025391e+003;5.5323076172e+003;5.5165385742e+003;
2.3828125000e+000;5.3011538086e+003;5.5691025391e+003;5.5317949219e+003;5.4967949219e+003;5.5551284180e+003;5.5041025391e+003;5.4983334961e+003;5.5306411133e+003;5.5214101563e+003;5.5469228516e+003;5.5423076172e+003;5.5158974609e+003;5.5339741211e+003;5.5226923828e+003;
2.3906250000e+000;5.2621796875e+003;5.5198715820e+003;5.5010258789e+003;5.4560258789e+003;5.5061538086e+003;5.4619228516e+003;5.4560258789e+003;5.4847436523e+003;5.4748715820e+003;5.5021796875e+003;5.5052563477e+003;5.4771796875e+003;5.4887177734e+003;5.4878203125e+003;
2.3984375000e+000;5.3775639648e+003;5.6432050781e+003;5.6083334961e+003;5.5683334961e+003;5.6264101563e+003;5.5743588867e+003;5.5784614258e+003;5.5939741211e+003;5.5850000000e+003;5.6134614258e+003;5.6250000000e+003;5.5850000000e+003;5.6092309570e+003;5.5979487305e+003;
2.4062500000e+000;5.4885898438e+003;5.7615385742e+003;5.7180771484e+003;5.6828203125e+003;5.7441025391e+003;5.6817949219e+003;5.6874360352e+003;5.7070512695e+003;5.6962822266e+003;5.7241025391e+003;5.7380771484e+003;5.6994873047e+003;5.7215385742e+003;5.7101284180e+003;
2.4140625000e+000;5.6228203125e+003;5.9048715820e+003;5.8697436523e+003;5.8135898438e+003;5.8789741211e+003;5.8088461914e+003;5.8102563477e+003;5.8562822266e+003;5.8357690430e+003;5.8778203125e+003;5.8811538086e+003;5.8516665039e+003;5.8629487305e+003;5.8587177734e+003;
2.4218750000e+000;5.5794873047e+003;5.8666665039e+003;5.8393588867e+003;5.7744873047e+003;5.8392309570e+003;5.7723076172e+003;5.7791025391e+003;5.8310258789e+003;5.8061538086e+003;5.8484614258e+003;5.8541025391e+003;5.8193588867e+003;5.8364101563e+003;5.8284614258e+003;
2.4296875000e+000;5.6226923828e+003;5.9147436523e+003;5.8842309570e+003;5.8191025391e+003;5.8876923828e+003;5.8143588867e+003;5.8226923828e+003;5.8762822266e+003;5.8526923828e+003;5.8932050781e+003;5.9056411133e+003;5.8624360352e+003;5.8851284180e+003;5.8733334961e+003;
2.4375000000e+000;5.7844873047e+003;6.0923076172e+003;6.0603847656e+003;5.9833334961e+003;6.0602563477e+003;5.9700000000e+003;5.9798715820e+003;6.0464101563e+003;6.0255126953e+003;6.0742309570e+003;6.0835898438e+003;6.0323076172e+003;6.0702563477e+003;6.0474360352e+003;
2.4453125000e+000;5.7892309570e+003;6.1016665039e+003;6.0694873047e+003;5.9929487305e+003;6.0684614258e+003;5.9774360352e+003;5.9875639648e+003;6.0562822266e+003;6.0342309570e+003;6.0844873047e+003;6.0894873047e+003;6.0434614258e+003;6.0793588867e+003;6.0592309570e+003;
2.4531250000e+000;5.7355126953e+003;6.0588461914e+003;6.0189741211e+003;5.9501284180e+003;6.0282050781e+003;5.9393588867e+003;5.9462822266e+003;6.0135898438e+003;5.9917949219e+003;6.0378203125e+003;6.0442309570e+003;5.9988461914e+003;6.0275639648e+003;6.0153847656e+003;
2.4609375000e+000;5.6911538086e+003;6.0188461914e+003;5.9769228516e+003;5.9092309570e+003;5.9911538086e+003;5.9064101563e+003;5.9101284180e+003;5.9726923828e+003;5.9532050781e+003;5.9952563477e+003;6.0057690430e+003;5.9567949219e+003;5.9841025391e+003;5.9730771484e+003;
2.4687500000e+000;5.5500000000e+003;5.8747436523e+003;5.8460258789e+003;5.7730771484e+003;5.8515385742e+003;5.7891025391e+003;5.7844873047e+003;5.8307690430e+003;5.8165385742e+003;5.8452563477e+003;5.8561538086e+003;5.8117949219e+003;5.8424360352e+003;5.8275639648e+003;
2.4765625000e+000;5.4806411133e+003;5.8028203125e+003;5.7769228516e+003;5.7074360352e+003;5.7792309570e+003;5.7246152344e+003;5.7165385742e+003;5.7642309570e+003;5.7488461914e+003;5.7738461914e+003;5.7825639648e+003;5.7416665039e+003;5.7708974609e+003;5.7575639648e+003;
2.4843750000e+000;5.3811538086e+003;5.7011538086e+003;5.6765385742e+003;5.6132050781e+003;5.6775639648e+003;5.6316665039e+003;5.6198715820e+003;5.6694873047e+003;5.6516665039e+003;5.6732050781e+003;5.6833334961e+003;5.6435898438e+003;5.6689741211e+003;5.6605126953e+003;
2.4921875000e+000;5.2678203125e+003;5.5846152344e+003;5.5610258789e+003;5.5050000000e+003;5.5625639648e+003;5.5260258789e+003;5.5110258789e+003;5.5583334961e+003;5.5384614258e+003;5.5562822266e+003;5.5721796875e+003;5.5312822266e+003;5.5524360352e+003;5.5507690430e+003;
2.5000000000e+000;5.1994873047e+003;5.4996152344e+003;5.4766665039e+003;5.4410258789e+003;5.4921796875e+003;5.4574360352e+003;5.4488461914e+003;5.4675639648e+003;5.4560258789e+003;5.4564101563e+003;5.4791025391e+003;5.4367949219e+003;5.4703847656e+003;5.4647436523e+003;
2.5078125000e+000;5.2223076172e+003;5.5214101563e+003;5.4997436523e+003;5.4611538086e+003;5.5134614258e+003;5.4764101563e+003;5.4696152344e+003;5.4898715820e+003;5.4773076172e+003;5.4770512695e+003;5.4960258789e+003;5.4561538086e+003;5.4885898438e+003;5.4815385742e+003;
2.5156250000e+000;5.2669228516e+003;5.5614101563e+003;5.5376923828e+003;5.4973076172e+003;5.5447436523e+003;5.5183334961e+003;5.5111538086e+003;5.5298715820e+003;5.5082050781e+003;5.5133334961e+003;5.5394873047e+003;5.4997436523e+003;5.5238461914e+003;5.5197436523e+003;
2.5234375000e+000;5.3670512695e+003;5.6552563477e+003;5.6334614258e+003;5.5955126953e+003;5.6428203125e+003;5.5893588867e+003;5.5921796875e+003;5.6314101563e+003;5.6123076172e+003;5.6139741211e+003;5.6396152344e+003;5.5983334961e+003;5.6261538086e+003;5.6205126953e+003;
2.5312500000e+000;5.3100000000e+003;5.5964101563e+003;5.5791025391e+003;5.5342309570e+003;5.5829487305e+003;5.5257690430e+003;5.5279487305e+003;5.5801284180e+003;5.5603847656e+003;5.5602563477e+003;5.5847436523e+003;5.5419228516e+003;5.5684614258e+003;5.5656411133e+003;
2.5390625000e+000;4.9646152344e+003;5.2346152344e+003;5.2371796875e+003;5.1819228516e+003;5.2102563477e+003;5.1848715820e+003;5.1816665039e+003;5.2458974609e+003;5.2225639648e+003;5.2075639648e+003;5.2443588867e+003;5.2032050781e+003;5.2211538086e+003;5.2273076172e+003;
2.5468750000e+000;4.7161538086e+003;4.9598715820e+003;4.9674360352e+003;4.9456411133e+003;4.9384614258e+003;4.9273076172e+003;4.9246152344e+003;4.9803847656e+003;4.9610258789e+003;4.9266665039e+003;4.9707690430e+003;4.9343588867e+003;4.9642309570e+003;4.9676923828e+003;
2.5546875000e+000;4.6283334961e+003;4.8641025391e+003;4.8697436523e+003;4.8562822266e+003;4.8446152344e+003;4.8387177734e+003;4.8314101563e+003;4.8876923828e+003;4.8700000000e+003;4.8321796875e+003;4.8730771484e+003;4.8412822266e+003;4.8706411133e+003;4.8776923828e+003;
2.5625000000e+000;4.5174360352e+003;4.7424360352e+003;4.7510258789e+003;4.7410258789e+003;4.7246152344e+003;4.7297436523e+003;4.7174360352e+003;4.7707690430e+003;4.7546152344e+003;4.7125639648e+003;4.7520512695e+003;4.7285898438e+003;4.7506411133e+003;4.7642309570e+003;
2.5703125000e+000;4.3147436523e+003;4.5096152344e+003;4.5361538086e+003;4.5274360352e+003;4.4976923828e+003;4.5241025391e+003;4.5093588867e+003;4.5415385742e+003;4.5274360352e+003;4.4738461914e+003;4.5271796875e+003;4.5152563477e+003;4.5212822266e+003;4.5447436523e+003;
2.5781250000e+000;4.3135898438e+003;4.4739741211e+003;4.5038461914e+003;4.5165385742e+003;4.4748715820e+003;4.4980771484e+003;4.4875639648e+003;4.4914101563e+003;4.4794873047e+003;4.4230771484e+003;4.4983334961e+003;4.4707690430e+003;4.4906411133e+003;4.5115385742e+003;
2.5859375000e+000;4.3362822266e+003;4.4906411133e+003;4.5180771484e+003;4.5364101563e+003;4.4939741211e+003;4.5178203125e+003;4.5062822266e+003;4.5042309570e+003;4.4943588867e+003;4.4403847656e+003;4.5132050781e+003;4.4869228516e+003;4.5067949219e+003;4.5298715820e+003;
2.5937500000e+000;4.3510258789e+003;4.4997436523e+003;4.5266665039e+003;4.5452563477e+003;4.5035898438e+003;4.5310258789e+003;4.5183334961e+003;4.5103847656e+003;4.5026923828e+003;4.4505126953e+003;4.5189741211e+003;4.4984614258e+003;4.5124360352e+003;4.5392309570e+003;
2.6015625000e+000;4.3857690430e+003;4.5232050781e+003;4.5492309570e+003;4.5624360352e+003;4.5219228516e+003;4.5588461914e+003;4.5433334961e+003;4.5270512695e+003;4.5219228516e+003;4.4698715820e+003;4.5308974609e+003;4.5228203125e+003;4.5237177734e+003;4.5543588867e+003;
2.6093750000e+000;4.4106411133e+003;4.5428203125e+003;4.5664101563e+003;4.5808974609e+003;4.5396152344e+003;4.5779487305e+003;4.5598715820e+003;4.5424360352e+003;4.5374360352e+003;4.4838461914e+003;4.5435898438e+003;4.5380771484e+003;4.5393588867e+003;4.5689741211e+003;
2.6171875000e+000;4.4364101563e+003;4.5639741211e+003;4.5853847656e+003;4.6034614258e+003;4.5619228516e+003;4.5976923828e+003;4.5773076172e+003;4.5598715820e+003;4.5555126953e+003;4.4996152344e+003;4.5598715820e+003;4.5538461914e+003;4.5602563477e+003;4.5883334961e+003;
2.6250000000e+000;4.5133334961e+003;4.6302563477e+003;4.6487177734e+003;4.6625639648e+003;4.6360258789e+003;4.6511538086e+003;4.6398715820e+003;4.6462822266e+003;4.6443588867e+003;4.5821796875e+003;4.6382050781e+003;4.6174360352e+003;4.6338461914e+003;4.6557690430e+003;
2.6328125000e+000;4.5189741211e+003;4.6335898438e+003;4.6508974609e+003;4.6588461914e+003;4.6325639648e+003;4.6501284180e+003;4.6403847656e+003;4.6598715820e+003;4.6529487305e+003;4.5873076172e+003;4.6401284180e+003;4.6212822266e+003;4.6358974609e+003;4.6582050781e+003;
2.6406250000e+000;4.5217949219e+003;4.6214101563e+003;4.6457690430e+003;4.6556411133e+003;4.6187177734e+003;4.6339741211e+003;4.6324360352e+003;4.6801284180e+003;4.6607690430e+003;4.5929487305e+003;4.6380771484e+003;4.6188461914e+003;4.6337177734e+003;4.6532050781e+003;
2.6484375000e+000;4.5203847656e+003;4.6176923828e+003;4.6306411133e+003;4.6547436523e+003;4.6035898438e+003;4.6117949219e+003;4.6197436523e+003;4.6707690430e+003;4.6474360352e+003;4.5811538086e+003;4.6346152344e+003;4.6106411133e+003;4.6253847656e+003;4.6494873047e+003;
2.6562500000e+000;4.5334614258e+003;4.6297436523e+003;4.6407690430e+003;4.6588461914e+003;4.6107690430e+003;4.6192309570e+003;4.6252563477e+003;4.6785898438e+003;4.6547436523e+003;4.5896152344e+003;4.6461538086e+003;4.6205126953e+003;4.6355126953e+003;4.6592309570e+003;
2.6640625000e+000;4.4824360352e+003;4.5619228516e+003;4.5887177734e+003;4.5985898438e+003;4.5520512695e+003;4.5705126953e+003;4.5669228516e+003;4.6119228516e+003;4.5883334961e+003;4.5293588867e+003;4.5841025391e+003;4.5606411133e+003;4.5714101563e+003;4.5953847656e+003;
2.6718750000e+000;4.4515385742e+003;4.5305126953e+003;4.5556411133e+003;4.5702563477e+003;4.5225639648e+003;4.5442309570e+003;4.5394873047e+003;4.5742309570e+003;4.5532050781e+003;4.4947436523e+003;4.5462822266e+003;4.5255126953e+003;4.5376923828e+003;4.5619228516e+003;
2.6796875000e+000;4.4480771484e+003;4.5294873047e+003;4.5479487305e+003;4.5601284180e+003;4.5219228516e+003;4.5483334961e+003;4.5421796875e+003;4.5588461914e+003;4.5419228516e+003;4.4812822266e+003;4.5325639648e+003;4.5165385742e+003;4.5296152344e+003;4.5537177734e+003;
2.6875000000e+000;4.4785898438e+003;4.5553847656e+003;4.5769228516e+003;4.5816665039e+003;4.5510258789e+003;4.5806411133e+003;4.5729487305e+003;4.5837177734e+003;4.5670512695e+003;4.5051284180e+003;4.5583334961e+003;4.5450000000e+003;4.5529487305e+003;4.5798715820e+003;
2.6953125000e+000;4.5594873047e+003;4.6228203125e+003;4.6514101563e+003;4.6565385742e+003;4.6308974609e+003;4.6643588867e+003;4.6508974609e+003;4.6482050781e+003;4.6391025391e+003;4.5788461914e+003;4.6221796875e+003;4.6152563477e+003;4.6138461914e+003;4.6475639648e+003;
2.7031250000e+000;4.5417949219e+003;4.6091025391e+003;4.6323076172e+003;4.6450000000e+003;4.6142309570e+003;4.6488461914e+003;4.6335898438e+003;4.6264101563e+003;4.6223076172e+003;4.5644873047e+003;4.6046152344e+003;4.5973076172e+003;4.6003847656e+003;4.6293588867e+003;
2.7109375000e+000;4.4932050781e+003;4.5664101563e+003;4.5792309570e+003;4.5989741211e+003;4.5598715820e+003;4.5992309570e+003;4.5808974609e+003;4.5643588867e+003;4.5703847656e+003;4.5155126953e+003;4.5653847656e+003;4.5491025391e+003;4.5628203125e+003;4.5805126953e+003;
2.7187500000e+000;4.5017949219e+003;4.5728203125e+003;4.5846152344e+003;4.6020512695e+003;4.5651284180e+003;4.6016665039e+003;4.5830771484e+003;4.5667949219e+003;4.5747436523e+003;4.5205126953e+003;4.5774360352e+003;4.5533334961e+003;4.5706411133e+003;4.5874360352e+003;
2.7265625000e+000;4.5579487305e+003;4.6157690430e+003;4.6388461914e+003;4.6493588867e+003;4.6171796875e+003;4.6416665039e+003;4.6284614258e+003;4.6365385742e+003;4.6321796875e+003;4.5753847656e+003;4.6232050781e+003;4.5994873047e+003;4.6125639648e+003;4.6403847656e+003;
2.7343750000e+000;4.5556411133e+003;4.6121796875e+003;4.6362822266e+003;4.6478203125e+003;4.6111538086e+003;4.6387177734e+003;4.6292309570e+003;4.6435898438e+003;4.6335898438e+003;4.5746152344e+003;4.6166665039e+003;4.5985898438e+003;4.6102563477e+003;4.6366665039e+003;
2.7421875000e+000;4.5616665039e+003;4.6182050781e+003;4.6412822266e+003;4.6532050781e+003;4.6130771484e+003;4.6432050781e+003;4.6378203125e+003;4.6576923828e+003;4.6434614258e+003;4.5830771484e+003;4.6225639648e+003;4.6060258789e+003;4.6198715820e+003;4.6406411133e+003;
2.7500000000e+000;4.6891025391e+003;4.7432050781e+003;4.7670512695e+003;4.7778203125e+003;4.7397436523e+003;4.7419228516e+003;4.7505126953e+003;4.7989741211e+003;4.7752563477e+003;4.7150000000e+003;4.7500000000e+003;4.7324360352e+003;4.7443588867e+003;4.7661538086e+003;
2.7578125000e+000;4.7342309570e+003;4.7943588867e+003;4.8098715820e+003;4.8264101563e+003;4.7842309570e+003;4.7837177734e+003;4.7925639648e+003;4.8416665039e+003;4.8189741211e+003;4.7598715820e+003;4.7964101563e+003;4.7757690430e+003;4.7902563477e+003;4.8103847656e+003;
2.7656250000e+000;4.7605126953e+003;4.8292309570e+003;4.8383334961e+003;4.8474360352e+003;4.8147436523e+003;4.8146152344e+003;4.8215385742e+003;4.8751284180e+003;4.8592309570e+003;4.8037177734e+003;4.8420512695e+003;4.8098715820e+003;4.8302563477e+003;4.8379487305e+003;
2.7734375000e+000;4.6475639648e+003;4.7148715820e+003;4.7270512695e+003;4.7434614258e+003;4.7142309570e+003;4.7225639648e+003;4.7230771484e+003;4.7648715820e+003;4.7546152344e+003;4.6980771484e+003;4.7379487305e+003;4.7048715820e+003;4.7262822266e+003;4.7355126953e+003;
2.7812500000e+000;4.6137177734e+003;4.6843588867e+003;4.6939741211e+003;4.7162822266e+003;4.6774360352e+003;4.6988461914e+003;4.6928203125e+003;4.7256411133e+003;4.7184614258e+003;4.6621796875e+003;4.7061538086e+003;4.6716665039e+003;4.6958974609e+003;4.7079487305e+003;
2.7890625000e+000;4.6058974609e+003;4.6689741211e+003;4.6869228516e+003;4.6906411133e+003;4.6648715820e+003;4.6932050781e+003;4.6835898438e+003;4.6875639648e+003;4.6776923828e+003;4.6343588867e+003;4.6793588867e+003;4.6505126953e+003;4.6775639648e+003;4.6912822266e+003;
2.7968750000e+000;4.6571796875e+003;4.7187177734e+003;4.7298715820e+003;4.7582050781e+003;4.7233334961e+003;4.7317949219e+003;4.7264101563e+003;4.7216665039e+003;4.7175639648e+003;4.6753847656e+003;4.7251284180e+003;4.7048715820e+003;4.7210258789e+003;4.7364101563e+003;
2.8046875000e+000;4.6355126953e+003;4.6975639648e+003;4.7069228516e+003;4.7412822266e+003;4.6934614258e+003;4.7094873047e+003;4.7017949219e+003;4.6942309570e+003;4.6951284180e+003;4.6497436523e+003;4.7096152344e+003;4.6837177734e+003;4.7007690430e+003;4.7188461914e+003;
2.8125000000e+000;4.6134614258e+003;4.6734614258e+003;4.6838461914e+003;4.7146152344e+003;4.6619228516e+003;4.6874360352e+003;4.6773076172e+003;4.6667949219e+003;4.6703847656e+003;4.6232050781e+003;4.6914101563e+003;4.6580771484e+003;4.6780771484e+003;4.6973076172e+003;
2.8203125000e+000;4.6346152344e+003;4.6885898438e+003;4.7047436523e+003;4.7162822266e+003;4.6797436523e+003;4.7082050781e+003;4.6997436523e+003;4.6910258789e+003;4.6866665039e+003;4.6419228516e+003;4.7057690430e+003;4.6697436523e+003;4.6917949219e+003;4.7094873047e+003;
2.8281250000e+000;4.6803847656e+003;4.7357690430e+003;4.7516665039e+003;4.7596152344e+003;4.7325639648e+003;4.7529487305e+003;4.7484614258e+003;4.7464101563e+003;4.7351284180e+003;4.6923076172e+003;4.7453847656e+003;4.7143588867e+003;4.7355126953e+003;4.7515385742e+003;
2.8359375000e+000;4.7541025391e+003;4.8161538086e+003;4.8267949219e+003;4.8401284180e+003;4.8161538086e+003;4.8232050781e+003;4.8235898438e+003;4.8414101563e+003;4.8243588867e+003;4.7792309570e+003;4.8176923828e+003;4.7887177734e+003;4.8125639648e+003;4.8244873047e+003;
2.8437500000e+000;4.7433334961e+003;4.8039741211e+003;4.8160258789e+003;4.8301284180e+003;4.8023076172e+003;4.8116665039e+003;4.8114101563e+003;4.8369228516e+003;4.8198715820e+003;4.7703847656e+003;4.8106411133e+003;4.7773076172e+003;4.8024360352e+003;4.8139741211e+003;
2.8515625000e+000;4.6758974609e+003;4.7265385742e+003;4.7519228516e+003;4.7576923828e+003;4.7289741211e+003;4.7442309570e+003;4.7443588867e+003;4.7726923828e+003;4.7485898438e+003;4.6898715820e+003;4.7348715820e+003;4.7062822266e+003;4.7308974609e+003;4.7421796875e+003;
2.8593750000e+000;4.7174360352e+003;4.7734614258e+003;4.7930771484e+003;4.7996152344e+003;4.7764101563e+003;4.7830771484e+003;4.7850000000e+003;4.8162822266e+003;4.7893588867e+003;4.7334614258e+003;4.7729487305e+003;4.7482050781e+003;4.7762822266e+003;4.7833334961e+003;
2.8671875000e+000;4.7702563477e+003;4.8337177734e+003;4.8443588867e+003;4.8517949219e+003;4.8343588867e+003;4.8320512695e+003;4.8347436523e+003;4.8730771484e+003;4.8442309570e+003;4.7939741211e+003;4.8289741211e+003;4.8032050781e+003;4.8353847656e+003;4.8382050781e+003;
2.8750000000e+000;4.7980771484e+003;4.8661538086e+003;4.8698715820e+003;4.8774360352e+003;4.8624360352e+003;4.8557690430e+003;4.8584614258e+003;4.9046152344e+003;4.8750000000e+003;4.8301284180e+003;4.8652563477e+003;4.8339741211e+003;4.8678203125e+003;4.8688461914e+003;
2.8828125000e+000;4.6341025391e+003;4.6892309570e+003;4.7016665039e+003;4.7102563477e+003;4.6775639648e+003;4.6885898438e+003;4.6897436523e+003;4.7360258789e+003;4.7089741211e+003;4.6550000000e+003;4.6974360352e+003;4.6678203125e+003;4.6906411133e+003;4.7026923828e+003;
2.8906250000e+000;4.5403847656e+003;4.5824360352e+003;4.6066665039e+003;4.6112822266e+003;4.5848715820e+003;4.6150000000e+003;4.6082050781e+003;4.6274360352e+003;4.6043588867e+003;4.5512822266e+003;4.6002563477e+003;4.5761538086e+003;4.5938461914e+003;4.6046152344e+003;
2.8984375000e+000;4.5094873047e+003;4.5438461914e+003;4.5720512695e+003;4.5846152344e+003;4.5498715820e+003;4.5833334961e+003;4.5752563477e+003;4.5875639648e+003;4.5638461914e+003;4.5139741211e+003;4.5669228516e+003;4.5428203125e+003;4.5574360352e+003;4.5697436523e+003;
2.9062500000e+000;4.3533334961e+003;4.3719228516e+003;4.4139741211e+003;4.4343588867e+003;4.3841025391e+003;4.4273076172e+003;4.4123076172e+003;4.4125639648e+003;4.3907690430e+003;4.3362822266e+003;4.3919228516e+003;4.3838461914e+003;4.3858974609e+003;4.4060258789e+003;
2.9140625000e+000;4.1061538086e+003;4.1016665039e+003;4.1461538086e+003;4.1652563477e+003;4.1105126953e+003;4.1841025391e+003;4.1669228516e+003;4.1364101563e+003;4.1146152344e+003;4.0439743652e+003;4.1235898438e+003;4.1176923828e+003;4.1189741211e+003;4.1374360352e+003;
2.9218750000e+000;4.1175639648e+003;4.1056411133e+003;4.1521796875e+003;4.1776923828e+003;4.1143588867e+003;4.1908974609e+003;4.1778203125e+003;4.1474360352e+003;4.1243588867e+003;4.0530769043e+003;4.1328203125e+003;4.1255126953e+003;4.1274360352e+003;4.1461538086e+003;
2.9296875000e+000;4.0723076172e+003;4.0416667480e+003;4.1016665039e+003;4.1308974609e+003;4.0611538086e+003;4.1307690430e+003;4.1203847656e+003;4.1062822266e+003;4.0837180176e+003;4.0046154785e+003;4.0766667480e+003;4.0778205566e+003;4.0715385742e+003;4.0973076172e+003;
2.9375000000e+000;4.0046154785e+003;3.9655129395e+003;4.0303845215e+003;4.0571794434e+003;3.9916667480e+003;4.0553845215e+003;4.0453845215e+003;4.0400000000e+003;4.0175642090e+003;3.9314101563e+003;4.0005129395e+003;4.0075642090e+003;3.9953845215e+003;4.0248718262e+003;
2.9453125000e+000;3.9761538086e+003;3.9311538086e+003;3.9801281738e+003;4.0166667480e+003;3.9534614258e+003;4.0073076172e+003;4.0065385742e+003;4.0014101563e+003;3.9723076172e+003;3.8708974609e+003;3.9473076172e+003;3.9523076172e+003;3.9433332520e+003;3.9707692871e+003;
2.9531250000e+000;4.1032050781e+003;4.0625642090e+003;4.0989741211e+003;4.1415385742e+003;4.0792307129e+003;4.1260258789e+003;4.1284614258e+003;4.1237177734e+003;4.0943588867e+003;3.9961538086e+003;4.0730769043e+003;4.0673076172e+003;4.0705129395e+003;4.0920512695e+003;
2.9609375000e+000;4.3782050781e+003;4.3419228516e+003;4.3669228516e+003;4.4073076172e+003;4.3537177734e+003;4.3821796875e+003;4.3875639648e+003;4.4003847656e+003;4.3737177734e+003;4.2919228516e+003;4.3533334961e+003;4.3330771484e+003;4.3544873047e+003;4.3656411133e+003;
2.9687500000e+000;4.4141025391e+003;4.3753847656e+003;4.4061538086e+003;4.4394873047e+003;4.3875639648e+003;4.4126923828e+003;4.4176923828e+003;4.4426923828e+003;4.4161538086e+003;4.3408974609e+003;4.3917949219e+003;4.3747436523e+003;4.3930771484e+003;4.4041025391e+003;
2.9765625000e+000;4.0941025391e+003;4.0521794434e+003;4.0958974609e+003;4.1316665039e+003;4.0656411133e+003;4.1050000000e+003;4.1003847656e+003;4.1411538086e+003;4.1101284180e+003;4.0278205566e+003;4.0816667480e+003;4.0750000000e+003;4.0689743652e+003;4.0958974609e+003;
2.9843750000e+000;3.9880769043e+003;3.9475642090e+003;3.9860256348e+003;4.0311538086e+003;3.9592307129e+003;4.0042307129e+003;3.9965385742e+003;4.0308974609e+003;4.0016667480e+003;3.9137180176e+003;3.9773076172e+003;3.9676923828e+003;3.9619230957e+003;3.9926923828e+003;
2.9921875000e+000;3.9447436523e+003;3.9012819824e+003;3.9358974609e+003;3.9866667480e+003;3.9110256348e+003;3.9603845215e+003;3.9520512695e+003;3.9752563477e+003;3.9500000000e+003;3.8592307129e+003;3.9300000000e+003;3.9179487305e+003;3.9173076172e+003;3.9483332520e+003;
3.0000000000e+000;3.9914101563e+003;3.9296154785e+003;3.9676923828e+003;4.0206411133e+003;3.9385898438e+003;4.0003845215e+003;3.9875642090e+003;3.9773076172e+003;3.9634614258e+003;3.8841025391e+003;3.9530769043e+003;3.9443588867e+003;3.9469230957e+003;3.9776923828e+003;
3.0078125000e+000;3.9067949219e+003;3.8442307129e+003;3.8800000000e+003;3.9439743652e+003;3.8537180176e+003;3.9216667480e+003;3.9070512695e+003;3.8865385742e+003;3.8707692871e+003;3.7902563477e+003;3.8633332520e+003;3.8592307129e+003;3.8537180176e+003;3.8935898438e+003;
3.0156250000e+000;3.8160256348e+003;3.7256411133e+003;3.7756411133e+003;3.8529487305e+003;3.7475642090e+003;3.8205129395e+003;3.8111538086e+003;3.7683332520e+003;3.7444870605e+003;3.6748718262e+003;3.7441025391e+003;3.7521794434e+003;3.7476923828e+003;3.7883332520e+003;
3.0234375000e+000;3.8641025391e+003;3.7606411133e+003;3.8114101563e+003;3.8706411133e+003;3.7903845215e+003;3.8574357910e+003;3.8524357910e+003;3.8000000000e+003;3.7785898438e+003;3.7057692871e+003;3.7984614258e+003;3.7893588867e+003;3.7852563477e+003;3.8244870605e+003;
3.0312500000e+000;3.9311538086e+003;3.8283332520e+003;3.8720512695e+003;3.9260256348e+003;3.8547436523e+003;3.9197436523e+003;3.9166667480e+003;3.8625642090e+003;3.8432050781e+003;3.7719230957e+003;3.8642307129e+003;3.8511538086e+003;3.8493588867e+003;3.8874357910e+003;
3.0390625000e+000;4.0119230957e+003;3.9015385742e+003;3.9532050781e+003;4.0000000000e+003;3.9217949219e+003;3.9875642090e+003;3.9850000000e+003;3.9714101563e+003;3.9407692871e+003;3.8771794434e+003;3.9333332520e+003;3.9314101563e+003;3.9341025391e+003;3.9650000000e+003;
3.0468750000e+000;3.9248718262e+003;3.8092307129e+003;3.8678205566e+003;3.9166667480e+003;3.8294870605e+003;3.8987180176e+003;3.8948718262e+003;3.8985898438e+003;3.8642307129e+003;3.7930769043e+003;3.8464101563e+003;3.8452563477e+003;3.8453845215e+003;3.8784614258e+003;
3.0546875000e+000;3.6671794434e+003;3.5423076172e+003;3.6028205566e+003;3.6617949219e+003;3.5589743652e+003;3.6383332520e+003;3.6332050781e+003;3.6520512695e+003;3.6217949219e+003;3.5241025391e+003;3.5866667480e+003;3.5829487305e+003;3.5753845215e+003;3.6167949219e+003;
3.0625000000e+000;3.5520512695e+003;3.4200000000e+003;3.4808974609e+003;3.5456411133e+003;3.4358974609e+003;3.5193588867e+003;3.5152563477e+003;3.5315385742e+003;3.5066667480e+003;3.3964101563e+003;3.4632050781e+003;3.4619230957e+003;3.4516667480e+003;3.4971794434e+003;
3.0703125000e+000;3.5383332520e+003;3.3801281738e+003;3.4442307129e+003;3.5279487305e+003;3.3955129395e+003;3.4766667480e+003;3.4807692871e+003;3.4844870605e+003;3.4661538086e+003;3.3458974609e+003;3.4123076172e+003;3.4124357910e+003;3.4211538086e+003;3.4612819824e+003;
3.0781250000e+000;3.6519230957e+003;3.4929487305e+003;3.5497436523e+003;3.6342307129e+003;3.5044870605e+003;3.5810256348e+003;3.5869230957e+003;3.5925642090e+003;3.5730769043e+003;3.4598718262e+003;3.5243588867e+003;3.5164101563e+003;3.5347436523e+003;3.5673076172e+003;
3.0859375000e+000;3.9292307129e+003;3.7838461914e+003;3.8192307129e+003;3.8866667480e+003;3.7921794434e+003;3.8428205566e+003;3.8506411133e+003;3.8648718262e+003;3.8480769043e+003;3.7555129395e+003;3.8126923828e+003;3.7916667480e+003;3.8125642090e+003;3.8389743652e+003;
3.0937500000e+000;4.0453845215e+003;3.9087180176e+003;3.9356411133e+003;3.9930769043e+003;3.9185898438e+003;3.9500000000e+003;3.9585898438e+003;3.9775642090e+003;3.9650000000e+003;3.8815385742e+003;3.9332050781e+003;3.9106411133e+003;3.9279487305e+003;3.9565385742e+003;
3.1015625000e+000;4.0864101563e+003;3.9538461914e+003;3.9861538086e+003;4.0400000000e+003;3.9558974609e+003;3.9887180176e+003;3.9920512695e+003;4.0105129395e+003;4.0043588867e+003;3.9337180176e+003;3.9774357910e+003;3.9630769043e+003;3.9764101563e+003;4.0064101563e+003;
3.1093750000e+000;4.0137180176e+003;3.8780769043e+003;3.9185898438e+003;3.9712819824e+003;3.8778205566e+003;3.9284614258e+003;3.9280769043e+003;3.9367949219e+003;3.9282050781e+003;3.8596154785e+003;3.9061538086e+003;3.8950000000e+003;3.9085898438e+003;3.9365385742e+003;
3.1171875000e+000;3.9456411133e+003;3.8089743652e+003;3.8542307129e+003;3.9025642090e+003;3.8110256348e+003;3.8730769043e+003;3.8700000000e+003;3.8669230957e+003;3.8552563477e+003;3.7885898438e+003;3.8375642090e+003;3.8294870605e+003;3.8432050781e+003;3.8697436523e+003;
3.1250000000e+000;3.9007692871e+003;3.7657692871e+003;3.8106411133e+003;3.8547436523e+003;3.7735898438e+003;3.8371794434e+003;3.8332050781e+003;3.8189743652e+003;3.8046154785e+003;3.7397436523e+003;3.7892307129e+003;3.7846154785e+003;3.7971794434e+003;3.8250000000e+003;
3.1328125000e+000;3.9715385742e+003;3.8334614258e+003;3.8702563477e+003;3.9267949219e+003;3.8455129395e+003;3.9058974609e+003;3.9033332520e+003;3.8485898438e+003;3.8355129395e+003;3.7801281738e+003;3.8453845215e+003;3.8388461914e+003;3.8432050781e+003;3.8837180176e+003;
3.1406250000e+000;4.2928203125e+003;4.1698715820e+003;4.1898715820e+003;4.2247436523e+003;4.1824360352e+003;4.2138461914e+003;4.2125639648e+003;4.1767949219e+003;4.1534614258e+003;4.1273076172e+003;4.1801284180e+003;4.1658974609e+003;4.1775639648e+003;4.2088461914e+003;
3.1484375000e+000;4.3300000000e+003;4.2133334961e+003;4.2291025391e+003;4.2647436523e+003;4.2189741211e+003;4.2524360352e+003;4.2543588867e+003;4.2255126953e+003;4.1991025391e+003;4.1732050781e+003;4.2217949219e+003;4.2092309570e+003;4.2174360352e+003;4.2497436523e+003;
3.1562500000e+000;4.3571796875e+003;4.2485898438e+003;4.2644873047e+003;4.2984614258e+003;4.2460258789e+003;4.2808974609e+003;4.2883334961e+003;4.2774360352e+003;4.2538461914e+003;4.2183334961e+003;4.2635898438e+003;4.2467949219e+003;4.2538461914e+003;4.2789741211e+003;
3.1640625000e+000;4.3208974609e+003;4.2132050781e+003;4.2338461914e+003;4.2646152344e+003;4.2155126953e+003;4.2448715820e+003;4.2520512695e+003;4.2542309570e+003;4.2337177734e+003;4.1907690430e+003;4.2335898438e+003;4.2156411133e+003;4.2230771484e+003;4.2441025391e+003;
3.1718750000e+000;4.0755129395e+003;3.9552563477e+003;3.9964101563e+003;4.0244870605e+003;3.9755129395e+003;4.0087180176e+003;4.0073076172e+003;4.0280769043e+003;4.0076923828e+003;3.9470512695e+003;3.9780769043e+003;3.9775642090e+003;3.9760256348e+003;4.0069230957e+003;
3.1796875000e+000;3.9929487305e+003;3.8662819824e+003;3.9139743652e+003;3.9382050781e+003;3.8788461914e+003;3.9194870605e+003;3.9251281738e+003;3.9425642090e+003;3.9202563477e+003;3.8571794434e+003;3.8942307129e+003;3.8944870605e+003;3.8876923828e+003;3.9237180176e+003;
3.1875000000e+000;3.9670512695e+003;3.8398718262e+003;3.8855129395e+003;3.9123076172e+003;3.8484614258e+003;3.8862819824e+003;3.8934614258e+003;3.9151281738e+003;3.8923076172e+003;3.8282050781e+003;3.8706411133e+003;3.8662819824e+003;3.8607692871e+003;3.8965385742e+003;
3.1953125000e+000;3.8498718262e+003;3.7116667480e+003;3.7610256348e+003;3.7974357910e+003;3.7158974609e+003;3.7605129395e+003;3.7605129395e+003;3.7870512695e+003;3.7708974609e+003;3.7010256348e+003;3.7470512695e+003;3.7430769043e+003;3.7343588867e+003;3.7756411133e+003;
3.2031250000e+000;3.7992307129e+003;3.6573076172e+003;3.7119230957e+003;3.7485898438e+003;3.6625642090e+003;3.7110256348e+003;3.7107692871e+003;3.7332050781e+003;3.7196154785e+003;3.6488461914e+003;3.6914101563e+003;3.6956411133e+003;3.6819230957e+003;3.7257692871e+003;
3.2109375000e+000;3.6525642090e+003;3.5042307129e+003;3.5650000000e+003;3.6052563477e+003;3.5117949219e+003;3.5660256348e+003;3.5691025391e+003;3.5785898438e+003;3.5628205566e+003;3.4910256348e+003;3.5356411133e+003;3.5511538086e+003;3.5302563477e+003;3.5782050781e+003;
3.2187500000e+000;3.5735898438e+003;3.4197436523e+003;3.4808974609e+003;3.5252563477e+003;3.4282050781e+003;3.4892307129e+003;3.4917949219e+003;3.4912819824e+003;3.4726923828e+003;3.3992307129e+003;3.4515385742e+003;3.4660256348e+003;3.4448718262e+003;3.4943588867e+003;
3.2265625000e+000;3.5264101563e+003;3.3442307129e+003;3.4128205566e+003;3.4562819824e+003;3.3633332520e+003;3.4425642090e+003;3.4397436523e+003;3.3998718262e+003;3.3807692871e+003;3.3073076172e+003;3.3706411133e+003;3.3861538086e+003;3.3687180176e+003;3.4197436523e+003;
3.2343750000e+000;3.5912819824e+003;3.4046154785e+003;3.4726923828e+003;3.5150000000e+003;3.4278205566e+003;3.5024357910e+003;3.5007692871e+003;3.4532050781e+003;3.4348718262e+003;3.3673076172e+003;3.4262819824e+003;3.4455129395e+003;3.4302563477e+003;3.4778205566e+003;
3.2421875000e+000;3.6691025391e+003;3.4835898438e+003;3.5460256348e+003;3.5915385742e+003;3.5070512695e+003;3.5757692871e+003;3.5760256348e+003;3.5262819824e+003;3.5071794434e+003;3.4471794434e+003;3.5032050781e+003;3.5233332520e+003;3.5093588867e+003;3.5525642090e+003;
3.2500000000e+000;3.7325642090e+003;3.5516667480e+003;3.6058974609e+003;3.6582050781e+003;3.5710256348e+003;3.6373076172e+003;3.6397436523e+003;3.5907692871e+003;3.5698718262e+003;3.5160256348e+003;3.5734614258e+003;3.5901281738e+003;3.5758974609e+003;3.6162819824e+003;
3.2578125000e+000;3.8953845215e+003;3.7201281738e+003;3.7696154785e+003;3.8121794434e+003;3.7379487305e+003;3.7921794434e+003;3.8001281738e+003;3.7626923828e+003;3.7421794434e+003;3.6835898438e+003;3.7450000000e+003;3.7439743652e+003;3.7306411133e+003;3.7725642090e+003;
3.2656250000e+000;3.9550000000e+003;3.7815385742e+003;3.8289743652e+003;3.8675642090e+003;3.8046154785e+003;3.8488461914e+003;3.8553845215e+003;3.8293588867e+003;3.8105129395e+003;3.7497436523e+003;3.8007692871e+003;3.8029487305e+003;3.7893588867e+003;3.8294870605e+003;
3.2734375000e+000;4.0116667480e+003;3.8461538086e+003;3.8833332520e+003;3.9344870605e+003;3.8689743652e+003;3.9066667480e+003;3.9148718262e+003;3.9147436523e+003;3.8965385742e+003;3.8303845215e+003;3.8650000000e+003;3.8688461914e+003;3.8539743652e+003;3.8874357910e+003;
3.2812500000e+000;3.9460256348e+003;3.7842307129e+003;3.8279487305e+003;3.8711538086e+003;3.7948718262e+003;3.8430769043e+003;3.8496154785e+003;3.8562819824e+003;3.8465385742e+003;3.7752563477e+003;3.8132050781e+003;3.8114101563e+003;3.7938461914e+003;3.8328205566e+003;
3.2890625000e+000;3.9017949219e+003;3.7414101563e+003;3.7858974609e+003;3.8278205566e+003;3.7511538086e+003;3.8006411133e+003;3.8037180176e+003;3.8105129395e+003;3.8033332520e+003;3.7324357910e+003;3.7703845215e+003;3.7735898438e+003;3.7520512695e+003;3.7937180176e+003;
3.2968750000e+000;3.9224357910e+003;3.7648718262e+003;3.7982050781e+003;3.8485898438e+003;3.7775642090e+003;3.8082050781e+003;3.8180769043e+003;3.8233332520e+003;3.8215385742e+003;3.7523076172e+003;3.7847436523e+003;3.7853845215e+003;3.7764101563e+003;3.8085898438e+003;
3.3046875000e+000;4.0005129395e+003;3.8417949219e+003;3.8748718262e+003;3.9212819824e+003;3.8560256348e+003;3.8784614258e+003;3.8939743652e+003;3.9010256348e+003;3.8996154785e+003;3.8326923828e+003;3.8621794434e+003;3.8576923828e+003;3.8546154785e+003;3.8808974609e+003;
3.3125000000e+000;4.1314101563e+003;3.9694870605e+003;4.0074357910e+003;4.0358974609e+003;3.9864101563e+003;4.0048718262e+003;4.0206411133e+003;4.0366667480e+003;4.0367949219e+003;3.9769230957e+003;4.0010256348e+003;3.9917949219e+003;3.9893588867e+003;4.0088461914e+003;
3.3203125000e+000;4.1346152344e+003;3.9732050781e+003;4.0125642090e+003;4.0347436523e+003;3.9898718262e+003;4.0132050781e+003;4.0248718262e+003;4.0441025391e+003;4.0444870605e+003;3.9889743652e+003;4.0115385742e+003;4.0015385742e+003;3.9969230957e+003;4.0167949219e+003;
3.3281250000e+000;4.1044873047e+003;3.9466667480e+003;3.9851281738e+003;4.0056411133e+003;3.9611538086e+003;3.9901281738e+003;3.9987180176e+003;4.0162819824e+003;4.0157692871e+003;3.9642307129e+003;3.9870512695e+003;3.9771794434e+003;3.9712819824e+003;3.9939743652e+003;
3.3359375000e+000;4.2656411133e+003;4.1387177734e+003;4.1561538086e+003;4.1819228516e+003;4.1489741211e+003;4.1579487305e+003;4.1723076172e+003;4.1530771484e+003;4.1491025391e+003;4.1267949219e+003;4.1476923828e+003;4.1385898438e+003;4.1424360352e+003;4.1624360352e+003;
3.3437500000e+000;4.2556411133e+003;4.1267949219e+003;4.1485898438e+003;4.1739741211e+003;4.1425639648e+003;4.1553847656e+003;4.1688461914e+003;4.1420512695e+003;4.1376923828e+003;4.1174360352e+003;4.1439741211e+003;4.1296152344e+003;4.1316665039e+003;4.1528203125e+003;
3.3515625000e+000;4.3853847656e+003;4.2762822266e+003;4.2829487305e+003;4.3000000000e+003;4.2874360352e+003;4.3008974609e+003;4.3121796875e+003;4.2737177734e+003;4.2596152344e+003;4.2466665039e+003;4.2874360352e+003;4.2630771484e+003;4.2715385742e+003;4.2887177734e+003;
3.3593750000e+000;4.4933334961e+003;4.3974360352e+003;4.3957690430e+003;4.4058974609e+003;4.4023076172e+003;4.4097436523e+003;4.4210258789e+003;4.3925639648e+003;4.3761538086e+003;4.3705126953e+003;4.4021796875e+003;4.3802563477e+003;4.3920512695e+003;4.4030771484e+003;
3.3671875000e+000;4.5624360352e+003;4.4771796875e+003;4.4793588867e+003;4.4805126953e+003;4.4806411133e+003;4.4844873047e+003;4.4948715820e+003;4.4912822266e+003;4.4765385742e+003;4.4771796875e+003;4.4875639648e+003;4.4714101563e+003;4.4811538086e+003;4.4888461914e+003;
3.3750000000e+000;4.2651284180e+003;4.1898715820e+003;4.1929487305e+003;4.2073076172e+003;4.2032050781e+003;4.2135898438e+003;4.2167949219e+003;4.2321796875e+003;4.2232050781e+003;4.2001284180e+003;4.2075639648e+003;4.1837177734e+003;4.1993588867e+003;4.2092309570e+003;
3.3828125000e+000;4.1893588867e+003;4.1134614258e+003;4.1207690430e+003;4.1328203125e+003;4.1257690430e+003;4.1425639648e+003;4.1442309570e+003;4.1594873047e+003;4.1496152344e+003;4.1200000000e+003;4.1247436523e+003;4.1096152344e+003;4.1226923828e+003;4.1330771484e+003;
3.3906250000e+000;4.2824360352e+003;4.2003847656e+003;4.2135898438e+003;4.2238461914e+003;4.2039741211e+003;4.2239741211e+003;4.2305126953e+003;4.2325639648e+003;4.2194873047e+003;4.1941025391e+003;4.2110258789e+003;4.1901284180e+003;4.2021796875e+003;4.2121796875e+003;
3.3984375000e+000;4.4294873047e+003;4.3529487305e+003;4.3588461914e+003;4.3656411133e+003;4.3558974609e+003;4.3591025391e+003;4.3705126953e+003;4.3735898438e+003;4.3591025391e+003;4.3452563477e+003;4.3675639648e+003;4.3350000000e+003;4.3507690430e+003;4.3589741211e+003;
3.4062500000e+000;4.7125639648e+003;4.6520512695e+003;4.6450000000e+003;4.6348715820e+003;4.6565385742e+003;4.6212822266e+003;4.6417949219e+003;4.6584614258e+003;4.6401284180e+003;4.6471796875e+003;4.6651284180e+003;4.6255126953e+003;4.6464101563e+003;4.6515385742e+003;
3.4140625000e+000;4.8029487305e+003;4.7511538086e+003;4.7396152344e+003;4.7233334961e+003;4.7543588867e+003;4.7084614258e+003;4.7310258789e+003;4.7566665039e+003;4.7344873047e+003;4.7484614258e+003;4.7587177734e+003;4.7232050781e+003;4.7443588867e+003;4.7471796875e+003;
3.4218750000e+000;4.9182050781e+003;4.8978203125e+003;4.8783334961e+003;4.8537177734e+003;4.8896152344e+003;4.8457690430e+003;4.8641025391e+003;4.8975639648e+003;4.8626923828e+003;4.8971796875e+003;4.8919228516e+003;4.8643588867e+003;4.8808974609e+003;4.8779487305e+003;
3.4296875000e+000;4.9473076172e+003;4.9365385742e+003;4.9182050781e+003;4.8855126953e+003;4.9265385742e+003;4.8838461914e+003;4.9016665039e+003;4.9283334961e+003;4.8932050781e+003;4.9344873047e+003;4.9291025391e+003;4.9012822266e+003;4.9165385742e+003;4.9151284180e+003;
