Time (s);AF3;F7;F3;FC5;T7;P7;O1;O2;P8;T8;FC6;F4;F8;AF4;Sampling Rate
0.0000000000e+000;3.6738461914e+003;3.4515385742e+003;3.5116667480e+003;3.5998718262e+003;3.4844870605e+003;3.4674357910e+003;3.5112819824e+003;3.4878205566e+003;3.4715385742e+003;3.4079487305e+003;3.4808974609e+003;3.4769230957e+003;3.4746154785e+003;3.3796154785e+003;128
7.8125000000e-003;4.0633332520e+003;3.8544870605e+003;3.9074357910e+003;3.9544870605e+003;3.8712819824e+003;3.8343588867e+003;3.8776923828e+003;3.9121794434e+003;3.8925642090e+003;3.8465385742e+003;3.8939743652e+003;3.8780769043e+003;3.8834614258e+003;3.7691025391e+003;
1.5625000000e-002;4.1051284180e+003;3.8991025391e+003;3.9548718262e+003;3.9979487305e+003;3.9152563477e+003;3.8832050781e+003;3.9251281738e+003;3.9548718262e+003;3.9355129395e+003;3.8888461914e+003;3.9396154785e+003;3.9214101563e+003;3.9238461914e+003;3.8121794434e+003;
2.3437500000e-002;4.3238461914e+003;4.1557690430e+003;4.1876923828e+003;4.2452563477e+003;4.1897436523e+003;4.1297436523e+003;4.1635898438e+003;4.1925639648e+003;4.1739741211e+003;4.1383334961e+003;4.1765385742e+003;4.1520512695e+003;4.1658974609e+003;4.0423076172e+003;
3.1250000000e-002;4.3165385742e+003;4.1696152344e+003;4.1869228516e+003;4.2421796875e+003;4.2087177734e+003;4.1566665039e+003;4.1867949219e+003;4.1906411133e+003;4.1737177734e+003;4.1526923828e+003;4.1762822266e+003;4.1524360352e+003;4.1705126953e+003;4.0428205566e+003;
3.9062500000e-002;4.3841025391e+003;4.2412822266e+003;4.2575639648e+003;4.3103847656e+003;4.2820512695e+003;4.2324360352e+003;4.2612822266e+003;4.2570512695e+003;4.2410258789e+003;4.2223076172e+003;4.2455126953e+003;4.2185898438e+003;4.2378203125e+003;4.1100000000e+003;
4.6875000000e-002;4.6478203125e+003;4.5329487305e+003;4.5419228516e+003;4.5907690430e+003;4.5653847656e+003;4.5125639648e+003;4.5316665039e+003;4.5387177734e+003;4.5241025391e+003;4.5179487305e+003;4.5339741211e+003;4.4994873047e+003;4.5248715820e+003;4.3871796875e+003;
5.4687500000e-002;4.6607690430e+003;4.5535898438e+003;4.5603847656e+003;4.6030771484e+003;4.5824360352e+003;4.5307690430e+003;4.5469228516e+003;4.5555126953e+003;4.5433334961e+003;4.5398715820e+003;4.5538461914e+003;4.5191025391e+003;4.5456411133e+003;4.4066665039e+003;
6.2500000000e-002;4.6433334961e+003;4.5423076172e+003;4.5470512695e+003;4.5812822266e+003;4.5714101563e+003;4.5188461914e+003;4.5341025391e+003;4.5396152344e+003;4.5298715820e+003;4.5269228516e+003;4.5400000000e+003;4.5070512695e+003;4.5326923828e+003;4.3950000000e+003;
7.0312500000e-002;4.6191025391e+003;4.5415385742e+003;4.5552563477e+003;4.5783334961e+003;4.5764101563e+003;4.5083334961e+003;4.5348715820e+003;4.5269228516e+003;4.5058974609e+003;4.5146152344e+003;4.5417949219e+003;4.5101284180e+003;4.5265385742e+003;4.3853847656e+003;
7.8125000000e-002;4.5979487305e+003;4.5219228516e+003;4.5370512695e+003;4.5665385742e+003;4.5489741211e+003;4.4883334961e+003;4.5141025391e+003;4.5087177734e+003;4.4858974609e+003;4.4979487305e+003;4.5229487305e+003;4.4948715820e+003;4.5108974609e+003;4.3684614258e+003;
8.5937500000e-002;4.4158974609e+003;4.3392309570e+003;4.3562822266e+003;4.3748715820e+003;4.3535898438e+003;4.3089741211e+003;4.3317949219e+003;4.3429487305e+003;4.3226923828e+003;4.3188461914e+003;4.3406411133e+003;4.3329487305e+003;4.3329487305e+003;4.2023076172e+003;
9.3750000000e-002;4.2843588867e+003;4.2008974609e+003;4.2315385742e+003;4.2450000000e+003;4.2287177734e+003;4.1611538086e+003;4.1989741211e+003;4.2274360352e+003;4.2110258789e+003;4.1903847656e+003;4.2296152344e+003;4.2066665039e+003;4.2096152344e+003;4.0820512695e+003;
1.0156250000e-001;4.3170512695e+003;4.2297436523e+003;4.2652563477e+003;4.2856411133e+003;4.2565385742e+003;4.1841025391e+003;4.2267949219e+003;4.2598715820e+003;4.2412822266e+003;4.2225639648e+003;4.2611538086e+003;4.2383334961e+003;4.2414101563e+003;4.1125639648e+003;
1.0937500000e-001;4.3537177734e+003;4.2750000000e+003;4.2982050781e+003;4.3288461914e+003;4.2847436523e+003;4.2321796875e+003;4.2637177734e+003;4.3173076172e+003;4.2935898438e+003;4.2746152344e+003;4.2984614258e+003;4.2846152344e+003;4.2808974609e+003;4.1484614258e+003;
1.1718750000e-001;4.2535898438e+003;4.1778203125e+003;4.1985898438e+003;4.2282050781e+003;4.1924360352e+003;4.1466665039e+003;4.1725639648e+003;4.2260258789e+003;4.2048715820e+003;4.1766665039e+003;4.1985898438e+003;4.1889741211e+003;4.1812822266e+003;4.0519230957e+003;
1.2500000000e-001;4.0448718262e+003;3.9641025391e+003;3.9908974609e+003;4.0198718262e+003;3.9943588867e+003;3.9558974609e+003;3.9785898438e+003;4.0156411133e+003;4.0014101563e+003;3.9557692871e+003;3.9805129395e+003;3.9739743652e+003;3.9651281738e+003;3.8433332520e+003;
1.3281250000e-001;3.9976923828e+003;3.9126923828e+003;3.9423076172e+003;3.9717949219e+003;3.9444870605e+003;3.9106411133e+003;3.9332050781e+003;3.9616667480e+003;3.9489743652e+003;3.9029487305e+003;3.9279487305e+003;3.9194870605e+003;3.9135898438e+003;3.7925642090e+003;
1.4062500000e-001;3.8183332520e+003;3.7215385742e+003;3.7538461914e+003;3.8008974609e+003;3.7576923828e+003;3.7382050781e+003;3.7555129395e+003;3.7652563477e+003;3.7530769043e+003;3.7088461914e+003;3.7344870605e+003;3.7289743652e+003;3.7289743652e+003;3.6048718262e+003;
1.4843750000e-001;3.7541025391e+003;3.6539743652e+003;3.6829487305e+003;3.7415385742e+003;3.6926923828e+003;3.6776923828e+003;3.6938461914e+003;3.6912819824e+003;3.6810256348e+003;3.6311538086e+003;3.6601281738e+003;3.6575642090e+003;3.6603845215e+003;3.5353845215e+003;
1.5625000000e-001;3.7579487305e+003;3.6562819824e+003;3.6793588867e+003;3.7452563477e+003;3.6924357910e+003;3.6837180176e+003;3.6993588867e+003;3.6830769043e+003;3.6753845215e+003;3.6219230957e+003;3.6539743652e+003;3.6512819824e+003;3.6587180176e+003;3.5321794434e+003;
1.6406250000e-001;3.8355129395e+003;3.7332050781e+003;3.7515385742e+003;3.8155129395e+003;3.7621794434e+003;3.7603845215e+003;3.7756411133e+003;3.7492307129e+003;3.7432050781e+003;3.6916667480e+003;3.7261538086e+003;3.7196154785e+003;3.7311538086e+003;3.6030769043e+003;
1.7187500000e-001;4.0435898438e+003;3.9280769043e+003;3.9625642090e+003;3.9980769043e+003;3.9662819824e+003;3.9474357910e+003;3.9629487305e+003;3.9387180176e+003;3.9287180176e+003;3.9033332520e+003;3.9388461914e+003;3.9302563477e+003;3.9305129395e+003;3.8076923828e+003;
1.7968750000e-001;4.0258974609e+003;3.9066667480e+003;3.9410256348e+003;3.9861538086e+003;3.9524357910e+003;3.9243588867e+003;3.9424357910e+003;3.9167949219e+003;3.9051281738e+003;3.8808974609e+003;3.9146154785e+003;3.9129487305e+003;3.9091025391e+003;3.7891025391e+003;
1.8750000000e-001;4.0832050781e+003;3.9693588867e+003;3.9860256348e+003;4.0433332520e+003;4.0026923828e+003;3.9660256348e+003;3.9916667480e+003;3.9685898438e+003;3.9521794434e+003;3.9329487305e+003;3.9738461914e+003;3.9638461914e+003;3.9665385742e+003;3.8452563477e+003;
1.9531250000e-001;4.0865385742e+003;3.9707692871e+003;3.9966667480e+003;4.0314101563e+003;3.9882050781e+003;3.9597436523e+003;3.9862819824e+003;3.9948718262e+003;3.9814101563e+003;3.9603845215e+003;3.9983332520e+003;3.9816667480e+003;3.9843588867e+003;3.8579487305e+003;
2.0312500000e-001;4.0810256348e+003;3.9616667480e+003;3.9905129395e+003;4.0234614258e+003;3.9737180176e+003;3.9506411133e+003;3.9765385742e+003;3.9946154785e+003;3.9819230957e+003;3.9571794434e+003;3.9843588867e+003;3.9783332520e+003;3.9811538086e+003;3.8533332520e+003;
2.1093750000e-001;4.1632050781e+003;4.0357692871e+003;4.0684614258e+003;4.0926923828e+003;4.0525642090e+003;4.0062819824e+003;4.0330769043e+003;4.0783332520e+003;4.0684614258e+003;4.0398718262e+003;4.0560256348e+003;4.0520512695e+003;4.0603845215e+003;3.9283332520e+003;
2.1875000000e-001;4.1221796875e+003;4.0019230957e+003;4.0311538086e+003;4.0567949219e+003;4.0267949219e+003;3.9734614258e+003;3.9930769043e+003;4.0406411133e+003;4.0343588867e+003;4.0017949219e+003;4.0373076172e+003;4.0129487305e+003;4.0182050781e+003;3.8908974609e+003;
2.2656250000e-001;4.1047436523e+003;3.9898718262e+003;4.0098718262e+003;4.0442307129e+003;4.0105129395e+003;3.9658974609e+003;3.9807692871e+003;4.0233332520e+003;4.0169230957e+003;3.9852563477e+003;4.0141025391e+003;3.9932050781e+003;4.0057692871e+003;3.8751281738e+003;
2.3437500000e-001;4.0891025391e+003;3.9780769043e+003;3.9900000000e+003;4.0329487305e+003;3.9948718262e+003;3.9596154785e+003;3.9701281738e+003;4.0074357910e+003;3.9992307129e+003;3.9697436523e+003;3.9887180176e+003;3.9741025391e+003;3.9950000000e+003;3.8596154785e+003;
2.4218750000e-001;4.0738461914e+003;3.9634614258e+003;3.9723076172e+003;4.0196154785e+003;3.9782050781e+003;3.9524357910e+003;3.9600000000e+003;3.9901281738e+003;3.9796154785e+003;3.9520512695e+003;3.9643588867e+003;3.9547436523e+003;3.9805129395e+003;3.8421794434e+003;
2.5000000000e-001;4.2011538086e+003;4.0947436523e+003;4.0991025391e+003;4.1324360352e+003;4.1147436523e+003;4.0956411133e+003;4.1071796875e+003;4.0979487305e+003;4.0966665039e+003;4.0703845215e+003;4.0825642090e+003;4.0637180176e+003;4.0871794434e+003;3.9521794434e+003;
2.5781250000e-001;4.2508974609e+003;4.1529487305e+003;4.1488461914e+003;4.1828203125e+003;4.1738461914e+003;4.1457690430e+003;4.1591025391e+003;4.1466665039e+003;4.1483334961e+003;4.1248715820e+003;4.1373076172e+003;4.1148715820e+003;4.1373076172e+003;4.0037180176e+003;
2.6562500000e-001;4.3347436523e+003;4.2430771484e+003;4.2396152344e+003;4.2752563477e+003;4.2662822266e+003;4.2289741211e+003;4.2410258789e+003;4.2261538086e+003;4.2194873047e+003;4.2155126953e+003;4.2348715820e+003;4.2110258789e+003;4.2300000000e+003;4.0983334961e+003;
2.7343750000e-001;4.3643588867e+003;4.2733334961e+003;4.2730771484e+003;4.3035898438e+003;4.2960258789e+003;4.2600000000e+003;4.2728203125e+003;4.2574360352e+003;4.2470512695e+003;4.2476923828e+003;4.2625639648e+003;4.2448715820e+003;4.2653847656e+003;4.1311538086e+003;
2.8125000000e-001;4.4221796875e+003;4.3412822266e+003;4.3402563477e+003;4.3514101563e+003;4.3605126953e+003;4.3171796875e+003;4.3371796875e+003;4.3244873047e+003;4.3101284180e+003;4.3130771484e+003;4.3178203125e+003;4.3132050781e+003;4.3302563477e+003;4.1974360352e+003;
2.8906250000e-001;4.4493588867e+003;4.3729487305e+003;4.3710258789e+003;4.3743588867e+003;4.3880771484e+003;4.3412822266e+003;4.3648715820e+003;4.3561538086e+003;4.3402563477e+003;4.3432050781e+003;4.3502563477e+003;4.3446152344e+003;4.3564101563e+003;4.2283334961e+003;
2.9687500000e-001;4.4905126953e+003;4.4112822266e+003;4.4212822266e+003;4.4324360352e+003;4.4158974609e+003;4.3775639648e+003;4.4016665039e+003;4.4171796875e+003;4.3914101563e+003;4.3948715820e+003;4.4158974609e+003;4.3956411133e+003;4.4039741211e+003;4.2753847656e+003;
3.0468750000e-001;4.4900000000e+003;4.4103847656e+003;4.4243588867e+003;4.4397436523e+003;4.4187177734e+003;4.3743588867e+003;4.3996152344e+003;4.4230771484e+003;4.3966665039e+003;4.3979487305e+003;4.4155126953e+003;4.4000000000e+003;4.4098715820e+003;4.2773076172e+003;
3.1250000000e-001;4.5265385742e+003;4.4646152344e+003;4.4625639648e+003;4.4710258789e+003;4.4761538086e+003;4.3993588867e+003;4.4297436523e+003;4.4757690430e+003;4.4661538086e+003;4.4583334961e+003;4.4607690430e+003;4.4562822266e+003;4.4608974609e+003;4.3276923828e+003;
3.2031250000e-001;4.5217949219e+003;4.4634614258e+003;4.4588461914e+003;4.4621796875e+003;4.4689741211e+003;4.3960258789e+003;4.4234614258e+003;4.4774360352e+003;4.4723076172e+003;4.4620512695e+003;4.4667949219e+003;4.4576923828e+003;4.4594873047e+003;4.3287177734e+003;
3.2812500000e-001;4.4660258789e+003;4.4066665039e+003;4.4111538086e+003;4.4112822266e+003;4.4100000000e+003;4.3461538086e+003;4.3682050781e+003;4.4266665039e+003;4.4220512695e+003;4.4079487305e+003;4.4221796875e+003;4.4017949219e+003;4.4089741211e+003;4.2796152344e+003;
3.3593750000e-001;4.4455126953e+003;4.3873076172e+003;4.3946152344e+003;4.3973076172e+003;4.3934614258e+003;4.3292309570e+003;4.3505126953e+003;4.4053847656e+003;4.3993588867e+003;4.3855126953e+003;4.4007690430e+003;4.3770512695e+003;4.3908974609e+003;4.2587177734e+003;
3.4375000000e-001;4.4410258789e+003;4.3867949219e+003;4.3930771484e+003;4.3976923828e+003;4.3939741211e+003;4.3316665039e+003;4.3516665039e+003;4.4008974609e+003;4.3947436523e+003;4.3824360352e+003;4.3950000000e+003;4.3711538086e+003;4.3888461914e+003;4.2529487305e+003;
3.5156250000e-001;4.4925639648e+003;4.4523076172e+003;4.4458974609e+003;4.4460258789e+003;4.4660258789e+003;4.4244873047e+003;4.4278203125e+003;4.4462822266e+003;4.4542309570e+003;4.4389741211e+003;4.4410258789e+003;4.4224360352e+003;4.4457690430e+003;4.3075639648e+003;
3.5937500000e-001;4.4946152344e+003;4.4571796875e+003;4.4480771484e+003;4.4508974609e+003;4.4752563477e+003;4.4283334961e+003;4.4319228516e+003;4.4479487305e+003;4.4538461914e+003;4.4408974609e+003;4.4443588867e+003;4.4224360352e+003;4.4471796875e+003;4.3102563477e+003;
3.6718750000e-001;4.5924360352e+003;4.5602563477e+003;4.5529487305e+003;4.5420512695e+003;4.5897436523e+003;4.5329487305e+003;4.5433334961e+003;4.5493588867e+003;4.5469228516e+003;4.5482050781e+003;4.5484614258e+003;4.5307690430e+003;4.5421796875e+003;4.4111538086e+003;
3.7500000000e-001;4.7643588867e+003;4.7373076172e+003;4.7423076172e+003;4.7133334961e+003;4.7689741211e+003;4.7175639648e+003;4.7279487305e+003;4.7305126953e+003;4.7234614258e+003;4.7265385742e+003;4.7267949219e+003;4.7093588867e+003;4.7184614258e+003;4.5887177734e+003;
3.8281250000e-001;4.7873076172e+003;4.7673076172e+003;4.7703847656e+003;4.7401284180e+003;4.7929487305e+003;4.7480771484e+003;4.7582050781e+003;4.7612822266e+003;4.7485898438e+003;4.7510258789e+003;4.7535898438e+003;4.7373076172e+003;4.7451284180e+003;4.6158974609e+003;
3.9062500000e-001;4.8665385742e+003;4.8765385742e+003;4.8623076172e+003;4.8283334961e+003;4.8965385742e+003;4.8312822266e+003;4.8478203125e+003;4.8703847656e+003;4.8385898438e+003;4.8548715820e+003;4.8512822266e+003;4.8379487305e+003;4.8442309570e+003;4.7083334961e+003;
3.9843750000e-001;4.8794873047e+003;4.8883334961e+003;4.8826923828e+003;4.8426923828e+003;4.9114101563e+003;4.8419228516e+003;4.8585898438e+003;4.8902563477e+003;4.8553847656e+003;4.8757690430e+003;4.8688461914e+003;4.8569228516e+003;4.8602563477e+003;4.7244873047e+003;
4.0625000000e-001;4.8589741211e+003;4.8582050781e+003;4.8761538086e+003;4.8271796875e+003;4.8839741211e+003;4.8215385742e+003;4.8361538086e+003;4.8766665039e+003;4.8442309570e+003;4.8621796875e+003;4.8628203125e+003;4.8443588867e+003;4.8447436523e+003;4.7116665039e+003;
4.1406250000e-001;4.8555126953e+003;4.8579487305e+003;4.8753847656e+003;4.8283334961e+003;4.8833334961e+003;4.8180771484e+003;4.8351284180e+003;4.8756411133e+003;4.8479487305e+003;4.8624360352e+003;4.8692309570e+003;4.8443588867e+003;4.8484614258e+003;4.7135898438e+003;
4.2187500000e-001;4.9229487305e+003;4.9567949219e+003;4.9433334961e+003;4.9130771484e+003;4.9705126953e+003;4.8833334961e+003;4.9079487305e+003;4.9570512695e+003;4.9378203125e+003;4.9523076172e+003;4.9442309570e+003;4.9267949219e+003;4.9397436523e+003;4.7956411133e+003;
4.2968750000e-001;4.9142309570e+003;4.9525639648e+003;4.9384614258e+003;4.9067949219e+003;4.9582050781e+003;4.8817949219e+003;4.9006411133e+003;4.9569228516e+003;4.9373076172e+003;4.9524360352e+003;4.9369228516e+003;4.9234614258e+003;4.9347436523e+003;4.7911538086e+003;
4.3750000000e-001;4.6735898438e+003;4.7055126953e+003;4.7158974609e+003;4.6669228516e+003;4.7229487305e+003;4.6746152344e+003;4.6802563477e+003;4.7328203125e+003;4.7170512695e+003;4.7238461914e+003;4.7166665039e+003;4.6941025391e+003;4.7016665039e+003;4.5651284180e+003;
4.4531250000e-001;4.5855126953e+003;4.6110258789e+003;4.6274360352e+003;4.5805126953e+003;4.6414101563e+003;4.5907690430e+003;4.5987177734e+003;4.6389741211e+003;4.6283334961e+003;4.6269228516e+003;4.6270512695e+003;4.6030771484e+003;4.6107690430e+003;4.4762822266e+003;
4.5312500000e-001;4.5066665039e+003;4.5216665039e+003;4.5385898438e+003;4.5084614258e+003;4.5552563477e+003;4.5169228516e+003;4.5228203125e+003;4.5474360352e+003;4.5457690430e+003;4.5260258789e+003;4.5294873047e+003;4.5130771484e+003;4.5184614258e+003;4.3878203125e+003;
4.6093750000e-001;4.4883334961e+003;4.5039741211e+003;4.5175639648e+003;4.4969228516e+003;4.5311538086e+003;4.5043588867e+003;4.5051284180e+003;4.5300000000e+003;4.5292309570e+003;4.5046152344e+003;4.5046152344e+003;4.4933334961e+003;4.4948715820e+003;4.3674360352e+003;
4.6875000000e-001;4.4550000000e+003;4.4757690430e+003;4.4852563477e+003;4.4724360352e+003;4.5003847656e+003;4.4789741211e+003;4.4753847656e+003;4.5011538086e+003;4.4998715820e+003;4.4742309570e+003;4.4707690430e+003;4.4619228516e+003;4.4602563477e+003;4.3357690430e+003;
4.7656250000e-001;4.2298715820e+003;4.2428203125e+003;4.2583334961e+003;4.2452563477e+003;4.2732050781e+003;4.2816665039e+003;4.2691025391e+003;4.2782050781e+003;4.2784614258e+003;4.2473076172e+003;4.2364101563e+003;4.2183334961e+003;4.2360258789e+003;4.1043588867e+003;
4.8437500000e-001;4.1680771484e+003;4.1783334961e+003;4.1966665039e+003;4.1905126953e+003;4.2066665039e+003;4.2208974609e+003;4.2106411133e+003;4.2174360352e+003;4.2151284180e+003;4.1810258789e+003;4.1732050781e+003;4.1584614258e+003;4.1693588867e+003;4.0444870605e+003;
4.9218750000e-001;4.0417949219e+003;4.0373076172e+003;4.0553845215e+003;4.0764101563e+003;4.0793588867e+003;4.0737180176e+003;4.0743588867e+003;4.0774357910e+003;4.0667949219e+003;4.0265385742e+003;4.0305129395e+003;4.0226923828e+003;4.0220512695e+003;3.9069230957e+003;
5.0000000000e-001;3.9925642090e+003;3.9661538086e+003;3.9917949219e+003;4.0089743652e+003;3.9855129395e+003;4.0039743652e+003;4.0023076172e+003;4.0062819824e+003;3.9953845215e+003;3.9501281738e+003;3.9701281738e+003;3.9621794434e+003;3.9675642090e+003;3.8503845215e+003;
5.0781250000e-001;4.0287180176e+003;3.9992307129e+003;4.0258974609e+003;4.0405129395e+003;4.0201281738e+003;4.0265385742e+003;4.0262819824e+003;4.0348718262e+003;4.0239743652e+003;3.9807692871e+003;4.0066667480e+003;3.9951281738e+003;4.0006411133e+003;3.8855129395e+003;
5.1562500000e-001;4.1217949219e+003;4.0758974609e+003;4.1141025391e+003;4.1269228516e+003;4.0991025391e+003;4.0784614258e+003;4.0816667480e+003;4.1108974609e+003;4.1008974609e+003;4.0683332520e+003;4.0862819824e+003;4.0828205566e+003;4.0782050781e+003;3.9684614258e+003;
5.2343750000e-001;4.0833332520e+003;4.0337180176e+003;4.0724357910e+003;4.0894870605e+003;4.0458974609e+003;4.0369230957e+003;4.0402563477e+003;4.0691025391e+003;4.0621794434e+003;4.0294870605e+003;4.0416667480e+003;4.0453845215e+003;4.0417949219e+003;3.9294870605e+003;
5.3125000000e-001;4.0210256348e+003;3.9744870605e+003;4.0017949219e+003;4.0302563477e+003;3.9780769043e+003;3.9761538086e+003;3.9829487305e+003;4.0047436523e+003;4.0053845215e+003;3.9651281738e+003;3.9788461914e+003;3.9834614258e+003;3.9878205566e+003;3.8702563477e+003;
5.3906250000e-001;4.0441025391e+003;3.9983332520e+003;4.0229487305e+003;4.0502563477e+003;4.0092307129e+003;4.0001281738e+003;4.0087180176e+003;4.0283332520e+003;4.0308974609e+003;3.9861538086e+003;4.0055129395e+003;4.0053845215e+003;4.0096154785e+003;3.8937180176e+003;
5.4687500000e-001;4.1760258789e+003;4.1211538086e+003;4.1573076172e+003;4.1601284180e+003;4.1446152344e+003;4.1433334961e+003;4.1411538086e+003;4.1674360352e+003;4.1678203125e+003;4.1255126953e+003;4.1326923828e+003;4.1310258789e+003;4.1243588867e+003;4.0165385742e+003;
5.5468750000e-001;4.1528203125e+003;4.0998715820e+003;4.1334614258e+003;4.1388461914e+003;4.1217949219e+003;4.1292309570e+003;4.1224360352e+003;4.1502563477e+003;4.1503847656e+003;4.1105126953e+003;4.1091025391e+003;4.1071796875e+003;4.1025639648e+003;3.9919230957e+003;
5.6250000000e-001;3.9985898438e+003;3.9484614258e+003;3.9726923828e+003;3.9961538086e+003;3.9767949219e+003;3.9839743652e+003;3.9778205566e+003;3.9953845215e+003;4.0056411133e+003;3.9573076172e+003;3.9602563477e+003;3.9451281738e+003;3.9598718262e+003;3.8387180176e+003;
5.7031250000e-001;3.9956411133e+003;3.9435898438e+003;3.9669230957e+003;3.9862819824e+003;3.9684614258e+003;3.9773076172e+003;3.9708974609e+003;3.9850000000e+003;3.9984614258e+003;3.9506411133e+003;3.9541025391e+003;3.9369230957e+003;3.9575642090e+003;3.8337180176e+003;
5.7812500000e-001;4.0253845215e+003;3.9728205566e+003;3.9923076172e+003;4.0010256348e+003;3.9866667480e+003;4.0056411133e+003;3.9932050781e+003;4.0039743652e+003;4.0141025391e+003;3.9747436523e+003;3.9730769043e+003;3.9634614258e+003;3.9857692871e+003;3.8589743652e+003;
5.8593750000e-001;4.0503845215e+003;3.9970512695e+003;4.0155129395e+003;4.0251281738e+003;4.0138461914e+003;4.0287180176e+003;4.0157692871e+003;4.0237180176e+003;4.0283332520e+003;3.9921794434e+003;3.9923076172e+003;3.9878205566e+003;4.0073076172e+003;3.8806411133e+003;
5.9375000000e-001;4.1024360352e+003;4.0480769043e+003;4.0660256348e+003;4.0802563477e+003;4.0724357910e+003;4.0743588867e+003;4.0651281738e+003;4.0689743652e+003;4.0687180176e+003;4.0342307129e+003;4.0402563477e+003;4.0369230957e+003;4.0548718262e+003;3.9282050781e+003;
6.0156250000e-001;4.1888461914e+003;4.1347436523e+003;4.1514101563e+003;4.1700000000e+003;4.1643588867e+003;4.1524360352e+003;4.1489741211e+003;4.1485898438e+003;4.1452563477e+003;4.1137177734e+003;4.1267949219e+003;4.1192309570e+003;4.1379487305e+003;4.0106411133e+003;
6.0937500000e-001;4.4408974609e+003;4.4078203125e+003;4.4119228516e+003;4.4117949219e+003;4.4132050781e+003;4.4033334961e+003;4.4015385742e+003;4.4080771484e+003;4.3946152344e+003;4.3847436523e+003;4.3962822266e+003;4.3855126953e+003;4.3948715820e+003;4.2733334961e+003;
6.1718750000e-001;4.5678203125e+003;4.5323076172e+003;4.5530771484e+003;4.5220512695e+003;4.5306411133e+003;4.5121796875e+003;4.5187177734e+003;4.5371796875e+003;4.5037177734e+003;4.5188461914e+003;4.5267949219e+003;4.5279487305e+003;4.5330771484e+003;4.4071796875e+003;
6.2500000000e-001;4.6317949219e+003;4.5969228516e+003;4.6219228516e+003;4.5897436523e+003;4.5928203125e+003;4.5710258789e+003;4.5776923828e+003;4.5992309570e+003;4.5656411133e+003;4.5896152344e+003;4.6006411133e+003;4.5952563477e+003;4.5991025391e+003;4.4755126953e+003;
6.3281250000e-001;4.6876923828e+003;4.6715385742e+003;4.6825639648e+003;4.6524360352e+003;4.6670512695e+003;4.6148715820e+003;4.6257690430e+003;4.6606411133e+003;4.6388461914e+003;4.6615385742e+003;4.6764101563e+003;4.6605126953e+003;4.6635898438e+003;4.5405126953e+003;
6.4062500000e-001;4.6508974609e+003;4.6465385742e+003;4.6474360352e+003;4.6188461914e+003;4.6403847656e+003;4.5779487305e+003;4.5902563477e+003;4.6314101563e+003;4.6174360352e+003;4.6321796875e+003;4.6438461914e+003;4.6296152344e+003;4.6326923828e+003;4.5084614258e+003;
6.4843750000e-001;4.5947436523e+003;4.6041025391e+003;4.5950000000e+003;4.5728203125e+003;4.5851284180e+003;4.5519228516e+003;4.5524360352e+003;4.5929487305e+003;4.5835898438e+003;4.5944873047e+003;4.5862822266e+003;4.5771796875e+003;4.5865385742e+003;4.4615385742e+003;
6.5625000000e-001;4.8496152344e+003;4.8655126953e+003;4.8591025391e+003;4.8274360352e+003;4.8710258789e+003;4.8083334961e+003;4.8170512695e+003;4.8578203125e+003;4.8511538086e+003;4.8666665039e+003;4.8600000000e+003;4.8335898438e+003;4.8507690430e+003;4.7148715820e+003;
6.6406250000e-001;4.8965385742e+003;4.9197436523e+003;4.9130771484e+003;4.8779487305e+003;4.9262822266e+003;4.8630771484e+003;4.8738461914e+003;4.9100000000e+003;4.9053847656e+003;4.9188461914e+003;4.9117949219e+003;4.8838461914e+003;4.9055126953e+003;4.7653847656e+003;
6.7187500000e-001;4.9261538086e+003;4.9600000000e+003;4.9487177734e+003;4.9152563477e+003;4.9606411133e+003;4.9089741211e+003;4.9155126953e+003;4.9462822266e+003;4.9428203125e+003;4.9569228516e+003;4.9464101563e+003;4.9169228516e+003;4.9451284180e+003;4.8026923828e+003;
6.7968750000e-001;4.9582050781e+003;5.0150000000e+003;4.9878203125e+003;4.9643588867e+003;5.0085898438e+003;4.9741025391e+003;4.9644873047e+003;4.9956411133e+003;4.9892309570e+003;5.0124360352e+003;4.9943588867e+003;4.9605126953e+003;4.9915385742e+003;4.8544873047e+003;
6.8750000000e-001;4.9487177734e+003;5.0111538086e+003;4.9817949219e+003;4.9561538086e+003;5.0115385742e+003;4.9701284180e+003;4.9585898438e+003;4.9929487305e+003;4.9832050781e+003;5.0091025391e+003;4.9915385742e+003;4.9583334961e+003;4.9816665039e+003;4.8505126953e+003;
6.9531250000e-001;4.9208974609e+003;4.9830771484e+003;4.9584614258e+003;4.9233334961e+003;4.9935898438e+003;4.9411538086e+003;4.9338461914e+003;4.9680771484e+003;4.9552563477e+003;4.9808974609e+003;4.9657690430e+003;4.9353847656e+003;4.9505126953e+003;4.8234614258e+003;
7.0312500000e-001;4.9283334961e+003;5.0005126953e+003;4.9841025391e+003;4.9203847656e+003;5.0042309570e+003;4.9678203125e+003;4.9598715820e+003;4.9685898438e+003;4.9417949219e+003;4.9766665039e+003;4.9708974609e+003;4.9434614258e+003;4.9635898438e+003;4.8358974609e+003;
7.1093750000e-001;4.9873076172e+003;5.0653847656e+003;5.0485898438e+003;4.9770512695e+003;5.0706411133e+003;5.0246152344e+003;5.0165385742e+003;5.0256411133e+003;4.9957690430e+003;5.0335898438e+003;5.0360258789e+003;5.0071796875e+003;5.0207690430e+003;4.8980771484e+003;
7.1875000000e-001;5.0688461914e+003;5.1524360352e+003;5.1461538086e+003;5.0576923828e+003;5.1539741211e+003;5.0957690430e+003;5.0960258789e+003;5.1146152344e+003;5.0729487305e+003;5.1305126953e+003;5.1302563477e+003;5.1026923828e+003;5.1197436523e+003;4.9924360352e+003;
7.2656250000e-001;5.0878203125e+003;5.1784614258e+003;5.1674360352e+003;5.0855126953e+003;5.1653847656e+003;5.1180771484e+003;5.1173076172e+003;5.1497436523e+003;5.1043588867e+003;5.1673076172e+003;5.1676923828e+003;5.1426923828e+003;5.1607690430e+003;5.0308974609e+003;
7.3437500000e-001;5.0961538086e+003;5.1888461914e+003;5.1816665039e+003;5.0956411133e+003;5.1797436523e+003;5.1229487305e+003;5.1241025391e+003;5.1665385742e+003;5.1250000000e+003;5.1825639648e+003;5.1850000000e+003;5.1621796875e+003;5.1723076172e+003;5.0455126953e+003;
7.4218750000e-001;4.8385898438e+003;4.9275639648e+003;4.9423076172e+003;4.8520512695e+003;4.9235898438e+003;4.8653847656e+003;4.8655126953e+003;4.9208974609e+003;4.8928203125e+003;4.9308974609e+003;4.9271796875e+003;4.9173076172e+003;4.9157690430e+003;4.7976923828e+003;
7.5000000000e-001;5.0537177734e+003;5.1555126953e+003;5.1423076172e+003;5.0562822266e+003;5.1435898438e+003;5.0771796875e+003;5.0803847656e+003;5.1246152344e+003;5.1061538086e+003;5.1333334961e+003;5.1408974609e+003;5.1006411133e+003;5.1275639648e+003;4.9903847656e+003;
7.5781250000e-001;5.2112822266e+003;5.3224360352e+003;5.3034614258e+003;5.2120512695e+003;5.3103847656e+003;5.2328203125e+003;5.2376923828e+003;5.2893588867e+003;5.2738461914e+003;5.3032050781e+003;5.3087177734e+003;5.2619228516e+003;5.2921796875e+003;5.1496152344e+003;
7.6562500000e-001;5.1314101563e+003;5.2584614258e+003;5.2462822266e+003;5.1624360352e+003;5.2557690430e+003;5.1892309570e+003;5.1817949219e+003;5.2444873047e+003;5.2223076172e+003;5.2605126953e+003;5.2400000000e+003;5.2074360352e+003;5.2335898438e+003;5.0938461914e+003;
7.7343750000e-001;5.0332050781e+003;5.1615385742e+003;5.1501284180e+003;5.0760258789e+003;5.1601284180e+003;5.1102563477e+003;5.0987177734e+003;5.1498715820e+003;5.1224360352e+003;5.1580771484e+003;5.1344873047e+003;5.1098715820e+003;5.1343588867e+003;4.9953847656e+003;
7.8125000000e-001;5.0534614258e+003;5.1882050781e+003;5.1683334961e+003;5.1083334961e+003;5.1806411133e+003;5.1533334961e+003;5.1416665039e+003;5.1691025391e+003;5.1388461914e+003;5.1646152344e+003;5.1487177734e+003;5.1244873047e+003;5.1511538086e+003;5.0061538086e+003;
7.8906250000e-001;5.1310258789e+003;5.2701284180e+003;5.2474360352e+003;5.1883334961e+003;5.2624360352e+003;5.2343588867e+003;5.2237177734e+003;5.2497436523e+003;5.2220512695e+003;5.2442309570e+003;5.2330771484e+003;5.2024360352e+003;5.2314101563e+003;5.0821796875e+003;
7.9687500000e-001;5.1767949219e+003;5.3180771484e+003;5.2976923828e+003;5.2360258789e+003;5.3169228516e+003;5.2814101563e+003;5.2707690430e+003;5.3014101563e+003;5.2758974609e+003;5.2962822266e+003;5.2878203125e+003;5.2523076172e+003;5.2812822266e+003;5.1302563477e+003;
8.0468750000e-001;5.1070512695e+003;5.2479487305e+003;5.2382050781e+003;5.1715385742e+003;5.2682050781e+003;5.2156411133e+003;5.2035898438e+003;5.2384614258e+003;5.2080771484e+003;5.2307690430e+003;5.2246152344e+003;5.1935898438e+003;5.2143588867e+003;5.0683334961e+003;
8.1250000000e-001;5.0571796875e+003;5.2003847656e+003;5.1900000000e+003;5.1234614258e+003;5.2242309570e+003;5.1689741211e+003;5.1564101563e+003;5.1862822266e+003;5.1496152344e+003;5.1761538086e+003;5.1723076172e+003;5.1456411133e+003;5.1632050781e+003;5.0206411133e+003;
8.2031250000e-001;5.0371796875e+003;5.1864101563e+003;5.1701284180e+003;5.1051284180e+003;5.2050000000e+003;5.1528203125e+003;5.1392309570e+003;5.1633334961e+003;5.1205126953e+003;5.1516665039e+003;5.1516665039e+003;5.1261538086e+003;5.1428203125e+003;5.0023076172e+003;
8.2812500000e-001;5.0623076172e+003;5.2062822266e+003;5.1979487305e+003;5.1391025391e+003;5.2066665039e+003;5.1564101563e+003;5.1467949219e+003;5.1678203125e+003;5.1275639648e+003;5.1661538086e+003;5.1770512695e+003;5.1558974609e+003;5.1705126953e+003;5.0338461914e+003;
8.3593750000e-001;5.0666665039e+003;5.2084614258e+003;5.2050000000e+003;5.1425639648e+003;5.2097436523e+003;5.1523076172e+003;5.1437177734e+003;5.1706411133e+003;5.1306411133e+003;5.1737177734e+003;5.1815385742e+003;5.1628203125e+003;5.1766665039e+003;5.0402563477e+003;
8.4375000000e-001;4.9993588867e+003;5.1537177734e+003;5.1437177734e+003;5.0802563477e+003;5.1402563477e+003;5.0841025391e+003;5.0711538086e+003;5.1133334961e+003;5.0794873047e+003;5.1176923828e+003;5.1374360352e+003;5.1070512695e+003;5.1234614258e+003;4.9882050781e+003;
8.5156250000e-001;4.9866665039e+003;5.1352563477e+003;5.1292309570e+003;5.0628203125e+003;5.1047436523e+003;5.0717949219e+003;5.0556411133e+003;5.1094873047e+003;5.0834614258e+003;5.1053847656e+003;5.1175639648e+003;5.0889741211e+003;5.1097436523e+003;4.9748715820e+003;
8.5937500000e-001;4.9469228516e+003;5.0929487305e+003;5.0951284180e+003;5.0247436523e+003;5.0684614258e+003;5.0362822266e+003;5.0203847656e+003;5.0758974609e+003;5.0510258789e+003;5.0669228516e+003;5.0730771484e+003;5.0494873047e+003;5.0684614258e+003;4.9371796875e+003;
8.6718750000e-001;4.8516665039e+003;5.0017949219e+003;5.0051284180e+003;4.9461538086e+003;5.0187177734e+003;4.9570512695e+003;4.9426923828e+003;4.9970512695e+003;4.9773076172e+003;4.9776923828e+003;4.9851284180e+003;4.9555126953e+003;4.9725639648e+003;4.8476923828e+003;
8.7500000000e-001;4.9053847656e+003;5.0546152344e+003;5.0478203125e+003;5.0084614258e+003;5.0593588867e+003;5.0316665039e+003;5.0187177734e+003;5.0617949219e+003;5.0398715820e+003;5.0411538086e+003;5.0497436523e+003;5.0150000000e+003;5.0371796875e+003;4.9028203125e+003;
8.8281250000e-001;4.9353847656e+003;5.0853847656e+003;5.0806411133e+003;5.0361538086e+003;5.0891025391e+003;5.0650000000e+003;5.0520512695e+003;5.0915385742e+003;5.0683334961e+003;5.0702563477e+003;5.0753847656e+003;5.0439741211e+003;5.0689741211e+003;4.9312822266e+003;
8.9062500000e-001;4.9752563477e+003;5.1294873047e+003;5.1247436523e+003;5.0737177734e+003;5.1353847656e+003;5.1078203125e+003;5.0921796875e+003;5.1301284180e+003;5.1062822266e+003;5.1093588867e+003;5.1112822266e+003;5.0817949219e+003;5.1083334961e+003;4.9700000000e+003;
8.9843750000e-001;5.0817949219e+003;5.2470512695e+003;5.2342309570e+003;5.1797436523e+003;5.2517949219e+003;5.2241025391e+003;5.2011538086e+003;5.2356411133e+003;5.2097436523e+003;5.2196152344e+003;5.2196152344e+003;5.1873076172e+003;5.2124360352e+003;5.0811538086e+003;
9.0625000000e-001;5.3362822266e+003;5.5030771484e+003;5.4873076172e+003;5.4312822266e+003;5.5117949219e+003;5.4712822266e+003;5.4637177734e+003;5.4866665039e+003;5.4566665039e+003;5.4800000000e+003;5.4893588867e+003;5.4489741211e+003;5.4797436523e+003;5.3446152344e+003;
9.1406250000e-001;5.4176923828e+003;5.5870512695e+003;5.5743588867e+003;5.5108974609e+003;5.6033334961e+003;5.5432050781e+003;5.5411538086e+003;5.5664101563e+003;5.5351284180e+003;5.5624360352e+003;5.5778203125e+003;5.5358974609e+003;5.5651284180e+003;5.4284614258e+003;
9.2187500000e-001;5.4633334961e+003;5.6400000000e+003;5.6275639648e+003;5.5561538086e+003;5.6587177734e+003;5.5828203125e+003;5.5807690430e+003;5.6116665039e+003;5.5782050781e+003;5.6105126953e+003;5.6306411133e+003;5.5882050781e+003;5.6125639648e+003;5.4787177734e+003;
9.2968750000e-001;5.4357690430e+003;5.6333334961e+003;5.6119228516e+003;5.5324360352e+003;5.6366665039e+003;5.5616665039e+003;5.5485898438e+003;5.5911538086e+003;5.5491025391e+003;5.5960258789e+003;5.6143588867e+003;5.5717949219e+003;5.5908974609e+003;5.4650000000e+003;
9.3750000000e-001;5.3906411133e+003;5.5921796875e+003;5.5703847656e+003;5.4897436523e+003;5.5883334961e+003;5.5238461914e+003;5.5070512695e+003;5.5511538086e+003;5.5046152344e+003;5.5574360352e+003;5.5715385742e+003;5.5301284180e+003;5.5524360352e+003;5.4250000000e+003;
9.4531250000e-001;5.3483334961e+003;5.5466665039e+003;5.5317949219e+003;5.4493588867e+003;5.5429487305e+003;5.4864101563e+003;5.4697436523e+003;5.5115385742e+003;5.4629487305e+003;5.5175639648e+003;5.5293588867e+003;5.4912822266e+003;5.5166665039e+003;5.3860258789e+003;
9.5312500000e-001;5.3232050781e+003;5.5146152344e+003;5.5098715820e+003;5.4252563477e+003;5.5165385742e+003;5.4608974609e+003;5.4474360352e+003;5.4850000000e+003;5.4378203125e+003;5.4896152344e+003;5.5028203125e+003;5.4700000000e+003;5.4942309570e+003;5.3632050781e+003;
9.6093750000e-001;5.3666665039e+003;5.5648715820e+003;5.5552563477e+003;5.4743588867e+003;5.5528203125e+003;5.4993588867e+003;5.4888461914e+003;5.5401284180e+003;5.5102563477e+003;5.5462822266e+003;5.5584614258e+003;5.5232050781e+003;5.5407690430e+003;5.4178203125e+003;
9.6875000000e-001;5.2830771484e+003;5.4928203125e+003;5.4864101563e+003;5.3962822266e+003;5.4874360352e+003;5.4330771484e+003;5.4182050781e+003;5.4911538086e+003;5.4582050781e+003;5.4805126953e+003;5.4912822266e+003;5.4410258789e+003;5.4684614258e+003;5.3451284180e+003;
9.7656250000e-001;5.2464101563e+003;5.4562822266e+003;5.4497436523e+003;5.3652563477e+003;5.4619228516e+003;5.3970512695e+003;5.3838461914e+003;5.4598715820e+003;5.4284614258e+003;5.4473076172e+003;5.4605126953e+003;5.4070512695e+003;5.4308974609e+003;5.3102563477e+003;
9.8437500000e-001;5.1143588867e+003;5.3201284180e+003;5.3152563477e+003;5.2476923828e+003;5.3373076172e+003;5.2852563477e+003;5.2673076172e+003;5.3389741211e+003;5.3116665039e+003;5.3191025391e+003;5.3284614258e+003;5.2774360352e+003;5.3007690430e+003;5.1757690430e+003;
9.9218750000e-001;4.9684614258e+003;5.1684614258e+003;5.1653847656e+003;5.1142309570e+003;5.1800000000e+003;5.1676923828e+003;5.1442309570e+003;5.1937177734e+003;5.1688461914e+003;5.1630771484e+003;5.1519228516e+003;5.1085898438e+003;5.1498715820e+003;5.0150000000e+003;
1.0000000000e+000;4.9511538086e+003;5.1453847656e+003;5.1478203125e+003;5.0984614258e+003;5.1591025391e+003;5.1506411133e+003;5.1282050781e+003;5.1730771484e+003;5.1447436523e+003;5.1397436523e+003;5.1365385742e+003;5.0891025391e+003;5.1274360352e+003;4.9957690430e+003;
1.0078125000e+000;4.9389741211e+003;5.1202563477e+003;5.1265385742e+003;5.0835898438e+003;5.1439741211e+003;5.1385898438e+003;5.1115385742e+003;5.1457690430e+003;5.1143588867e+003;5.1058974609e+003;5.1293588867e+003;5.0714101563e+003;5.1056411133e+003;4.9788461914e+003;
1.0156250000e+000;4.9434614258e+003;5.1220512695e+003;5.1257690430e+003;5.0830771484e+003;5.1493588867e+003;5.1403847656e+003;5.1106411133e+003;5.1415385742e+003;5.1110258789e+003;5.1005126953e+003;5.1292309570e+003;5.0732050781e+003;5.1071796875e+003;4.9824360352e+003;
1.0234375000e+000;4.9291025391e+003;5.1023076172e+003;5.1121796875e+003;5.0566665039e+003;5.1094873047e+003;5.1080771484e+003;5.0856411133e+003;5.1108974609e+003;5.0721796875e+003;5.0724360352e+003;5.0930771484e+003;5.0557690430e+003;5.0812822266e+003;4.9683334961e+003;
1.0312500000e+000;4.9075639648e+003;5.0769228516e+003;5.0901284180e+003;5.0408974609e+003;5.0760258789e+003;5.0846152344e+003;5.0648715820e+003;5.0864101563e+003;5.0442309570e+003;5.0488461914e+003;5.0721796875e+003;5.0332050781e+003;5.0574360352e+003;4.9447436523e+003;
1.0390625000e+000;4.8166665039e+003;4.9756411133e+003;4.9919228516e+003;4.9675639648e+003;4.9841025391e+003;4.9907690430e+003;4.9707690430e+003;4.9893588867e+003;4.9484614258e+003;4.9493588867e+003;4.9817949219e+003;4.9434614258e+003;4.9657690430e+003;4.8505126953e+003;
1.0468750000e+000;4.7502563477e+003;4.9020512695e+003;4.9223076172e+003;4.9023076172e+003;4.9229487305e+003;4.9173076172e+003;4.8983334961e+003;4.9197436523e+003;4.8815385742e+003;4.8756411133e+003;4.9110258789e+003;4.8788461914e+003;4.8976923828e+003;4.7842309570e+003;
1.0546875000e+000;4.6187177734e+003;4.7510258789e+003;4.7837177734e+003;4.7442309570e+003;4.7693588867e+003;4.7608974609e+003;4.7530771484e+003;4.7896152344e+003;4.7535898438e+003;4.7319228516e+003;4.7757690430e+003;4.7455126953e+003;4.7582050781e+003;4.6556411133e+003;
1.0625000000e+000;4.6178203125e+003;4.7478203125e+003;4.7793588867e+003;4.7402563477e+003;4.7525639648e+003;4.7596152344e+003;4.7510258789e+003;4.7911538086e+003;4.7565385742e+003;4.7319228516e+003;4.7784614258e+003;4.7432050781e+003;4.7560258789e+003;4.6546152344e+003;
1.0703125000e+000;4.6269228516e+003;4.7566665039e+003;4.7846152344e+003;4.7511538086e+003;4.7510258789e+003;4.7691025391e+003;4.7571796875e+003;4.8000000000e+003;4.7694873047e+003;4.7416665039e+003;4.7889741211e+003;4.7500000000e+003;4.7641025391e+003;4.6619228516e+003;
1.0781250000e+000;4.6325639648e+003;4.7629487305e+003;4.7866665039e+003;4.7589741211e+003;4.7542309570e+003;4.7716665039e+003;4.7570512695e+003;4.8033334961e+003;4.7785898438e+003;4.7465385742e+003;4.7917949219e+003;4.7514101563e+003;4.7685898438e+003;4.6639741211e+003;
1.0859375000e+000;4.4541025391e+003;4.5591025391e+003;4.5988461914e+003;4.5693588867e+003;4.5644873047e+003;4.5773076172e+003;4.5657690430e+003;4.6216665039e+003;4.6057690430e+003;4.5517949219e+003;4.5803847656e+003;4.5535898438e+003;4.5679487305e+003;4.4748715820e+003;
1.0937500000e+000;4.4600000000e+003;4.5541025391e+003;4.5885898438e+003;4.5785898438e+003;4.5697436523e+003;4.5932050781e+003;4.5725639648e+003;4.6010258789e+003;4.5793588867e+003;4.5314101563e+003;4.5684614258e+003;4.5383334961e+003;4.5584614258e+003;4.4602563477e+003;
1.1015625000e+000;4.4579487305e+003;4.5488461914e+003;4.5826923828e+003;4.5728203125e+003;4.5739741211e+003;4.5839741211e+003;4.5665385742e+003;4.5914101563e+003;4.5693588867e+003;4.5201284180e+003;4.5593588867e+003;4.5280771484e+003;4.5501284180e+003;4.4525639648e+003;
1.1093750000e+000;4.3682050781e+003;4.4524360352e+003;4.4842309570e+003;4.4820512695e+003;4.4741025391e+003;4.4924360352e+003;4.4767949219e+003;4.4937177734e+003;4.4752563477e+003;4.4144873047e+003;4.4556411133e+003;4.4279487305e+003;4.4462822266e+003;4.3574360352e+003;
1.1171875000e+000;4.2183334961e+003;4.2791025391e+003;4.3223076172e+003;4.3198715820e+003;4.2916665039e+003;4.3546152344e+003;4.3306411133e+003;4.3274360352e+003;4.2975639648e+003;4.2373076172e+003;4.2843588867e+003;4.2698715820e+003;4.2782050781e+003;4.1971796875e+003;
1.1250000000e+000;4.2428203125e+003;4.2912822266e+003;4.3371796875e+003;4.3391025391e+003;4.3182050781e+003;4.3637177734e+003;4.3435898438e+003;4.3388461914e+003;4.3071796875e+003;4.2506411133e+003;4.2985898438e+003;4.2842309570e+003;4.2941025391e+003;4.2138461914e+003;
1.1328125000e+000;4.2733334961e+003;4.3115385742e+003;4.3548715820e+003;4.3669228516e+003;4.3402563477e+003;4.3711538086e+003;4.3529487305e+003;4.3583334961e+003;4.3308974609e+003;4.2765385742e+003;4.3265385742e+003;4.3075639648e+003;4.3196152344e+003;4.2417949219e+003;
1.1406250000e+000;4.2414101563e+003;4.2787177734e+003;4.3225639648e+003;4.3335898438e+003;4.2916665039e+003;4.3379487305e+003;4.3155126953e+003;4.3270512695e+003;4.3015385742e+003;4.2466665039e+003;4.3000000000e+003;4.2801284180e+003;4.2910258789e+003;4.2135898438e+003;
1.1484375000e+000;4.1547436523e+003;4.1726923828e+003;4.2225639648e+003;4.2265385742e+003;4.1682050781e+003;4.2334614258e+003;4.2093588867e+003;4.2157690430e+003;4.1903847656e+003;4.1405126953e+003;4.2032050781e+003;4.1867949219e+003;4.1950000000e+003;4.1170512695e+003;
1.1562500000e+000;4.1820512695e+003;4.1944873047e+003;4.2417949219e+003;4.2492309570e+003;4.2010258789e+003;4.2444873047e+003;4.2271796875e+003;4.2326923828e+003;4.2078203125e+003;4.1588461914e+003;4.2232050781e+003;4.2056411133e+003;4.2139741211e+003;4.1378203125e+003;
1.1640625000e+000;4.2348715820e+003;4.2402563477e+003;4.2894873047e+003;4.3005126953e+003;4.2571796875e+003;4.2714101563e+003;4.2629487305e+003;4.2832050781e+003;4.2592309570e+003;4.2042309570e+003;4.2665385742e+003;4.2479487305e+003;4.2591025391e+003;4.1856411133e+003;
1.1718750000e+000;4.2220512695e+003;4.2207690430e+003;4.2778203125e+003;4.2841025391e+003;4.2317949219e+003;4.2532050781e+003;4.2429487305e+003;4.2747436523e+003;4.2512822266e+003;4.1910258789e+003;4.2485898438e+003;4.2325639648e+003;4.2451284180e+003;4.1716665039e+003;
1.1796875000e+000;4.0282050781e+003;4.0016667480e+003;4.0743588867e+003;4.0720512695e+003;3.9961538086e+003;4.0523076172e+003;4.0351281738e+003;4.0779487305e+003;4.0578205566e+003;3.9821794434e+003;4.0412819824e+003;4.0317949219e+003;4.0324357910e+003;3.9644870605e+003;
1.1875000000e+000;3.9835898438e+003;3.9541025391e+003;4.0233332520e+003;4.0296154785e+003;3.9515385742e+003;4.0015385742e+003;3.9875642090e+003;4.0275642090e+003;4.0085898438e+003;3.9279487305e+003;3.9943588867e+003;3.9824357910e+003;3.9805129395e+003;3.9148718262e+003;
1.1953125000e+000;3.9779487305e+003;3.9488461914e+003;4.0121794434e+003;4.0303845215e+003;3.9487180176e+003;3.9900000000e+003;3.9800000000e+003;4.0182050781e+003;4.0002563477e+003;3.9152563477e+003;3.9855129395e+003;3.9707692871e+003;3.9723076172e+003;3.9053845215e+003;
1.2031250000e+000;3.9943588867e+003;3.9655129395e+003;4.0235898438e+003;4.0530769043e+003;3.9642307129e+003;4.0033332520e+003;3.9955129395e+003;4.0328205566e+003;4.0156411133e+003;3.9279487305e+003;3.9955129395e+003;3.9805129395e+003;3.9893588867e+003;3.9179487305e+003;
1.2109375000e+000;3.9452563477e+003;3.8923076172e+003;3.9535898438e+003;3.9860256348e+003;3.8902563477e+003;3.9725642090e+003;3.9565385742e+003;3.9594870605e+003;3.9423076172e+003;3.8546154785e+003;3.9124357910e+003;3.9024357910e+003;3.9107692871e+003;3.8389743652e+003;
1.2187500000e+000;3.9912819824e+003;3.9443588867e+003;3.9789743652e+003;4.0371794434e+003;3.9684614258e+003;4.0288461914e+003;4.0188461914e+003;4.0174357910e+003;3.9987180176e+003;3.9111538086e+003;3.9457692871e+003;3.9366667480e+003;3.9492307129e+003;3.8743588867e+003;
1.2265625000e+000;3.9778205566e+003;3.9276923828e+003;3.9607692871e+003;4.0162819824e+003;3.9496154785e+003;4.0129487305e+003;4.0006411133e+003;3.9988461914e+003;3.9826923828e+003;3.8969230957e+003;3.9289743652e+003;3.9192307129e+003;3.9319230957e+003;3.8570512695e+003;
1.2343750000e+000;3.9780769043e+003;3.9053845215e+003;3.9552563477e+003;3.9983332520e+003;3.9242307129e+003;3.9994870605e+003;3.9832050781e+003;3.9780769043e+003;3.9634614258e+003;3.8873076172e+003;3.9303845215e+003;3.9102563477e+003;3.9203845215e+003;3.8493588867e+003;
1.2421875000e+000;3.7171794434e+003;3.6167949219e+003;3.6925642090e+003;3.7446154785e+003;3.6217949219e+003;3.7058974609e+003;3.6853845215e+003;3.6950000000e+003;3.6667949219e+003;3.5953845215e+003;3.6496154785e+003;3.6507692871e+003;3.6516667480e+003;3.5921794434e+003;
1.2500000000e+000;3.6001281738e+003;3.4934614258e+003;3.5725642090e+003;3.6243588867e+003;3.4946154785e+003;3.5819230957e+003;3.5592307129e+003;3.5680769043e+003;3.5425642090e+003;3.4651281738e+003;3.5238461914e+003;3.5306411133e+003;3.5303845215e+003;3.4716667480e+003;
1.2578125000e+000;3.4542307129e+003;3.3244870605e+003;3.4094870605e+003;3.4697436523e+003;3.3215385742e+003;3.4153845215e+003;3.3951281738e+003;3.3919230957e+003;3.3793588867e+003;3.2882050781e+003;3.3611538086e+003;3.3719230957e+003;3.3661538086e+003;3.3130769043e+003;
1.2656250000e+000;3.4387180176e+003;3.2987180176e+003;3.3814101563e+003;3.4492307129e+003;3.2905129395e+003;3.3879487305e+003;3.3702563477e+003;3.3630769043e+003;3.3561538086e+003;3.2605129395e+003;3.3375642090e+003;3.3473076172e+003;3.3392307129e+003;3.2900000000e+003;
1.2734375000e+000;3.4371794434e+003;3.2750000000e+003;3.3608974609e+003;3.4297436523e+003;3.2620512695e+003;3.3632050781e+003;3.3411538086e+003;3.3532050781e+003;3.3432050781e+003;3.2492307129e+003;3.3132050781e+003;3.3269230957e+003;3.3178205566e+003;3.2688461914e+003;
1.2812500000e+000;3.4215385742e+003;3.2492307129e+003;3.3430769043e+003;3.4137180176e+003;3.2475642090e+003;3.3393588867e+003;3.3174357910e+003;3.3355129395e+003;3.3235898438e+003;3.2296154785e+003;3.2915385742e+003;3.3082050781e+003;3.2985898438e+003;3.2488461914e+003;
1.2890625000e+000;3.4016667480e+003;3.2152563477e+003;3.3082050781e+003;3.4058974609e+003;3.2312819824e+003;3.3003845215e+003;3.2857692871e+003;3.3046154785e+003;3.2960256348e+003;3.1961538086e+003;3.2624357910e+003;3.2755129395e+003;3.2688461914e+003;3.2185898438e+003;
1.2968750000e+000;3.3879487305e+003;3.2005129395e+003;3.2853845215e+003;3.3969230957e+003;3.2156411133e+003;3.2838461914e+003;3.2712819824e+003;3.2883332520e+003;3.2820512695e+003;3.1779487305e+003;3.2434614258e+003;3.2542307129e+003;3.2488461914e+003;3.1994870605e+003;
1.3046875000e+000;3.2923076172e+003;3.0948718262e+003;3.1776923828e+003;3.2770512695e+003;3.1001281738e+003;3.2055129395e+003;3.1824357910e+003;3.1884614258e+003;3.1800000000e+003;3.0711538086e+003;3.1247436523e+003;3.1446154785e+003;3.1305129395e+003;3.0870512695e+003;
1.3125000000e+000;3.2869230957e+003;3.0811538086e+003;3.1673076172e+003;3.2623076172e+003;3.0880769043e+003;3.1994870605e+003;3.1739743652e+003;3.1751281738e+003;3.1651281738e+003;3.0589743652e+003;3.1144870605e+003;3.1343588867e+003;3.1205129395e+003;3.0757692871e+003;
1.3203125000e+000;3.2998718262e+003;3.0862819824e+003;3.1733332520e+003;3.2726923828e+003;3.0966667480e+003;3.2062819824e+003;3.1820512695e+003;3.1789743652e+003;3.1682050781e+003;3.0650000000e+003;3.1248718262e+003;3.1416667480e+003;3.1314101563e+003;3.0830769043e+003;
1.3281250000e+000;3.3133332520e+003;3.0934614258e+003;3.1797436523e+003;3.2892307129e+003;3.1074357910e+003;3.2128205566e+003;3.1925642090e+003;3.1852563477e+003;3.1742307129e+003;3.0730769043e+003;3.1360256348e+003;3.1492307129e+003;3.1433332520e+003;3.0911538086e+003;
1.3359375000e+000;3.2278205566e+003;2.9910256348e+003;3.0808974609e+003;3.2008974609e+003;3.0108974609e+003;3.1435898438e+003;3.1189743652e+003;3.0966667480e+003;3.0914101563e+003;2.9801281738e+003;3.0294870605e+003;3.0432050781e+003;3.0382050781e+003;2.9847436523e+003;
1.3437500000e+000;3.1783332520e+003;2.9367949219e+003;3.0275642090e+003;3.1503845215e+003;2.9605129395e+003;3.0956411133e+003;3.0673076172e+003;3.0433332520e+003;3.0411538086e+003;2.9252563477e+003;2.9748718262e+003;2.9919230957e+003;2.9824357910e+003;2.9314101563e+003;
1.3515625000e+000;3.0087180176e+003;2.7539743652e+003;2.8380769043e+003;2.9779487305e+003;2.7944870605e+003;2.8955129395e+003;2.8707692871e+003;2.8424357910e+003;2.8375642090e+003;2.7234614258e+003;2.7789743652e+003;2.8087180176e+003;2.7992307129e+003;2.7538461914e+003;
1.3593750000e+000;2.9041025391e+003;2.6184614258e+003;2.7089743652e+003;2.8403845215e+003;2.6425642090e+003;2.7679487305e+003;2.7416667480e+003;2.7015385742e+003;2.6885898438e+003;2.5806411133e+003;2.6529487305e+003;2.6765385742e+003;2.6712819824e+003;2.6280769043e+003;
1.3671875000e+000;2.9592307129e+003;2.6624357910e+003;2.7541025391e+003;2.8869230957e+003;2.6841025391e+003;2.8120512695e+003;2.7879487305e+003;2.7442307129e+003;2.7326923828e+003;2.6223076172e+003;2.7002563477e+003;2.7228205566e+003;2.7162819824e+003;2.6732050781e+003;
1.3750000000e+000;3.3424357910e+003;3.0466667480e+003;3.1184614258e+003;3.2533332520e+003;3.0623076172e+003;3.1423076172e+003;3.1328205566e+003;3.1097436523e+003;3.1111538086e+003;3.0183332520e+003;3.0738461914e+003;3.0973076172e+003;3.0912819824e+003;3.0452563477e+003;
1.3828125000e+000;3.3683332520e+003;3.0711538086e+003;3.1505129395e+003;3.2612819824e+003;3.0692307129e+003;3.1650000000e+003;3.1487180176e+003;3.1489743652e+003;3.1546154785e+003;3.0705129395e+003;3.1091025391e+003;3.1308974609e+003;3.1257692871e+003;3.0712819824e+003;
1.3906250000e+000;3.3432050781e+003;3.0447436523e+003;3.1230769043e+003;3.2330769043e+003;3.0494870605e+003;3.1401281738e+003;3.1225642090e+003;3.1285898438e+003;3.1369230957e+003;3.0451281738e+003;3.0864101563e+003;3.1069230957e+003;3.1010256348e+003;3.0457692871e+003;
1.3984375000e+000;3.3742307129e+003;3.0841025391e+003;3.1417949219e+003;3.2583332520e+003;3.0884614258e+003;3.1561538086e+003;3.1476923828e+003;3.1616667480e+003;3.1812819824e+003;3.0779487305e+003;3.1196154785e+003;3.1337180176e+003;3.1285898438e+003;3.0798718262e+003;
1.4062500000e+000;3.4133332520e+003;3.1242307129e+003;3.1796154785e+003;3.2947436523e+003;3.1206411133e+003;3.1955129395e+003;3.1870512695e+003;3.1994870605e+003;3.2206411133e+003;3.1217949219e+003;3.1576923828e+003;3.1675642090e+003;3.1679487305e+003;3.1148718262e+003;
1.4140625000e+000;3.4502563477e+003;3.1650000000e+003;3.2212819824e+003;3.3325642090e+003;3.1674357910e+003;3.2517949219e+003;3.2384614258e+003;3.2462819824e+003;3.2656411133e+003;3.1760256348e+003;3.1982050781e+003;3.2042307129e+003;3.2114101563e+003;3.1437180176e+003;
1.4218750000e+000;3.4238461914e+003;3.1426923828e+003;3.1982050781e+003;3.3088461914e+003;3.1567949219e+003;3.2392307129e+003;3.2250000000e+003;3.2280769043e+003;3.2456411133e+003;3.1557692871e+003;3.1744870605e+003;3.1819230957e+003;3.1882050781e+003;3.1165385742e+003;
1.4296875000e+000;3.3379487305e+003;3.0529487305e+003;3.1083332520e+003;3.2189743652e+003;3.0857692871e+003;3.1700000000e+003;3.1584614258e+003;3.1408974609e+003;3.1532050781e+003;3.0521794434e+003;3.0725642090e+003;3.0879487305e+003;3.0894870605e+003;3.0237180176e+003;
1.4375000000e+000;3.3433332520e+003;3.0516667480e+003;3.1111538086e+003;3.2193588867e+003;3.0832050781e+003;3.1739743652e+003;3.1603845215e+003;3.1400000000e+003;3.1484614258e+003;3.0483332520e+003;3.0693588867e+003;3.0876923828e+003;3.0870512695e+003;3.0241025391e+003;
1.4453125000e+000;3.3517949219e+003;3.0550000000e+003;3.1175642090e+003;3.2226923828e+003;3.0830769043e+003;3.1802563477e+003;3.1639743652e+003;3.1419230957e+003;3.1469230957e+003;3.0496154785e+003;3.0730769043e+003;3.0933332520e+003;3.0894870605e+003;3.0278205566e+003;
1.4531250000e+000;3.3575642090e+003;3.0596154785e+003;3.1210256348e+003;3.2250000000e+003;3.0825642090e+003;3.1846154785e+003;3.1662819824e+003;3.1416667480e+003;3.1456411133e+003;3.0505129395e+003;3.0793588867e+003;3.0994870605e+003;3.0923076172e+003;3.0302563477e+003;
1.4609375000e+000;3.3767949219e+003;3.0860256348e+003;3.1306411133e+003;3.2506411133e+003;3.1053845215e+003;3.1942307129e+003;3.1797436523e+003;3.1453845215e+003;3.1525642090e+003;3.0596154785e+003;3.1043588867e+003;3.1257692871e+003;3.1182050781e+003;3.0438461914e+003;
1.4687500000e+000;3.3923076172e+003;3.0975642090e+003;3.1442307129e+003;3.2623076172e+003;3.1228205566e+003;3.2010256348e+003;3.1865385742e+003;3.1526923828e+003;3.1556411133e+003;3.0678205566e+003;3.1115385742e+003;3.1379487305e+003;3.1294870605e+003;3.0553845215e+003;
1.4765625000e+000;3.5460256348e+003;3.2475642090e+003;3.2982050781e+003;3.4089743652e+003;3.2633332520e+003;3.3421794434e+003;3.3207692871e+003;3.2864101563e+003;3.2826923828e+003;3.2179487305e+003;3.2546154785e+003;3.2879487305e+003;3.2743588867e+003;3.2023076172e+003;
1.4843750000e+000;3.9235898438e+003;3.6473076172e+003;3.6828205566e+003;3.7802563477e+003;3.6500000000e+003;3.6896154785e+003;3.6820512695e+003;3.6567949219e+003;3.6611538086e+003;3.6166667480e+003;3.6552563477e+003;3.6752563477e+003;3.6733332520e+003;3.5908974609e+003;
1.4921875000e+000;4.1114101563e+003;3.8487180176e+003;3.8700000000e+003;3.9603845215e+003;3.8508974609e+003;3.8611538086e+003;3.8620512695e+003;3.8466667480e+003;3.8529487305e+003;3.8151281738e+003;3.8523076172e+003;3.8646154785e+003;3.8701281738e+003;3.7832050781e+003;
1.5000000000e+000;4.8156411133e+003;4.6070512695e+003;4.5943588867e+003;4.6611538086e+003;4.5916665039e+003;4.5606411133e+003;4.5700000000e+003;4.5901284180e+003;4.5920512695e+003;4.5829487305e+003;4.6028203125e+003;4.5983334961e+003;4.6052563477e+003;4.5082050781e+003;
1.5078125000e+000;5.0853847656e+003;4.9347436523e+003;4.9189741211e+003;4.9498715820e+003;4.9093588867e+003;4.8643588867e+003;4.8691025391e+003;4.9247436523e+003;4.9202563477e+003;4.9387177734e+003;4.9291025391e+003;4.9214101563e+003;4.9284614258e+003;4.8193588867e+003;
1.5156250000e+000;5.0634614258e+003;4.9275639648e+003;4.9108974609e+003;4.9344873047e+003;4.9078203125e+003;4.8597436523e+003;4.8656411133e+003;4.9150000000e+003;4.9097436523e+003;4.9284614258e+003;4.9124360352e+003;4.9091025391e+003;4.9197436523e+003;4.8089741211e+003;
1.5234375000e+000;5.0911538086e+003;4.9693588867e+003;4.9491025391e+003;4.9692309570e+003;4.9598715820e+003;4.9064101563e+003;4.9148715820e+003;4.9501284180e+003;4.9441025391e+003;4.9615385742e+003;4.9424360352e+003;4.9424360352e+003;4.9561538086e+003;4.8452563477e+003;
1.5312500000e+000;5.3879487305e+003;5.3039741211e+003;5.2673076172e+003;5.2812822266e+003;5.3106411133e+003;5.2376923828e+003;5.2489741211e+003;5.2685898438e+003;5.2600000000e+003;5.2864101563e+003;5.2646152344e+003;5.2534614258e+003;5.2743588867e+003;5.1584614258e+003;
1.5390625000e+000;5.7588461914e+003;5.7405126953e+003;5.6896152344e+003;5.6698715820e+003;5.7260258789e+003;5.6539741211e+003;5.6579487305e+003;5.6961538086e+003;5.6861538086e+003;5.7366665039e+003;5.7087177734e+003;5.6773076172e+003;5.7029487305e+003;5.5762822266e+003;
1.5468750000e+000;5.7782050781e+003;5.7766665039e+003;5.7251284180e+003;5.6971796875e+003;5.7579487305e+003;5.6894873047e+003;5.6915385742e+003;5.7302563477e+003;5.7196152344e+003;5.7732050781e+003;5.7408974609e+003;5.7123076172e+003;5.7367949219e+003;5.6107690430e+003;
1.5546875000e+000;5.9274360352e+003;5.9714101563e+003;5.9121796875e+003;5.8867949219e+003;5.9738461914e+003;5.8767949219e+003;5.8788461914e+003;5.9115385742e+003;5.8964101563e+003;5.9607690430e+003;5.9217949219e+003;5.8892309570e+003;5.9183334961e+003;5.7926923828e+003;
1.5625000000e+000;6.0133334961e+003;6.0744873047e+003;6.0128203125e+003;5.9851284180e+003;6.0810258789e+003;5.9716665039e+003;5.9728203125e+003;6.0079487305e+003;5.9923076172e+003;6.0646152344e+003;6.0246152344e+003;5.9882050781e+003;6.0212822266e+003;5.8929487305e+003;
1.5703125000e+000;6.0544873047e+003;6.1334614258e+003;6.0711538086e+003;6.0353847656e+003;6.1378203125e+003;6.0230771484e+003;6.0225639648e+003;6.0624360352e+003;6.0474360352e+003;6.1282050781e+003;6.0852563477e+003;6.0482050781e+003;6.0834614258e+003;5.9519228516e+003;
1.5781250000e+000;6.0008974609e+003;6.0948715820e+003;6.0360258789e+003;5.9892309570e+003;6.0920512695e+003;5.9833334961e+003;5.9792309570e+003;6.0257690430e+003;6.0116665039e+003;6.0989741211e+003;6.0521796875e+003;6.0176923828e+003;6.0505126953e+003;5.9179487305e+003;
1.5859375000e+000;4.8456411133e+003;4.9316665039e+003;4.9258974609e+003;4.8880771484e+003;4.9152563477e+003;4.8912822266e+003;4.8623076172e+003;4.9010258789e+003;4.8980771484e+003;4.9394873047e+003;4.9278203125e+003;4.9130771484e+003;4.9128203125e+003;4.8123076172e+003;
1.5937500000e+000;4.6298715820e+003;4.7082050781e+003;4.7062822266e+003;4.6828203125e+003;4.6964101563e+003;4.6783334961e+003;4.6497436523e+003;4.6771796875e+003;4.6767949219e+003;4.6997436523e+003;4.7023076172e+003;4.6893588867e+003;4.6937177734e+003;4.5971796875e+003;
1.6015625000e+000;4.3366665039e+003;4.3942309570e+003;4.3920512695e+003;4.4041025391e+003;4.3805126953e+003;4.3844873047e+003;4.3629487305e+003;4.3898715820e+003;4.3829487305e+003;4.3805126953e+003;4.3957690430e+003;4.3830771484e+003;4.3898715820e+003;4.3030771484e+003;
1.6093750000e+000;4.0385898438e+003;4.0547436523e+003;4.0819230957e+003;4.1085898438e+003;4.0496154785e+003;4.0744870605e+003;4.0614101563e+003;4.0955129395e+003;4.0874357910e+003;4.0550000000e+003;4.0626923828e+003;4.0620512695e+003;4.0657692871e+003;3.9851281738e+003;
1.6171875000e+000;3.9952563477e+003;4.0008974609e+003;4.0330769043e+003;4.0594870605e+003;4.0042307129e+003;4.0212819824e+003;4.0120512695e+003;4.0496154785e+003;4.0403845215e+003;4.0000000000e+003;4.0034614258e+003;4.0096154785e+003;4.0130769043e+003;3.9346154785e+003;
1.6250000000e+000;3.8632050781e+003;3.8535898438e+003;3.8769230957e+003;3.9185898438e+003;3.8575642090e+003;3.8761538086e+003;3.8716667480e+003;3.9046154785e+003;3.8884614258e+003;3.8376923828e+003;3.8576923828e+003;3.8582050781e+003;3.8561538086e+003;3.7867949219e+003;
1.6328125000e+000;3.8133332520e+003;3.7970512695e+003;3.8201281738e+003;3.8648718262e+003;3.7971794434e+003;3.8296154785e+003;3.8223076172e+003;3.8458974609e+003;3.8317949219e+003;3.7782050781e+003;3.8055129395e+003;3.8005129395e+003;3.8012819824e+003;3.7303845215e+003;
1.6406250000e+000;3.7798718262e+003;3.7424357910e+003;3.7752563477e+003;3.8187180176e+003;3.7470512695e+003;3.7969230957e+003;3.7852563477e+003;3.7907692871e+003;3.7870512695e+003;3.7251281738e+003;3.7492307129e+003;3.7500000000e+003;3.7557692871e+003;3.6812819824e+003;
1.6484375000e+000;3.8091025391e+003;3.7615385742e+003;3.7965385742e+003;3.8423076172e+003;3.7714101563e+003;3.8185898438e+003;3.8076923828e+003;3.8082050781e+003;3.8089743652e+003;3.7434614258e+003;3.7625642090e+003;3.7687180176e+003;3.7743588867e+003;3.7007692871e+003;
1.6562500000e+000;3.9710256348e+003;3.9165385742e+003;3.9375642090e+003;3.9905129395e+003;3.9252563477e+003;3.9552563477e+003;3.9446154785e+003;3.9458974609e+003;3.9475642090e+003;3.8897436523e+003;3.9043588867e+003;3.9048718262e+003;3.9119230957e+003;3.8398718262e+003;
1.6640625000e+000;3.9919230957e+003;3.9376923828e+003;3.9580769043e+003;4.0057692871e+003;3.9415385742e+003;3.9753845215e+003;3.9624357910e+003;3.9638461914e+003;3.9652563477e+003;3.9139743652e+003;3.9257692871e+003;3.9247436523e+003;3.9332050781e+003;3.8605129395e+003;
1.6718750000e+000;3.9964101563e+003;3.9401281738e+003;3.9624357910e+003;4.0041025391e+003;3.9392307129e+003;3.9801281738e+003;3.9648718262e+003;3.9641025391e+003;3.9675642090e+003;3.9208974609e+003;3.9303845215e+003;3.9288461914e+003;3.9383332520e+003;3.8657692871e+003;
1.6796875000e+000;3.9979487305e+003;3.9388461914e+003;3.9614101563e+003;4.0005129395e+003;3.9343588867e+003;3.9806411133e+003;3.9630769043e+003;3.9585898438e+003;3.9662819824e+003;3.9210256348e+003;3.9316667480e+003;3.9284614258e+003;3.9387180176e+003;3.8670512695e+003;
1.6875000000e+000;4.0125642090e+003;3.9497436523e+003;3.9615385742e+003;4.0183332520e+003;3.9517949219e+003;3.9725642090e+003;3.9560256348e+003;3.9420512695e+003;3.9492307129e+003;3.9076923828e+003;3.9341025391e+003;3.9307692871e+003;3.9387180176e+003;3.8711538086e+003;
1.6953125000e+000;4.0782050781e+003;4.0065385742e+003;4.0247436523e+003;4.0537180176e+003;3.9979487305e+003;4.0207692871e+003;4.0092307129e+003;4.0005129395e+003;3.9964101563e+003;3.9761538086e+003;3.9941025391e+003;3.9979487305e+003;4.0037180176e+003;3.9332050781e+003;
1.7031250000e+000;4.0852563477e+003;4.0116667480e+003;4.0293588867e+003;4.0582050781e+003;4.0010256348e+003;4.0261538086e+003;4.0141025391e+003;4.0044870605e+003;3.9976923828e+003;3.9766667480e+003;3.9993588867e+003;4.0060256348e+003;4.0101281738e+003;3.9419230957e+003;
1.7109375000e+000;4.1637177734e+003;4.0908974609e+003;4.1026923828e+003;4.1484614258e+003;4.0842307129e+003;4.0956411133e+003;4.0891025391e+003;4.0871794434e+003;4.0771794434e+003;4.0535898438e+003;4.0770512695e+003;4.0829487305e+003;4.0910256348e+003;4.0221794434e+003;
1.7187500000e+000;4.1803847656e+003;4.1105126953e+003;4.1297436523e+003;4.1619228516e+003;4.0979487305e+003;4.0914101563e+003;4.0925642090e+003;4.1325639648e+003;4.1193588867e+003;4.0879487305e+003;4.1129487305e+003;4.1101284180e+003;4.1107690430e+003;4.0434614258e+003;
1.7265625000e+000;4.1437177734e+003;4.0742307129e+003;4.0933332520e+003;4.1224360352e+003;4.0593588867e+003;4.0562819824e+003;4.0567949219e+003;4.0955129395e+003;4.0830769043e+003;4.0502563477e+003;4.0762819824e+003;4.0750000000e+003;4.0737180176e+003;4.0060256348e+003;
1.7343750000e+000;4.0779487305e+003;4.0089743652e+003;4.0279487305e+003;4.0687180176e+003;3.9980769043e+003;4.0032050781e+003;4.0057692871e+003;4.0343588867e+003;4.0257692871e+003;3.9902563477e+003;4.0083332520e+003;4.0123076172e+003;4.0130769043e+003;3.9428205566e+003;
1.7421875000e+000;4.0441025391e+003;3.9737180176e+003;3.9944870605e+003;4.0392307129e+003;3.9658974609e+003;3.9773076172e+003;3.9789743652e+003;4.0042307129e+003;3.9982050781e+003;3.9593588867e+003;3.9729487305e+003;3.9784614258e+003;3.9805129395e+003;3.9112819824e+003;
1.7500000000e+000;3.9307692871e+003;3.8482050781e+003;3.8746154785e+003;3.9091025391e+003;3.8385898438e+003;3.8806411133e+003;3.8684614258e+003;3.8883332520e+003;3.8942307129e+003;3.8388461914e+003;3.8585898438e+003;3.8570512695e+003;3.8555129395e+003;3.7961538086e+003;
1.7578125000e+000;3.8901281738e+003;3.8023076172e+003;3.8312819824e+003;3.8667949219e+003;3.7919230957e+003;3.8435898438e+003;3.8289743652e+003;3.8424357910e+003;3.8530769043e+003;3.7935898438e+003;3.8175642090e+003;3.8142307129e+003;3.8114101563e+003;3.7538461914e+003;
1.7656250000e+000;3.8360256348e+003;3.7435898438e+003;3.7738461914e+003;3.8203845215e+003;3.7396154785e+003;3.7930769043e+003;3.7789743652e+003;3.7774357910e+003;3.7951281738e+003;3.7362819824e+003;3.7593588867e+003;3.7551281738e+003;3.7607692871e+003;3.7000000000e+003;
1.7734375000e+000;3.8323076172e+003;3.7407692871e+003;3.7684614258e+003;3.8183332520e+003;3.7429487305e+003;3.7905129395e+003;3.7760256348e+003;3.7700000000e+003;3.7889743652e+003;3.7330769043e+003;3.7516667480e+003;3.7488461914e+003;3.7605129395e+003;3.6970512695e+003;
1.7812500000e+000;3.8678205566e+003;3.7660256348e+003;3.7992307129e+003;3.8364101563e+003;3.7803845215e+003;3.8278205566e+003;3.8055129395e+003;3.7867949219e+003;3.8038461914e+003;3.7489743652e+003;3.7639743652e+003;3.7796154785e+003;3.7728205566e+003;3.7225642090e+003;
1.7890625000e+000;3.8884614258e+003;3.7798718262e+003;3.8175642090e+003;3.8519230957e+003;3.7947436523e+003;3.8444870605e+003;3.8215385742e+003;3.7994870605e+003;3.8146154785e+003;3.7597436523e+003;3.7785898438e+003;3.7961538086e+003;3.7835898438e+003;3.7376923828e+003;
1.7968750000e+000;3.9094870605e+003;3.7987180176e+003;3.8370512695e+003;3.8723076172e+003;3.8134614258e+003;3.8605129395e+003;3.8392307129e+003;3.8176923828e+003;3.8292307129e+003;3.7773076172e+003;3.7998718262e+003;3.8137180176e+003;3.8039743652e+003;3.7564101563e+003;
1.8046875000e+000;3.9273076172e+003;3.8210256348e+003;3.8544870605e+003;3.8916667480e+003;3.8344870605e+003;3.8750000000e+003;3.8573076172e+003;3.8387180176e+003;3.8451281738e+003;3.7992307129e+003;3.8252563477e+003;3.8312819824e+003;3.8297436523e+003;3.7758974609e+003;
1.8125000000e+000;4.1380771484e+003;4.0532050781e+003;4.0605129395e+003;4.0871794434e+003;4.0544870605e+003;4.0783332520e+003;4.0719230957e+003;4.0667949219e+003;4.0560256348e+003;4.0273076172e+003;4.0558974609e+003;4.0514101563e+003;4.0542307129e+003;3.9892307129e+003;
1.8203125000e+000;4.2234614258e+003;4.1342309570e+003;4.1462822266e+003;4.1721796875e+003;4.1358974609e+003;4.1537177734e+003;4.1492309570e+003;4.1548715820e+003;4.1411538086e+003;4.1144873047e+003;4.1319228516e+003;4.1367949219e+003;4.1371796875e+003;4.0741025391e+003;
1.8281250000e+000;4.3287177734e+003;4.2491025391e+003;4.2620512695e+003;4.2838461914e+003;4.2382050781e+003;4.2483334961e+003;4.2512822266e+003;4.2779487305e+003;4.2603847656e+003;4.2447436523e+003;4.2485898438e+003;4.2520512695e+003;4.2612822266e+003;4.1934614258e+003;
1.8359375000e+000;4.4010258789e+003;4.3425639648e+003;4.3416665039e+003;4.3498715820e+003;4.3220512695e+003;4.3357690430e+003;4.3376923828e+003;4.3667949219e+003;4.3607690430e+003;4.3385898438e+003;4.3512822266e+003;4.3342309570e+003;4.3497436523e+003;4.2764101563e+003;
1.8437500000e+000;4.4282050781e+003;4.3716665039e+003;4.3715385742e+003;4.3769228516e+003;4.3547436523e+003;4.3576923828e+003;4.3620512695e+003;4.3932050781e+003;4.3903847656e+003;4.3669228516e+003;4.3757690430e+003;4.3655126953e+003;4.3760258789e+003;4.3060258789e+003;
1.8515625000e+000;4.4525639648e+003;4.4075639648e+003;4.4020512695e+003;4.4028203125e+003;4.3967949219e+003;4.3750000000e+003;4.3725639648e+003;4.4055126953e+003;4.4053847656e+003;4.3919228516e+003;4.3971796875e+003;4.3948715820e+003;4.3970512695e+003;4.3315385742e+003;
1.8593750000e+000;4.3333334961e+003;4.2830771484e+003;4.2933334961e+003;4.2878203125e+003;4.2785898438e+003;4.2880771484e+003;4.2752563477e+003;4.2851284180e+003;4.2921796875e+003;4.2705126953e+003;4.2723076172e+003;4.2698715820e+003;4.2857690430e+003;4.2124360352e+003;
1.8671875000e+000;4.3194873047e+003;4.2696152344e+003;4.2806411133e+003;4.2803847656e+003;4.2693588867e+003;4.2824360352e+003;4.2707690430e+003;4.2720512695e+003;4.2838461914e+003;4.2578203125e+003;4.2579487305e+003;4.2546152344e+003;4.2744873047e+003;4.1989741211e+003;
1.8750000000e+000;4.3529487305e+003;4.3220512695e+003;4.3103847656e+003;4.3269228516e+003;4.3234614258e+003;4.3433334961e+003;4.3271796875e+003;4.3216665039e+003;4.3334614258e+003;4.3075639648e+003;4.3125639648e+003;4.2966665039e+003;4.3103847656e+003;4.2380771484e+003;
1.8828125000e+000;4.3728203125e+003;4.3435898438e+003;4.3308974609e+003;4.3432050781e+003;4.3444873047e+003;4.3707690430e+003;4.3525639648e+003;4.3474360352e+003;4.3533334961e+003;4.3303847656e+003;4.3337177734e+003;4.3183334961e+003;4.3314101563e+003;4.2601284180e+003;
1.8906250000e+000;4.4765385742e+003;4.4447436523e+003;4.4365385742e+003;4.4364101563e+003;4.4482050781e+003;4.4693588867e+003;4.4576923828e+003;4.4521796875e+003;4.4479487305e+003;4.4342309570e+003;4.4273076172e+003;4.4208974609e+003;4.4367949219e+003;4.3621796875e+003;
1.8984375000e+000;4.5442309570e+003;4.5126923828e+003;4.5042309570e+003;4.5015385742e+003;4.5152563477e+003;4.5276923828e+003;4.5211538086e+003;4.5167949219e+003;4.5110258789e+003;4.5012822266e+003;4.4925639648e+003;4.4897436523e+003;4.5042309570e+003;4.4280771484e+003;
1.9062500000e+000;4.5602563477e+003;4.5358974609e+003;4.5316665039e+003;4.5188461914e+003;4.5266665039e+003;4.5344873047e+003;4.5292309570e+003;4.5417949219e+003;4.5360258789e+003;4.5267949219e+003;4.5273076172e+003;4.5184614258e+003;4.5244873047e+003;4.4511538086e+003;
1.9140625000e+000;4.4876923828e+003;4.4667949219e+003;4.4673076172e+003;4.4502563477e+003;4.4576923828e+003;4.4660258789e+003;4.4607690430e+003;4.4802563477e+003;4.4724360352e+003;4.4634614258e+003;4.4632050781e+003;4.4510258789e+003;4.4573076172e+003;4.3844873047e+003;
1.9218750000e+000;4.3891025391e+003;4.3707690430e+003;4.3756411133e+003;4.3585898438e+003;4.3642309570e+003;4.3708974609e+003;4.3673076172e+003;4.3912822266e+003;4.3815385742e+003;4.3723076172e+003;4.3712822266e+003;4.3579487305e+003;4.3643588867e+003;4.2919228516e+003;
1.9296875000e+000;4.2792309570e+003;4.2607690430e+003;4.2697436523e+003;4.2557690430e+003;4.2573076172e+003;4.2615385742e+003;4.2601284180e+003;4.2848715820e+003;4.2757690430e+003;4.2633334961e+003;4.2644873047e+003;4.2528203125e+003;4.2582050781e+003;4.1866665039e+003;
1.9375000000e+000;3.9403845215e+003;3.8892307129e+003;3.9191025391e+003;3.9141025391e+003;3.8838461914e+003;3.9110256348e+003;3.9047436523e+003;3.9311538086e+003;3.9328205566e+003;3.8897436523e+003;3.8992307129e+003;3.9102563477e+003;3.9060256348e+003;3.8453845215e+003;
1.9453125000e+000;3.8655129395e+003;3.8058974609e+003;3.8402563477e+003;3.8406411133e+003;3.7992307129e+003;3.8374357910e+003;3.8293588867e+003;3.8571794434e+003;3.8552563477e+003;3.8092307129e+003;3.8176923828e+003;3.8338461914e+003;3.8276923828e+003;3.7682050781e+003;
1.9531250000e+000;3.6987180176e+003;3.6214101563e+003;3.6601281738e+003;3.6766667480e+003;3.6151281738e+003;3.6676923828e+003;3.6555129395e+003;3.6701281738e+003;3.6694870605e+003;3.6200000000e+003;3.6461538086e+003;3.6473076172e+003;3.6462819824e+003;3.5861538086e+003;
1.9609375000e+000;3.6050000000e+003;3.5179487305e+003;3.5487180176e+003;3.5798718262e+003;3.5192307129e+003;3.5692307129e+003;3.5467949219e+003;3.5498718262e+003;3.5689743652e+003;3.5070512695e+003;3.5260256348e+003;3.5311538086e+003;3.5352563477e+003;3.4796154785e+003;
1.9687500000e+000;3.5857692871e+003;3.4957692871e+003;3.5228205566e+003;3.5566667480e+003;3.4998718262e+003;3.5460256348e+003;3.5264101563e+003;3.5256411133e+003;3.5458974609e+003;3.4812819824e+003;3.4944870605e+003;3.5080769043e+003;3.5111538086e+003;3.4570512695e+003;
1.9765625000e+000;3.5407692871e+003;3.4197436523e+003;3.4644870605e+003;3.4910256348e+003;3.4216667480e+003;3.4942307129e+003;3.4791025391e+003;3.4630769043e+003;3.4735898438e+003;3.4116667480e+003;3.4294870605e+003;3.4546154785e+003;3.4410256348e+003;3.3992307129e+003;
1.9843750000e+000;3.5097436523e+003;3.3779487305e+003;3.4144870605e+003;3.4566667480e+003;3.3889743652e+003;3.4600000000e+003;3.4435898438e+003;3.4179487305e+003;3.4257692871e+003;3.3674357910e+003;3.3897436523e+003;3.4061538086e+003;3.3976923828e+003;3.3565385742e+003;
1.9921875000e+000;3.5178205566e+003;3.3841025391e+003;3.4182050781e+003;3.4628205566e+003;3.4024357910e+003;3.4641025391e+003;3.4516667480e+003;3.4276923828e+003;3.4325642090e+003;3.3746154785e+003;3.3980769043e+003;3.4096154785e+003;3.4035898438e+003;3.3605129395e+003;
2.0000000000e+000;3.5251281738e+003;3.3847436523e+003;3.4235898438e+003;3.4687180176e+003;3.4101281738e+003;3.4660256348e+003;3.4573076172e+003;3.4355129395e+003;3.4365385742e+003;3.3776923828e+003;3.4033332520e+003;3.4124357910e+003;3.4042307129e+003;3.3626923828e+003;
2.0078125000e+000;3.5501281738e+003;3.3970512695e+003;3.4433332520e+003;3.4946154785e+003;3.4216667480e+003;3.4816667480e+003;3.4746154785e+003;3.4520512695e+003;3.4496154785e+003;3.3880769043e+003;3.4133332520e+003;3.4248718262e+003;3.4128205566e+003;3.3771794434e+003;
2.0156250000e+000;3.6003845215e+003;3.4564101563e+003;3.4834614258e+003;3.5215385742e+003;3.4539743652e+003;3.5306411133e+003;3.5164101563e+003;3.4975642090e+003;3.5007692871e+003;3.4473076172e+003;3.4598718262e+003;3.4733332520e+003;3.4732050781e+003;3.4279487305e+003;
2.0234375000e+000;3.5975642090e+003;3.4506411133e+003;3.4785898438e+003;3.5089743652e+003;3.4532050781e+003;3.5215385742e+003;3.5091025391e+003;3.4928205566e+003;3.4962819824e+003;3.4465385742e+003;3.4601281738e+003;3.4705129395e+003;3.4701281738e+003;3.4233332520e+003;
2.0312500000e+000;3.6083332520e+003;3.4551281738e+003;3.4848718262e+003;3.5170512695e+003;3.4682050781e+003;3.5205129395e+003;3.5124357910e+003;3.4967949219e+003;3.5007692871e+003;3.4530769043e+003;3.4702563477e+003;3.4770512695e+003;3.4752563477e+003;3.4284614258e+003;
2.0390625000e+000;3.7430769043e+003;3.5864101563e+003;3.6084614258e+003;3.6621794434e+003;3.6057692871e+003;3.6301281738e+003;3.6284614258e+003;3.6119230957e+003;3.6206411133e+003;3.5746154785e+003;3.5991025391e+003;3.6023076172e+003;3.6000000000e+003;3.5521794434e+003;
2.0468750000e+000;3.8583332520e+003;3.7065385742e+003;3.7229487305e+003;3.7793588867e+003;3.7174357910e+003;3.7384614258e+003;3.7364101563e+003;3.7221794434e+003;3.7332050781e+003;3.6911538086e+003;3.7138461914e+003;3.7196154785e+003;3.7165385742e+003;3.6671794434e+003;
2.0546875000e+000;3.9782050781e+003;3.8320512695e+003;3.8461538086e+003;3.8941025391e+003;3.8334614258e+003;3.8550000000e+003;3.8514101563e+003;3.8430769043e+003;3.8541025391e+003;3.8193588867e+003;3.8350000000e+003;3.8450000000e+003;3.8406411133e+003;3.7900000000e+003;
2.0625000000e+000;4.4300000000e+003;4.3070512695e+003;4.3058974609e+003;4.3105126953e+003;4.3146152344e+003;4.3005126953e+003;4.3024360352e+003;4.3098715820e+003;4.3214101563e+003;4.3094873047e+003;4.3087177734e+003;4.3067949219e+003;4.3033334961e+003;4.2480771484e+003;
2.0703125000e+000;4.5216665039e+003;4.4087177734e+003;4.4047436523e+003;4.4039741211e+003;4.4133334961e+003;4.4003847656e+003;4.4008974609e+003;4.4082050781e+003;4.4230771484e+003;4.4126923828e+003;4.4107690430e+003;4.4034614258e+003;4.4042309570e+003;4.3437177734e+003;
2.0781250000e+000;4.4857690430e+003;4.4061538086e+003;4.4005126953e+003;4.3983334961e+003;4.3932050781e+003;4.4102563477e+003;4.3996152344e+003;4.4208974609e+003;4.4329487305e+003;4.4317949219e+003;4.4030771484e+003;4.4005126953e+003;4.4030771484e+003;4.3301284180e+003;
2.0859375000e+000;4.2441025391e+003;4.1624360352e+003;4.1714101563e+003;4.1569228516e+003;4.1767949219e+003;4.1876923828e+003;4.1775639648e+003;4.1779487305e+003;4.1842309570e+003;4.1671796875e+003;4.1502563477e+003;4.1608974609e+003;4.1503847656e+003;4.0883332520e+003;
2.0937500000e+000;4.2194873047e+003;4.1352563477e+003;4.1479487305e+003;4.1302563477e+003;4.1600000000e+003;4.1617949219e+003;4.1530771484e+003;4.1510258789e+003;4.1557690430e+003;4.1352563477e+003;4.1250000000e+003;4.1344873047e+003;4.1235898438e+003;4.0635898438e+003;
2.1015625000e+000;4.0666667480e+003;3.9869230957e+003;3.9996154785e+003;4.0132050781e+003;3.9984614258e+003;4.0166667480e+003;4.0084614258e+003;4.0069230957e+003;4.0070512695e+003;3.9866667480e+003;3.9856411133e+003;3.9952563477e+003;3.9741025391e+003;3.9234614258e+003;
2.1093750000e+000;3.9621794434e+003;3.8725642090e+003;3.8837180176e+003;3.9037180176e+003;3.8746154785e+003;3.9046154785e+003;3.8919230957e+003;3.8825642090e+003;3.8888461914e+003;3.8625642090e+003;3.8667949219e+003;3.8837180176e+003;3.8642307129e+003;3.8101281738e+003;
2.1171875000e+000;3.9475642090e+003;3.8467949219e+003;3.8697436523e+003;3.8767949219e+003;3.8501281738e+003;3.8820512695e+003;3.8707692871e+003;3.8580769043e+003;3.8666667480e+003;3.8371794434e+003;3.8433332520e+003;3.8656411133e+003;3.8480769043e+003;3.7934614258e+003;
2.1250000000e+000;3.9558974609e+003;3.8443588867e+003;3.8794870605e+003;3.8746154785e+003;3.8462819824e+003;3.8821794434e+003;3.8742307129e+003;3.8567949219e+003;3.8680769043e+003;3.8366667480e+003;3.8455129395e+003;3.8717949219e+003;3.8535898438e+003;3.8006411133e+003;
2.1328125000e+000;4.0914101563e+003;3.9782050781e+003;4.0102563477e+003;4.0021794434e+003;3.9744870605e+003;4.0037180176e+003;4.0028205566e+003;3.9826923828e+003;4.0006411133e+003;3.9733332520e+003;3.9824357910e+003;4.0055129395e+003;3.9852563477e+003;3.9352563477e+003;
2.1406250000e+000;4.3125639648e+003;4.2389741211e+003;4.2229487305e+003;4.2251284180e+003;4.2332050781e+003;4.2130771484e+003;4.2180771484e+003;4.2282050781e+003;4.2429487305e+003;4.2338461914e+003;4.2343588867e+003;4.2380771484e+003;4.2308974609e+003;4.1675639648e+003;
2.1484375000e+000;4.2985898438e+003;4.2298715820e+003;4.2147436523e+003;4.2121796875e+003;4.2255126953e+003;4.2007690430e+003;4.2058974609e+003;4.2253847656e+003;4.2370512695e+003;4.2298715820e+003;4.2330771484e+003;4.2310258789e+003;4.2257690430e+003;4.1592309570e+003;
2.1562500000e+000;4.2456411133e+003;4.1734614258e+003;4.1702563477e+003;4.1620512695e+003;4.1724360352e+003;4.1532050781e+003;4.1575639648e+003;4.1816665039e+003;4.1916665039e+003;4.1817949219e+003;4.1871796875e+003;4.1834614258e+003;4.1760258789e+003;4.1105126953e+003;
2.1640625000e+000;4.1265385742e+003;4.0400000000e+003;4.0601281738e+003;4.0525642090e+003;4.0474357910e+003;4.0483332520e+003;4.0503845215e+003;4.0700000000e+003;4.0802563477e+003;4.0569230957e+003;4.0544870605e+003;4.0646154785e+003;4.0465385742e+003;3.9914101563e+003;
2.1718750000e+000;4.1048715820e+003;4.0178205566e+003;4.0364101563e+003;4.0348718262e+003;4.0270512695e+003;4.0308974609e+003;4.0328205566e+003;4.0476923828e+003;4.0579487305e+003;4.0302563477e+003;4.0212819824e+003;4.0392307129e+003;4.0196154785e+003;3.9676923828e+003;
2.1796875000e+000;4.1074360352e+003;4.0250000000e+003;4.0364101563e+003;4.0389743652e+003;4.0328205566e+003;4.0360256348e+003;4.0379487305e+003;4.0503845215e+003;4.0594870605e+003;4.0320512695e+003;4.0189743652e+003;4.0393588867e+003;4.0230769043e+003;3.9700000000e+003;
2.1875000000e+000;4.0834614258e+003;4.0044870605e+003;4.0126923828e+003;4.0162819824e+003;4.0101281738e+003;4.0394870605e+003;4.0379487305e+003;4.0302563477e+003;4.0476923828e+003;4.0191025391e+003;4.0167949219e+003;4.0155129395e+003;4.0191025391e+003;3.9541025391e+003;
2.1953125000e+000;4.1476923828e+003;4.0742307129e+003;4.0757692871e+003;4.0821794434e+003;4.0855129395e+003;4.0998715820e+003;4.1000000000e+003;4.0912819824e+003;4.1107690430e+003;4.0823076172e+003;4.0796154785e+003;4.0789743652e+003;4.0810256348e+003;4.0170512695e+003;
2.2031250000e+000;4.2516665039e+003;4.1874360352e+003;4.1866665039e+003;4.1838461914e+003;4.1914101563e+003;4.1926923828e+003;4.1928203125e+003;4.1943588867e+003;4.2035898438e+003;4.1917949219e+003;4.1789741211e+003;4.1980771484e+003;4.1778203125e+003;4.1244873047e+003;
2.2109375000e+000;4.0832050781e+003;4.0174357910e+003;4.0232050781e+003;4.0125642090e+003;4.0211538086e+003;4.0315385742e+003;4.0291025391e+003;4.0206411133e+003;4.0326923828e+003;4.0219230957e+003;4.0160256348e+003;4.0262819824e+003;4.0153845215e+003;3.9596154785e+003;
2.2187500000e+000;4.0300000000e+003;3.9650000000e+003;3.9734614258e+003;3.9639743652e+003;3.9720512695e+003;3.9789743652e+003;3.9787180176e+003;3.9638461914e+003;3.9791025391e+003;3.9641025391e+003;3.9661538086e+003;3.9732050781e+003;3.9647436523e+003;3.9085898438e+003;
2.2265625000e+000;4.0083332520e+003;3.9375642090e+003;3.9510256348e+003;3.9610256348e+003;3.9314101563e+003;3.9444870605e+003;3.9428205566e+003;3.9334614258e+003;3.9439743652e+003;3.9311538086e+003;3.9379487305e+003;3.9512819824e+003;3.9441025391e+003;3.8896154785e+003;
2.2343750000e+000;3.9424357910e+003;3.8564101563e+003;3.8764101563e+003;3.8762819824e+003;3.8475642090e+003;3.8643588867e+003;3.8620512695e+003;3.8711538086e+003;3.8738461914e+003;3.8608974609e+003;3.8658974609e+003;3.8848718262e+003;3.8707692871e+003;3.8244870605e+003;
2.2421875000e+000;3.9161538086e+003;3.8296154785e+003;3.8480769043e+003;3.8496154785e+003;3.8251281738e+003;3.8360256348e+003;3.8376923828e+003;3.8479487305e+003;3.8524357910e+003;3.8317949219e+003;3.8424357910e+003;3.8588461914e+003;3.8424357910e+003;3.7984614258e+003;
2.2500000000e+000;3.9169230957e+003;3.8324357910e+003;3.8466667480e+003;3.8542307129e+003;3.8310256348e+003;3.8365385742e+003;3.8419230957e+003;3.8525642090e+003;3.8596154785e+003;3.8333332520e+003;3.8464101563e+003;3.8591025391e+003;3.8434614258e+003;3.7993588867e+003;
2.2578125000e+000;3.9551281738e+003;3.8700000000e+003;3.8838461914e+003;3.8965385742e+003;3.8747436523e+003;3.8760256348e+003;3.8825642090e+003;3.8961538086e+003;3.9058974609e+003;3.8805129395e+003;3.8867949219e+003;3.8935898438e+003;3.8866667480e+003;3.8367949219e+003;
2.2656250000e+000;3.9451281738e+003;3.8558974609e+003;3.8753845215e+003;3.8830769043e+003;3.8647436523e+003;3.8671794434e+003;3.8711538086e+003;3.8876923828e+003;3.8976923828e+003;3.8738461914e+003;3.8757692871e+003;3.8805129395e+003;3.8783332520e+003;3.8262819824e+003;
2.2734375000e+000;3.8320512695e+003;3.7385898438e+003;3.7626923828e+003;3.7661538086e+003;3.7511538086e+003;3.7655129395e+003;3.7628205566e+003;3.7810256348e+003;3.7923076172e+003;3.7603845215e+003;3.7611538086e+003;3.7652563477e+003;3.7638461914e+003;3.7126923828e+003;
2.2812500000e+000;3.7694870605e+003;3.6764101563e+003;3.6976923828e+003;3.7089743652e+003;3.6898718262e+003;3.7116667480e+003;3.7079487305e+003;3.7202563477e+003;3.7321794434e+003;3.6938461914e+003;3.6971794434e+003;3.7035898438e+003;3.6974357910e+003;3.6497436523e+003;
2.2890625000e+000;3.8460256348e+003;3.7510256348e+003;3.7624357910e+003;3.7926923828e+003;3.7707692871e+003;3.7882050781e+003;3.7903845215e+003;3.7744870605e+003;3.7898718262e+003;3.7521794434e+003;3.7573076172e+003;3.7624357910e+003;3.7574357910e+003;3.7178205566e+003;
2.2968750000e+000;3.9323076172e+003;3.8397436523e+003;3.8464101563e+003;3.8715385742e+003;3.8570512695e+003;3.8701281738e+003;3.8714101563e+003;3.8557692871e+003;3.8716667480e+003;3.8410256348e+003;3.8416667480e+003;3.8411538086e+003;3.8439743652e+003;3.8011538086e+003;
2.3046875000e+000;3.9930769043e+003;3.9052563477e+003;3.9065385742e+003;3.9269230957e+003;3.9178205566e+003;3.9321794434e+003;3.9297436523e+003;3.9185898438e+003;3.9330769043e+003;3.9102563477e+003;3.9056411133e+003;3.9015385742e+003;3.9092307129e+003;3.8620512695e+003;
2.3125000000e+000;4.0171794434e+003;3.9350000000e+003;3.9312819824e+003;3.9511538086e+003;3.9423076172e+003;3.9634614258e+003;3.9569230957e+003;3.9487180176e+003;3.9601281738e+003;3.9435898438e+003;3.9360256348e+003;3.9319230957e+003;3.9388461914e+003;3.8893588867e+003;
2.3203125000e+000;4.5069228516e+003;4.4466665039e+003;4.4202563477e+003;4.4228203125e+003;4.4614101563e+003;4.4311538086e+003;4.4465385742e+003;4.4160258789e+003;4.4185898438e+003;4.4228203125e+003;4.4237177734e+003;4.4191025391e+003;4.4287177734e+003;4.3764101563e+003;
2.3281250000e+000;5.3488461914e+003;5.3647436523e+003;5.3016665039e+003;5.2698715820e+003;5.3467949219e+003;5.2601284180e+003;5.2724360352e+003;5.2921796875e+003;5.2860258789e+003;5.3583334961e+003;5.3352563477e+003;5.3114101563e+003;5.3275639648e+003;5.2555126953e+003;
2.3359375000e+000;5.3647436523e+003;5.4011538086e+003;5.3310258789e+003;5.2975639648e+003;5.3791025391e+003;5.2885898438e+003;5.3008974609e+003;5.3269228516e+003;5.3203847656e+003;5.3996152344e+003;5.3732050781e+003;5.3452563477e+003;5.3615385742e+003;5.2846152344e+003;
2.3437500000e+000;5.3506411133e+003;5.4142309570e+003;5.3429487305e+003;5.2970512695e+003;5.3906411133e+003;5.2915385742e+003;5.3084614258e+003;5.3351284180e+003;5.3289741211e+003;5.4087177734e+003;5.3798715820e+003;5.3497436523e+003;5.3698715820e+003;5.2873076172e+003;
2.3515625000e+000;5.2807690430e+003;5.3694873047e+003;5.3251284180e+003;5.2351284180e+003;5.3419228516e+003;5.2584614258e+003;5.2610258789e+003;5.3225639648e+003;5.3161538086e+003;5.3839741211e+003;5.3403847656e+003;5.3206411133e+003;5.3297436523e+003;5.2569228516e+003;
2.3593750000e+000;5.1117949219e+003;5.2062822266e+003;5.1653847656e+003;5.0815385742e+003;5.1870512695e+003;5.1038461914e+003;5.1061538086e+003;5.1700000000e+003;5.1655126953e+003;5.2225639648e+003;5.1782050781e+003;5.1643588867e+003;5.1708974609e+003;5.0987177734e+003;
2.3671875000e+000;4.7562822266e+003;4.8555126953e+003;4.8156411133e+003;4.7621796875e+003;4.8483334961e+003;4.7760258789e+003;4.7820512695e+003;4.8294873047e+003;4.8302563477e+003;4.8653847656e+003;4.8303847656e+003;4.8162822266e+003;4.8310258789e+003;4.7551284180e+003;
2.3750000000e+000;4.6291025391e+003;4.7273076172e+003;4.6876923828e+003;4.6488461914e+003;4.7216665039e+003;4.6626923828e+003;4.6671796875e+003;4.7069228516e+003;4.7094873047e+003;4.7369228516e+003;4.7087177734e+003;4.6893588867e+003;4.7075639648e+003;4.6325639648e+003;
2.3828125000e+000;4.3238461914e+003;4.4055126953e+003;4.3766665039e+003;4.3450000000e+003;4.4052563477e+003;4.3856411133e+003;4.3803847656e+003;4.4062822266e+003;4.4103847656e+003;4.4120512695e+003;4.3994873047e+003;4.3898715820e+003;4.3887177734e+003;4.3337177734e+003;
2.3906250000e+000;4.2501284180e+003;4.3248715820e+003;4.2991025391e+003;4.2680771484e+003;4.3283334961e+003;4.3117949219e+003;4.3074360352e+003;4.3251284180e+003;4.3291025391e+003;4.3235898438e+003;4.3111538086e+003;4.3111538086e+003;4.3078203125e+003;4.2555126953e+003;
2.3984375000e+000;4.1971796875e+003;4.2648715820e+003;4.2379487305e+003;4.2162822266e+003;4.2651284180e+003;4.2552563477e+003;4.2525639648e+003;4.2552563477e+003;4.2601284180e+003;4.2507690430e+003;4.2392309570e+003;4.2415385742e+003;4.2478203125e+003;4.1924360352e+003;
2.4062500000e+000;4.2008974609e+003;4.2653847656e+003;4.2382050781e+003;4.2174360352e+003;4.2616665039e+003;4.2585898438e+003;4.2543588867e+003;4.2526923828e+003;4.2588461914e+003;4.2498715820e+003;4.2437177734e+003;4.2382050781e+003;4.2493588867e+003;4.1930771484e+003;
2.4140625000e+000;4.2302563477e+003;4.2725639648e+003;4.2570512695e+003;4.2332050781e+003;4.2738461914e+003;4.2747436523e+003;4.2676923828e+003;4.2707690430e+003;4.2752563477e+003;4.2671796875e+003;4.2716665039e+003;4.2558974609e+003;4.2671796875e+003;4.2133334961e+003;
2.4218750000e+000;4.2108974609e+003;4.2487177734e+003;4.2378203125e+003;4.2183334961e+003;4.2508974609e+003;4.2512822266e+003;4.2461538086e+003;4.2511538086e+003;4.2523076172e+003;4.2457690430e+003;4.2470512695e+003;4.2380771484e+003;4.2461538086e+003;4.1919228516e+003;
2.4296875000e+000;4.1788461914e+003;4.2164101563e+003;4.2087177734e+003;4.1914101563e+003;4.2185898438e+003;4.2182050781e+003;4.2156411133e+003;4.2180771484e+003;4.2162822266e+003;4.2120512695e+003;4.2098715820e+003;4.2087177734e+003;4.2139741211e+003;4.1593588867e+003;
2.4375000000e+000;4.2452563477e+003;4.2746152344e+003;4.2647436523e+003;4.2397436523e+003;4.2811538086e+003;4.2512822266e+003;4.2565385742e+003;4.2621796875e+003;4.2623076172e+003;4.2567949219e+003;4.2706411133e+003;4.2620512695e+003;4.2683334961e+003;4.2219228516e+003;
2.4453125000e+000;4.2798715820e+003;4.3076923828e+003;4.2957690430e+003;4.2752563477e+003;4.3089741211e+003;4.2776923828e+003;4.2848715820e+003;4.2934614258e+003;4.2939741211e+003;4.2882050781e+003;4.3037177734e+003;4.2946152344e+003;4.3000000000e+003;4.2542309570e+003;
2.4531250000e+000;4.4503847656e+003;4.4908974609e+003;4.4758974609e+003;4.4525639648e+003;4.4760258789e+003;4.4424360352e+003;4.4582050781e+003;4.4725639648e+003;4.4723076172e+003;4.4815385742e+003;4.4865385742e+003;4.4739741211e+003;4.4803847656e+003;4.4302563477e+003;
2.4609375000e+000;4.4184614258e+003;4.4576923828e+003;4.4487177734e+003;4.4101284180e+003;4.4467949219e+003;4.4210258789e+003;4.4344873047e+003;4.4607690430e+003;4.4612822266e+003;4.4673076172e+003;4.4529487305e+003;4.4525639648e+003;4.4589741211e+003;4.4087177734e+003;
2.4687500000e+000;4.3787177734e+003;4.4164101563e+003;4.4052563477e+003;4.3628203125e+003;4.4115385742e+003;4.3829487305e+003;4.3951284180e+003;4.4219228516e+003;4.4239741211e+003;4.4244873047e+003;4.4107690430e+003;4.4101284180e+003;4.4170512695e+003;4.3652563477e+003;
2.4765625000e+000;4.3760258789e+003;4.4143588867e+003;4.4032050781e+003;4.3597436523e+003;4.4185898438e+003;4.3850000000e+003;4.4023076172e+003;4.4117949219e+003;4.4144873047e+003;4.4110258789e+003;4.4165385742e+003;4.4017949219e+003;4.4117949219e+003;4.3605126953e+003;
2.4843750000e+000;4.4367949219e+003;4.4791025391e+003;4.4644873047e+003;4.4232050781e+003;4.4797436523e+003;4.4474360352e+003;4.4651284180e+003;4.4696152344e+003;4.4721796875e+003;4.4730771484e+003;4.4789741211e+003;4.4578203125e+003;4.4764101563e+003;4.4216665039e+003;
2.4921875000e+000;4.5374360352e+003;4.5857690430e+003;4.5641025391e+003;4.5134614258e+003;4.5842309570e+003;4.5558974609e+003;4.5680771484e+003;4.5720512695e+003;4.5764101563e+003;4.5842309570e+003;4.5780771484e+003;4.5510258789e+003;4.5815385742e+003;4.5184614258e+003;
2.5000000000e+000;4.5279487305e+003;4.5743588867e+003;4.5561538086e+003;4.4966665039e+003;4.5758974609e+003;4.5532050781e+003;4.5623076172e+003;4.5678203125e+003;4.5735898438e+003;4.5787177734e+003;4.5664101563e+003;4.5437177734e+003;4.5689741211e+003;4.5075639648e+003;
2.5078125000e+000;4.3484614258e+003;4.3901284180e+003;4.3873076172e+003;4.3260258789e+003;4.3923076172e+003;4.4008974609e+003;4.4026923828e+003;4.4105126953e+003;4.4176923828e+003;4.4015385742e+003;4.3885898438e+003;4.3830771484e+003;4.3855126953e+003;4.3375639648e+003;
2.5156250000e+000;4.2966665039e+003;4.3421796875e+003;4.3385898438e+003;4.2789741211e+003;4.3443588867e+003;4.3543588867e+003;4.3555126953e+003;4.3617949219e+003;4.3669228516e+003;4.3493588867e+003;4.3384614258e+003;4.3338461914e+003;4.3379487305e+003;4.2889741211e+003;
2.5234375000e+000;4.2578203125e+003;4.3029487305e+003;4.3003847656e+003;4.2323076172e+003;4.3092309570e+003;4.3044873047e+003;4.3128203125e+003;4.3126923828e+003;4.3102563477e+003;4.2988461914e+003;4.2932050781e+003;4.2869228516e+003;4.2957690430e+003;4.2441025391e+003;
2.5312500000e+000;4.2667949219e+003;4.3047436523e+003;4.3071796875e+003;4.2320512695e+003;4.3111538086e+003;4.3007690430e+003;4.3147436523e+003;4.3126923828e+003;4.3074360352e+003;4.2993588867e+003;4.2971796875e+003;4.2906411133e+003;4.2966665039e+003;4.2464101563e+003;
2.5390625000e+000;4.2948715820e+003;4.3183334961e+003;4.3283334961e+003;4.2419228516e+003;4.3141025391e+003;4.3053847656e+003;4.3226923828e+003;4.3292309570e+003;4.3173076172e+003;4.3139741211e+003;4.3203847656e+003;4.3224360352e+003;4.3135898438e+003;4.2710258789e+003;
2.5468750000e+000;4.3164101563e+003;4.3453847656e+003;4.3478203125e+003;4.2606411133e+003;4.3382050781e+003;4.3197436523e+003;4.3374360352e+003;4.3487177734e+003;4.3329487305e+003;4.3332050781e+003;4.3401284180e+003;4.3457690430e+003;4.3384614258e+003;4.2956411133e+003;
2.5546875000e+000;4.3573076172e+003;4.3930771484e+003;4.3858974609e+003;4.2983334961e+003;4.3829487305e+003;4.3498715820e+003;4.3696152344e+003;4.3855126953e+003;4.3662822266e+003;4.3723076172e+003;4.3788461914e+003;4.3860258789e+003;4.3829487305e+003;4.3387177734e+003;
2.5625000000e+000;4.4037177734e+003;4.4428203125e+003;4.4292309570e+003;4.3411538086e+003;4.4280771484e+003;4.3850000000e+003;4.4075639648e+003;4.4266665039e+003;4.4060258789e+003;4.4182050781e+003;4.4247436523e+003;4.4316665039e+003;4.4310258789e+003;4.3862822266e+003;
2.5703125000e+000;4.4930771484e+003;4.5157690430e+003;4.5192309570e+003;4.4174360352e+003;4.4908974609e+003;4.4607690430e+003;4.4857690430e+003;4.4932050781e+003;4.4861538086e+003;4.5050000000e+003;4.5337177734e+003;4.5250000000e+003;4.5188461914e+003;4.4775639648e+003;
2.5781250000e+000;4.2952563477e+003;4.3355126953e+003;4.3364101563e+003;4.2400000000e+003;4.3112822266e+003;4.2765385742e+003;4.2961538086e+003;4.3321796875e+003;4.3270512695e+003;4.3356411133e+003;4.3371796875e+003;4.3506411133e+003;4.3358974609e+003;4.3028203125e+003;
2.5859375000e+000;4.0924357910e+003;4.1216665039e+003;4.1342309570e+003;4.0380769043e+003;4.0983334961e+003;4.0925642090e+003;4.1089741211e+003;4.1333334961e+003;4.1312822266e+003;4.1270512695e+003;4.1297436523e+003;4.1469228516e+003;4.1276923828e+003;4.0996152344e+003;
2.5937500000e+000;3.8810256348e+003;3.8847436523e+003;3.9157692871e+003;3.8141025391e+003;3.8807692871e+003;3.9057692871e+003;3.9200000000e+003;3.9133332520e+003;3.9133332520e+003;3.8935898438e+003;3.9067949219e+003;3.9133332520e+003;3.9051281738e+003;3.8729487305e+003;
2.6015625000e+000;3.5787180176e+003;3.5653845215e+003;3.5874357910e+003;3.5358974609e+003;3.5746154785e+003;3.6041025391e+003;3.6135898438e+003;3.6028205566e+003;3.6001281738e+003;3.5528205566e+003;3.5803845215e+003;3.5989743652e+003;3.5755129395e+003;3.5555129395e+003;
2.6093750000e+000;3.6611538086e+003;3.6411538086e+003;3.6544870605e+003;3.6128205566e+003;3.6446154785e+003;3.6815385742e+003;3.6982050781e+003;3.6533332520e+003;3.6511538086e+003;3.5976923828e+003;3.6357692871e+003;3.6573076172e+003;3.6378205566e+003;3.6179487305e+003;
2.6171875000e+000;5.0188461914e+003;5.0505126953e+003;4.9884614258e+003;4.9047436523e+003;5.0384614258e+003;4.9865385742e+003;5.0334614258e+003;4.9423076172e+003;4.9315385742e+003;4.9471796875e+003;4.9728203125e+003;4.9529487305e+003;4.9947436523e+003;4.9271796875e+003;
2.6250000000e+000;6.0821796875e+003;6.1589741211e+003;6.0526923828e+003;5.9373076172e+003;6.1423076172e+003;6.0170512695e+003;6.0734614258e+003;6.0044873047e+003;5.9874360352e+003;6.0600000000e+003;6.0603847656e+003;6.0120512695e+003;6.0816665039e+003;5.9870512695e+003;
2.6328125000e+000;7.6101284180e+003;7.6880771484e+003;7.6419228516e+003;7.5306411133e+003;7.6834614258e+003;7.5688461914e+003;7.5971796875e+003;7.6323076172e+003;7.6137177734e+003;7.6858974609e+003;7.6641025391e+003;7.6469228516e+003;7.6529487305e+003;7.6069228516e+003;
2.6406250000e+000;7.5228203125e+003;7.5891025391e+003;7.5821796875e+003;7.4792309570e+003;7.5858974609e+003;7.5194873047e+003;7.5371796875e+003;7.5694873047e+003;7.5528203125e+003;7.5935898438e+003;7.5867949219e+003;7.5865385742e+003;7.5747436523e+003;7.5496152344e+003;
2.6484375000e+000;7.5267949219e+003;7.6117949219e+003;7.5997436523e+003;7.4985898438e+003;7.5976923828e+003;7.5592309570e+003;7.5711538086e+003;7.5846152344e+003;7.5688461914e+003;7.6070512695e+003;7.6037177734e+003;7.5902563477e+003;7.5992309570e+003;7.5667949219e+003;
2.6562500000e+000;7.6462822266e+003;7.7280771484e+003;7.7007690430e+003;7.6152563477e+003;7.7112822266e+003;7.6721796875e+003;7.6828203125e+003;7.6935898438e+003;7.6802563477e+003;7.7265385742e+003;7.7143588867e+003;7.6950000000e+003;7.7102563477e+003;7.6774360352e+003;
2.6640625000e+000;7.6364101563e+003;7.6684614258e+003;7.6770512695e+003;7.6528203125e+003;7.6726923828e+003;7.6670512695e+003;7.6693588867e+003;7.6765385742e+003;7.6730771484e+003;7.6730771484e+003;7.6746152344e+003;7.6808974609e+003;7.6714101563e+003;7.6776923828e+003;
2.6718750000e+000;7.5846152344e+003;7.6293588867e+003;7.6433334961e+003;7.6108974609e+003;7.6361538086e+003;7.6265385742e+003;7.6294873047e+003;7.6408974609e+003;7.6342309570e+003;7.6307690430e+003;7.6374360352e+003;7.6423076172e+003;7.6371796875e+003;7.6358974609e+003;
2.6796875000e+000;7.5619228516e+003;7.6247436523e+003;7.6329487305e+003;7.5850000000e+003;7.6284614258e+003;7.6088461914e+003;7.6130771484e+003;7.6305126953e+003;7.6185898438e+003;7.6258974609e+003;7.6302563477e+003;7.6296152344e+003;7.6310258789e+003;7.6165385742e+003;
2.6875000000e+000;7.5494873047e+003;7.6225639648e+003;7.6225639648e+003;7.5646152344e+003;7.6214101563e+003;7.5969228516e+003;7.6017949219e+003;7.6208974609e+003;7.6058974609e+003;7.6253847656e+003;7.6246152344e+003;7.6208974609e+003;7.6242309570e+003;7.6033334961e+003;
2.6953125000e+000;7.5634614258e+003;7.6035898438e+003;7.6064101563e+003;7.6076923828e+003;7.6053847656e+003;7.6184614258e+003;7.6162822266e+003;7.6093588867e+003;7.6156411133e+003;7.6035898438e+003;7.6044873047e+003;7.6071796875e+003;7.6053847656e+003;7.6169228516e+003;
2.7031250000e+000;7.5682050781e+003;7.6064101563e+003;7.6082050781e+003;7.6120512695e+003;7.6067949219e+003;7.6164101563e+003;7.6138461914e+003;7.6101284180e+003;7.6155126953e+003;7.6076923828e+003;7.6065385742e+003;7.6083334961e+003;7.6073076172e+003;7.6156411133e+003;
2.7109375000e+000;7.4993588867e+003;7.5987177734e+003;7.5992309570e+003;7.5462822266e+003;7.5978203125e+003;7.5828203125e+003;7.5858974609e+003;7.5975639648e+003;7.5876923828e+003;7.5988461914e+003;7.5998715820e+003;7.5991025391e+003;7.5966665039e+003;7.5858974609e+003;
2.7187500000e+000;7.4753847656e+003;7.5989741211e+003;7.5980771484e+003;7.5473076172e+003;7.5987177734e+003;7.5841025391e+003;7.5870512695e+003;7.5969228516e+003;7.5889741211e+003;7.5998715820e+003;7.5982050781e+003;7.5988461914e+003;7.5961538086e+003;7.5873076172e+003;
2.7265625000e+000;7.4623076172e+003;7.5970512695e+003;7.5950000000e+003;7.5438461914e+003;7.5962822266e+003;7.5876923828e+003;7.5891025391e+003;7.5928203125e+003;7.5897436523e+003;7.5976923828e+003;7.5946152344e+003;7.5955126953e+003;7.5935898438e+003;7.5887177734e+003;
2.7343750000e+000;7.4357690430e+003;7.6056411133e+003;7.6073076172e+003;7.5373076172e+003;7.6039741211e+003;7.6153847656e+003;7.6143588867e+003;7.6112822266e+003;7.6156411133e+003;7.6105126953e+003;7.6070512695e+003;7.6096152344e+003;7.6093588867e+003;7.6125639648e+003;
2.7421875000e+000;7.3825639648e+003;7.5884614258e+003;7.5793588867e+003;7.5010258789e+003;7.5888461914e+003;7.5494873047e+003;7.5543588867e+003;7.5682050781e+003;7.5530771484e+003;7.5825639648e+003;7.5825639648e+003;7.5760258789e+003;7.5720512695e+003;7.5556411133e+003;
2.7500000000e+000;7.3714101563e+003;7.5855126953e+003;7.5723076172e+003;7.4955126953e+003;7.5844873047e+003;7.5424360352e+003;7.5467949219e+003;7.5570512695e+003;7.5421796875e+003;7.5753847656e+003;7.5744873047e+003;7.5685898438e+003;7.5625639648e+003;7.5462822266e+003;
2.7578125000e+000;7.3533334961e+003;7.5933334961e+003;7.5901284180e+003;7.4962822266e+003;7.5891025391e+003;7.5728203125e+003;7.5734614258e+003;7.5853847656e+003;7.5719228516e+003;7.5915385742e+003;7.5901284180e+003;7.5902563477e+003;7.5844873047e+003;7.5711538086e+003;
2.7656250000e+000;7.3523076172e+003;7.6034614258e+003;7.6047436523e+003;7.4948715820e+003;7.6012822266e+003;7.5757690430e+003;7.5767949219e+003;7.5984614258e+003;7.5797436523e+003;7.6062822266e+003;7.6058974609e+003;7.5988461914e+003;7.5998715820e+003;7.5787177734e+003;
2.7734375000e+000;7.3593588867e+003;7.6210258789e+003;7.6220512695e+003;7.4953847656e+003;7.6212822266e+003;7.5755126953e+003;7.5782050781e+003;7.6073076172e+003;7.5853847656e+003;7.6256411133e+003;7.6244873047e+003;7.6058974609e+003;7.6166665039e+003;7.5860258789e+003;
2.7812500000e+000;7.3361538086e+003;7.6041025391e+003;7.6015385742e+003;7.4800000000e+003;7.6007690430e+003;7.5608974609e+003;7.5638461914e+003;7.5878203125e+003;7.5691025391e+003;7.6053847656e+003;7.6029487305e+003;7.5891025391e+003;7.5956411133e+003;7.5703847656e+003;
2.7890625000e+000;7.1923076172e+003;7.5352563477e+003;7.5150000000e+003;7.3891025391e+003;7.5205126953e+003;7.4847436523e+003;7.4878203125e+003;7.5157690430e+003;7.4964101563e+003;7.5253847656e+003;7.5208974609e+003;7.5123076172e+003;7.5134614258e+003;7.4906411133e+003;
2.7968750000e+000;7.1675639648e+003;7.5555126953e+003;7.5283334961e+003;7.3782050781e+003;7.5437177734e+003;7.4843588867e+003;7.4883334961e+003;7.5324360352e+003;7.5065385742e+003;7.5475639648e+003;7.5425639648e+003;7.5180771484e+003;7.5311538086e+003;7.4932050781e+003;
2.8046875000e+000;7.1470512695e+003;7.5767949219e+003;7.5452563477e+003;7.3706411133e+003;7.5680771484e+003;7.4889741211e+003;7.4934614258e+003;7.5510258789e+003;7.5197436523e+003;7.5708974609e+003;7.5673076172e+003;7.5269228516e+003;7.5507690430e+003;7.5005126953e+003;
2.8125000000e+000;7.1235898438e+003;7.5807690430e+003;7.5483334961e+003;7.3601284180e+003;7.5723076172e+003;7.4878203125e+003;7.4925639648e+003;7.5534614258e+003;7.5206411133e+003;7.5729487305e+003;7.5732050781e+003;7.5251284180e+003;7.5529487305e+003;7.5001284180e+003;
2.8203125000e+000;7.0460258789e+003;7.5191025391e+003;7.4911538086e+003;7.3119228516e+003;7.5062822266e+003;7.4448715820e+003;7.4428203125e+003;7.4866665039e+003;7.4632050781e+003;7.4998715820e+003;7.5064101563e+003;7.4680771484e+003;7.4880771484e+003;7.4455126953e+003;
2.8281250000e+000;7.0064101563e+003;7.4858974609e+003;7.4630771484e+003;7.2793588867e+003;7.4715385742e+003;7.4153847656e+003;7.4148715820e+003;7.4575639648e+003;7.4310258789e+003;7.4698715820e+003;7.4761538086e+003;7.4391025391e+003;7.4560258789e+003;7.4137177734e+003;
2.8359375000e+000;6.7446152344e+003;7.3857690430e+003;7.3402563477e+003;7.0667949219e+003;7.3575639648e+003;7.2671796875e+003;7.2764101563e+003;7.3461538086e+003;7.3028203125e+003;7.3589741211e+003;7.3652563477e+003;7.2996152344e+003;7.3346152344e+003;7.2755126953e+003;
2.8437500000e+000;5.8435898438e+003;6.5073076172e+003;6.4808974609e+003;6.1862822266e+003;6.4916665039e+003;6.4135898438e+003;6.4006411133e+003;6.4879487305e+003;6.4405126953e+003;6.4828203125e+003;6.5056411133e+003;6.4301284180e+003;6.4606411133e+003;6.3983334961e+003;
2.8515625000e+000;5.5498715820e+003;6.1617949219e+003;6.1532050781e+003;5.8932050781e+003;6.1448715820e+003;6.1023076172e+003;6.0864101563e+003;6.1511538086e+003;6.1033334961e+003;6.1237177734e+003;6.1648715820e+003;6.1003847656e+003;6.1237177734e+003;6.0746152344e+003;
2.8593750000e+000;5.2116665039e+003;5.7811538086e+003;5.7847436523e+003;5.5508974609e+003;5.7514101563e+003;5.7398715820e+003;5.7361538086e+003;5.7779487305e+003;5.7208974609e+003;5.7171796875e+003;5.7917949219e+003;5.7298715820e+003;5.7573076172e+003;5.7223076172e+003;
2.8671875000e+000;4.8569228516e+003;5.3417949219e+003;5.3650000000e+003;5.1587177734e+003;5.3217949219e+003;5.3139741211e+003;5.3102563477e+003;5.3534614258e+003;5.3038461914e+003;5.2794873047e+003;5.3641025391e+003;5.3260258789e+003;5.3361538086e+003;5.3164101563e+003;
2.8750000000e+000;4.7276923828e+003;5.1937177734e+003;5.2188461914e+003;5.0267949219e+003;5.1684614258e+003;5.1734614258e+003;5.1674360352e+003;5.2070512695e+003;5.1601284180e+003;5.1283334961e+003;5.2134614258e+003;5.1798715820e+003;5.1930771484e+003;5.1751284180e+003;
2.8828125000e+000;4.3650000000e+003;4.7669228516e+003;4.8167949219e+003;4.6448715820e+003;4.7441025391e+003;4.7755126953e+003;4.7711538086e+003;4.8083334961e+003;4.7687177734e+003;4.7088461914e+003;4.8041025391e+003;4.7682050781e+003;4.7852563477e+003;4.7734614258e+003;
2.8906250000e+000;4.2264101563e+003;4.6046152344e+003;4.6619228516e+003;4.5005126953e+003;4.5911538086e+003;4.6220512695e+003;4.6187177734e+003;4.6550000000e+003;4.6198715820e+003;4.5458974609e+003;4.6479487305e+003;4.6114101563e+003;4.6242309570e+003;4.6153847656e+003;
2.8984375000e+000;3.9782050781e+003;4.3155126953e+003;4.3744873047e+003;4.2447436523e+003;4.3083334961e+003;4.3516665039e+003;4.3451284180e+003;4.3738461914e+003;4.3456411133e+003;4.2457690430e+003;4.3521796875e+003;4.3233334961e+003;4.3305126953e+003;4.3269228516e+003;
2.9062500000e+000;3.8884614258e+003;4.2026923828e+003;4.2624360352e+003;4.1458974609e+003;4.1944873047e+003;4.2528203125e+003;4.2428203125e+003;4.2644873047e+003;4.2385898438e+003;4.1275639648e+003;4.2343588867e+003;4.2091025391e+003;4.2185898438e+003;4.2175639648e+003;
2.9140625000e+000;3.7126923828e+003;3.9533332520e+003;4.0279487305e+003;3.9197436523e+003;3.9548718262e+003;4.0466667480e+003;4.0306411133e+003;4.0337180176e+003;4.0119230957e+003;3.8808974609e+003;3.9962819824e+003;3.9670512695e+003;3.9860256348e+003;3.9938461914e+003;
2.9218750000e+000;3.6573076172e+003;3.8780769043e+003;3.9552563477e+003;3.8525642090e+003;3.8823076172e+003;3.9785898438e+003;3.9619230957e+003;3.9615385742e+003;3.9387180176e+003;3.8073076172e+003;3.9221794434e+003;3.8962819824e+003;3.9114101563e+003;3.9230769043e+003;
2.9296875000e+000;3.5988461914e+003;3.8021794434e+003;3.8800000000e+003;3.7888461914e+003;3.8074357910e+003;3.9065385742e+003;3.8896154785e+003;3.8858974609e+003;3.8624357910e+003;3.7305129395e+003;3.8424357910e+003;3.8221794434e+003;3.8334614258e+003;3.8470512695e+003;
2.9375000000e+000;3.5361538086e+003;3.7224357910e+003;3.8012819824e+003;3.7239743652e+003;3.7285898438e+003;3.8311538086e+003;3.8146154785e+003;3.8069230957e+003;3.7843588867e+003;3.6491025391e+003;3.7584614258e+003;3.7424357910e+003;3.7524357910e+003;3.7655129395e+003;
2.9453125000e+000;3.2300000000e+003;3.3232050781e+003;3.4221794434e+003;3.3676923828e+003;3.3364101563e+003;3.4701281738e+003;3.4521794434e+003;3.4265385742e+003;3.4083332520e+003;3.2414101563e+003;3.3767949219e+003;3.3596154785e+003;3.3680769043e+003;3.3876923828e+003;
2.9531250000e+000;3.1860256348e+003;3.2556411133e+003;3.3591025391e+003;3.3038461914e+003;3.2707692871e+003;3.4056411133e+003;3.3852563477e+003;3.3592307129e+003;3.3391025391e+003;3.1716667480e+003;3.3106411133e+003;3.2962819824e+003;3.3032050781e+003;3.3252563477e+003;
2.9609375000e+000;3.1048718262e+003;3.1152563477e+003;3.2298718262e+003;3.1797436523e+003;3.1329487305e+003;3.2650000000e+003;3.2476923828e+003;3.2165385742e+003;3.1908974609e+003;3.0337180176e+003;3.1711538086e+003;3.1730769043e+003;3.1711538086e+003;3.1965385742e+003;
2.9687500000e+000;3.0124357910e+003;2.9764101563e+003;3.0832050781e+003;3.0761538086e+003;2.9837180176e+003;3.1129487305e+003;3.1026923828e+003;3.0630769043e+003;3.0343588867e+003;2.8730769043e+003;3.0287180176e+003;3.0308974609e+003;3.0275642090e+003;3.0562819824e+003;
2.9765625000e+000;3.0053845215e+003;2.9592307129e+003;3.0616667480e+003;3.0635898438e+003;2.9597436523e+003;3.0891025391e+003;3.0785898438e+003;3.0421794434e+003;3.0105129395e+003;2.8489743652e+003;3.0060256348e+003;3.0094870605e+003;3.0082050781e+003;3.0350000000e+003;
2.9843750000e+000;3.0665385742e+003;2.9794870605e+003;3.0855129395e+003;3.0701281738e+003;2.9764101563e+003;3.0973076172e+003;3.0898718262e+003;3.0651281738e+003;3.0328205566e+003;2.8807692871e+003;3.0352563477e+003;3.0371794434e+003;3.0378205566e+003;3.0608974609e+003;
2.9921875000e+000;2.9347436523e+003;2.7996154785e+003;2.9179487305e+003;2.9125642090e+003;2.7998718262e+003;2.9300000000e+003;2.9223076172e+003;2.9003845215e+003;2.8882050781e+003;2.7238461914e+003;2.8673076172e+003;2.8789743652e+003;2.8696154785e+003;2.9011538086e+003;
3.0000000000e+000;2.8433332520e+003;2.6956411133e+003;2.8156411133e+003;2.8219230957e+003;2.6983332520e+003;2.8348718262e+003;2.8238461914e+003;2.8011538086e+003;2.7923076172e+003;2.6169230957e+003;2.7574357910e+003;2.7778205566e+003;2.7653845215e+003;2.7997436523e+003;
3.0078125000e+000;2.7839743652e+003;2.6250000000e+003;2.7441025391e+003;2.7596154785e+003;2.6308974609e+003;2.7724357910e+003;2.7583332520e+003;2.7347436523e+003;2.7255129395e+003;2.5419230957e+003;2.6823076172e+003;2.7065385742e+003;2.6942307129e+003;2.7285898438e+003;
3.0156250000e+000;2.7948718262e+003;2.6142307129e+003;2.7274357910e+003;2.7556411133e+003;2.6275642090e+003;2.7714101563e+003;2.7582050781e+003;2.7311538086e+003;2.7173076172e+003;2.5319230957e+003;2.6782050781e+003;2.6920512695e+003;2.6826923828e+003;2.7143588867e+003;
3.0234375000e+000;2.8608974609e+003;2.6470512695e+003;2.7579487305e+003;2.7910256348e+003;2.6703845215e+003;2.8088461914e+003;2.8024357910e+003;2.7638461914e+003;2.7617949219e+003;2.5778205566e+003;2.7129487305e+003;2.7221794434e+003;2.7132050781e+003;2.7443588867e+003;
3.0312500000e+000;2.8584614258e+003;2.6356411133e+003;2.7457692871e+003;2.7742307129e+003;2.6584614258e+003;2.7980769043e+003;2.7893588867e+003;2.7521794434e+003;2.7525642090e+003;2.5675642090e+003;2.6951281738e+003;2.7074357910e+003;2.7015385742e+003;2.7310256348e+003;
3.0390625000e+000;2.8196154785e+003;2.5723076172e+003;2.6880769043e+003;2.7205129395e+003;2.5879487305e+003;2.7407692871e+003;2.7278205566e+003;2.6928205566e+003;2.6823076172e+003;2.4991025391e+003;2.6257692871e+003;2.6415385742e+003;2.6360256348e+003;2.6656411133e+003;
3.0468750000e+000;2.8234614258e+003;2.5680769043e+003;2.6839743652e+003;2.7265385742e+003;2.5821794434e+003;2.7412819824e+003;2.7278205566e+003;2.6869230957e+003;2.6747436523e+003;2.4939743652e+003;2.6206411133e+003;2.6353845215e+003;2.6287180176e+003;2.6597436523e+003;
3.0546875000e+000;2.8382050781e+003;2.5751281738e+003;2.6878205566e+003;2.7398718262e+003;2.5903845215e+003;2.7512819824e+003;2.7367949219e+003;2.6906411133e+003;2.6791025391e+003;2.5012819824e+003;2.6255129395e+003;2.6385898438e+003;2.6325642090e+003;2.6635898438e+003;
3.0625000000e+000;2.8529487305e+003;2.5815385742e+003;2.6908974609e+003;2.7480769043e+003;2.6026923828e+003;2.7570512695e+003;2.7424357910e+003;2.6937180176e+003;2.6834614258e+003;2.5075642090e+003;2.6303845215e+003;2.6420512695e+003;2.6374357910e+003;2.6673076172e+003;
3.0703125000e+000;2.8362819824e+003;2.5321794434e+003;2.6479487305e+003;2.6970512695e+003;2.5642307129e+003;2.6930769043e+003;2.6920512695e+003;2.6412819824e+003;2.6202563477e+003;2.4538461914e+003;2.5911538086e+003;2.6055129395e+003;2.6020512695e+003;2.6271794434e+003;
3.0781250000e+000;2.8178205566e+003;2.5089743652e+003;2.6244870605e+003;2.6742307129e+003;2.5337180176e+003;2.6723076172e+003;2.6698718262e+003;2.6194870605e+003;2.5958974609e+003;2.4353845215e+003;2.5692307129e+003;2.5875642090e+003;2.5812819824e+003;2.6075642090e+003;
3.0859375000e+000;2.7771794434e+003;2.4442307129e+003;2.5557692871e+003;2.6176923828e+003;2.4676923828e+003;2.5978205566e+003;2.5948718262e+003;2.5461538086e+003;2.5217949219e+003;2.3732050781e+003;2.4991025391e+003;2.5251281738e+003;2.5106411133e+003;2.5421794434e+003;
3.0937500000e+000;2.7783332520e+003;2.4228205566e+003;2.5358974609e+003;2.6035898438e+003;2.4414101563e+003;2.5667949219e+003;2.5715385742e+003;2.5257692871e+003;2.5094870605e+003;2.3587180176e+003;2.4897436523e+003;2.5053845215e+003;2.4944870605e+003;2.5241025391e+003;
3.1015625000e+000;2.7750000000e+003;2.4146154785e+003;2.5302563477e+003;2.5939743652e+003;2.4303845215e+003;2.5685898438e+003;2.5719230957e+003;2.5284614258e+003;2.5139743652e+003;2.3620512695e+003;2.4898718262e+003;2.5023076172e+003;2.4942307129e+003;2.5215385742e+003;
3.1093750000e+000;2.8720512695e+003;2.5089743652e+003;2.6115385742e+003;2.6773076172e+003;2.5383332520e+003;2.6656411133e+003;2.6730769043e+003;2.6417949219e+003;2.6248718262e+003;2.4785898438e+003;2.5867949219e+003;2.5910256348e+003;2.5917949219e+003;2.6060256348e+003;
3.1171875000e+000;2.8973076172e+003;2.5185898438e+003;2.6303845215e+003;2.6953845215e+003;2.5583332520e+003;2.6841025391e+003;2.6905129395e+003;2.6476923828e+003;2.6403845215e+003;2.4857692871e+003;2.5796154785e+003;2.5955129395e+003;2.5910256348e+003;2.6105129395e+003;
3.1250000000e+000;2.9110256348e+003;2.5261538086e+003;2.6419230957e+003;2.7038461914e+003;2.5655129395e+003;2.6956411133e+003;2.6979487305e+003;2.6532050781e+003;2.6485898438e+003;2.4932050781e+003;2.5871794434e+003;2.6003845215e+003;2.5991025391e+003;2.6219230957e+003;
3.1328125000e+000;2.9412819824e+003;2.5537180176e+003;2.6684614258e+003;2.7302563477e+003;2.5919230957e+003;2.7223076172e+003;2.7211538086e+003;2.6782050781e+003;2.6733332520e+003;2.5217949219e+003;2.6170512695e+003;2.6243588867e+003;2.6271794434e+003;2.6498718262e+003;
3.1406250000e+000;2.9946154785e+003;2.6150000000e+003;2.7112819824e+003;2.7839743652e+003;2.6466667480e+003;2.7717949219e+003;2.7696154785e+003;2.7279487305e+003;2.7193588867e+003;2.5792307129e+003;2.6742307129e+003;2.6741025391e+003;2.6821794434e+003;2.6944870605e+003;
3.1484375000e+000;2.9996154785e+003;2.6271794434e+003;2.7110256348e+003;2.7898718262e+003;2.6538461914e+003;2.7791025391e+003;2.7776923828e+003;2.7314101563e+003;2.7238461914e+003;2.5850000000e+003;2.6767949219e+003;2.6776923828e+003;2.6878205566e+003;2.6933332520e+003;
3.1562500000e+000;2.9747436523e+003;2.6074357910e+003;2.6800000000e+003;2.7620512695e+003;2.6294870605e+003;2.7629487305e+003;2.7570512695e+003;2.7038461914e+003;2.7020512695e+003;2.5575642090e+003;2.6405129395e+003;2.6485898438e+003;2.6579487305e+003;2.6607692871e+003;
3.1640625000e+000;2.9506411133e+003;2.5788461914e+003;2.6557692871e+003;2.7365385742e+003;2.6033332520e+003;2.7416667480e+003;2.7306411133e+003;2.6802563477e+003;2.6788461914e+003;2.5321794434e+003;2.6123076172e+003;2.6246154785e+003;2.6284614258e+003;2.6375642090e+003;
3.1718750000e+000;2.9091025391e+003;2.5139743652e+003;2.6119230957e+003;2.6869230957e+003;2.5544870605e+003;2.6864101563e+003;2.6750000000e+003;2.6356411133e+003;2.6255129395e+003;2.4848718262e+003;2.5655129395e+003;2.5773076172e+003;2.5751281738e+003;2.5934614258e+003;
3.1796875000e+000;2.9189743652e+003;2.5184614258e+003;2.6164101563e+003;2.6910256348e+003;2.5624357910e+003;2.6871794434e+003;2.6807692871e+003;2.6397436523e+003;2.6288461914e+003;2.4910256348e+003;2.5714101563e+003;2.5782050781e+003;2.5848718262e+003;2.5955129395e+003;
3.1875000000e+000;2.9330769043e+003;2.5312819824e+003;2.6241025391e+003;2.7008974609e+003;2.5758974609e+003;2.6930769043e+003;2.6912819824e+003;2.6471794434e+003;2.6376923828e+003;2.5016667480e+003;2.5815385742e+003;2.5841025391e+003;2.6008974609e+003;2.6030769043e+003;
3.1953125000e+000;2.9484614258e+003;2.5498718262e+003;2.6339743652e+003;2.7150000000e+003;2.5917949219e+003;2.7021794434e+003;2.7028205566e+003;2.6561538086e+003;2.6491025391e+003;2.5147436523e+003;2.5953845215e+003;2.5953845215e+003;2.6187180176e+003;2.6158974609e+003;
3.2031250000e+000;2.9715385742e+003;2.5797436523e+003;2.6573076172e+003;2.7360256348e+003;2.5891025391e+003;2.6985898438e+003;2.6965385742e+003;2.6657692871e+003;2.6519230957e+003;2.5355129395e+003;2.6135898438e+003;2.6332050781e+003;2.6293588867e+003;2.6430769043e+003;
3.2109375000e+000;2.8867949219e+003;2.4633332520e+003;2.5565385742e+003;2.6382050781e+003;2.4761538086e+003;2.5796154785e+003;2.5848718262e+003;2.5488461914e+003;2.5347436523e+003;2.4267949219e+003;2.5187180176e+003;2.5371794434e+003;2.5284614258e+003;2.5452563477e+003;
3.2187500000e+000;2.8579487305e+003;2.4382050781e+003;2.5293588867e+003;2.6038461914e+003;2.4456411133e+003;2.5537180176e+003;2.5555129395e+003;2.5276923828e+003;2.5306411133e+003;2.4065385742e+003;2.4853845215e+003;2.5089743652e+003;2.5001281738e+003;2.5150000000e+003;
3.2265625000e+000;2.8376923828e+003;2.4192307129e+003;2.5048718262e+003;2.5879487305e+003;2.4287180176e+003;2.5380769043e+003;2.5387180176e+003;2.5120512695e+003;2.5126923828e+003;2.3869230957e+003;2.4608974609e+003;2.4843588867e+003;2.4791025391e+003;2.4916667480e+003;
3.2343750000e+000;2.7443588867e+003;2.3238461914e+003;2.3976923828e+003;2.5037180176e+003;2.3548718262e+003;2.4694870605e+003;2.4666667480e+003;2.4250000000e+003;2.4220512695e+003;2.2951281738e+003;2.3588461914e+003;2.3775642090e+003;2.3784614258e+003;2.3861538086e+003;
3.2421875000e+000;2.7398718262e+003;2.2950000000e+003;2.3841025391e+003;2.4747436523e+003;2.3293588867e+003;2.4660256348e+003;2.4601281738e+003;2.4024357910e+003;2.4042307129e+003;2.2720512695e+003;2.3362819824e+003;2.3528205566e+003;2.3530769043e+003;2.3679487305e+003;
3.2500000000e+000;2.7550000000e+003;2.3082050781e+003;2.3947436523e+003;2.4848718262e+003;2.3382050781e+003;2.4816667480e+003;2.4739743652e+003;2.4167949219e+003;2.4141025391e+003;2.2838461914e+003;2.3525642090e+003;2.3673076172e+003;2.3667949219e+003;2.3824357910e+003;
3.2578125000e+000;2.7616667480e+003;2.3174357910e+003;2.3985898438e+003;2.4908974609e+003;2.3450000000e+003;2.4919230957e+003;2.4815385742e+003;2.4255129395e+003;2.4169230957e+003;2.2897436523e+003;2.3634614258e+003;2.3773076172e+003;2.3744870605e+003;2.3893588867e+003;
3.2656250000e+000;2.8178205566e+003;2.3807692871e+003;2.4514101563e+003;2.5505129395e+003;2.4146154785e+003;2.5475642090e+003;2.5364101563e+003;2.4797436523e+003;2.4673076172e+003;2.3473076172e+003;2.4198718262e+003;2.4347436523e+003;2.4312819824e+003;2.4407692871e+003;
3.2734375000e+000;2.8907692871e+003;2.4544870605e+003;2.5224357910e+003;2.6230769043e+003;2.4952563477e+003;2.6115385742e+003;2.6044870605e+003;2.5479487305e+003;2.5379487305e+003;2.4221794434e+003;2.4875642090e+003;2.5042307129e+003;2.5034614258e+003;2.5097436523e+003;
3.2812500000e+000;3.0197436523e+003;2.5814101563e+003;2.6544870605e+003;2.7430769043e+003;2.6300000000e+003;2.7194870605e+003;2.7206411133e+003;2.6706411133e+003;2.6625642090e+003;2.5569230957e+003;2.6117949219e+003;2.6356411133e+003;2.6328205566e+003;2.6374357910e+003;
3.2890625000e+000;3.0234614258e+003;2.5862819824e+003;2.6632050781e+003;2.7403845215e+003;2.6314101563e+003;2.7183332520e+003;2.7196154785e+003;2.6744870605e+003;2.6647436523e+003;2.5642307129e+003;2.6200000000e+003;2.6462819824e+003;2.6391025391e+003;2.6443588867e+003;
3.2968750000e+000;2.8915385742e+003;2.4647436523e+003;2.5339743652e+003;2.6082050781e+003;2.4832050781e+003;2.5828205566e+003;2.5787180176e+003;2.5407692871e+003;2.5261538086e+003;2.4378205566e+003;2.5035898438e+003;2.5201281738e+003;2.5144870605e+003;2.5170512695e+003;
3.3046875000e+000;2.8796154785e+003;2.4493588867e+003;2.5174357910e+003;2.5967949219e+003;2.4611538086e+003;2.5625642090e+003;2.5607692871e+003;2.5193588867e+003;2.5044870605e+003;2.4187180176e+003;2.4846154785e+003;2.5016667480e+003;2.4970512695e+003;2.4991025391e+003;
3.3125000000e+000;2.9001281738e+003;2.4635898438e+003;2.5337180176e+003;2.6135898438e+003;2.4708974609e+003;2.5703845215e+003;2.5720512695e+003;2.5265385742e+003;2.5134614258e+003;2.4293588867e+003;2.4925642090e+003;2.5157692871e+003;2.5078205566e+003;2.5116667480e+003;
3.3203125000e+000;2.9360256348e+003;2.4942307129e+003;2.5679487305e+003;2.6441025391e+003;2.4992307129e+003;2.5937180176e+003;2.5978205566e+003;2.5514101563e+003;2.5419230957e+003;2.4582050781e+003;2.5178205566e+003;2.5498718262e+003;2.5347436523e+003;2.5419230957e+003;
3.3281250000e+000;2.8934614258e+003;2.4535898438e+003;2.5343588867e+003;2.6084614258e+003;2.4606411133e+003;2.5478205566e+003;2.5556411133e+003;2.5203845215e+003;2.5223076172e+003;2.4250000000e+003;2.4867949219e+003;2.5252563477e+003;2.5001281738e+003;2.5083332520e+003;
3.3359375000e+000;2.9479487305e+003;2.5088461914e+003;2.5758974609e+003;2.6551281738e+003;2.5325642090e+003;2.6105129395e+003;2.6126923828e+003;2.5716667480e+003;2.5783332520e+003;2.4825642090e+003;2.5364101563e+003;2.5638461914e+003;2.5506411133e+003;2.5443588867e+003;
3.3437500000e+000;2.9523076172e+003;2.5153845215e+003;2.5817949219e+003;2.6637180176e+003;2.5419230957e+003;2.6207692871e+003;2.6237180176e+003;2.5815385742e+003;2.5883332520e+003;2.4911538086e+003;2.5408974609e+003;2.5738461914e+003;2.5573076172e+003;2.5555129395e+003;
3.3515625000e+000;2.9423076172e+003;2.5064101563e+003;2.5696154785e+003;2.6610256348e+003;2.5311538086e+003;2.6244870605e+003;2.6302563477e+003;2.5843588867e+003;2.5891025391e+003;2.4869230957e+003;2.5224357910e+003;2.5671794434e+003;2.5478205566e+003;2.5528205566e+003;
3.3593750000e+000;2.9267949219e+003;2.4887180176e+003;2.5524357910e+003;2.6470512695e+003;2.5141025391e+003;2.6148718262e+003;2.6200000000e+003;2.5728205566e+003;2.5760256348e+003;2.4725642090e+003;2.5035898438e+003;2.5497436523e+003;2.5294870605e+003;2.5347436523e+003;
3.3671875000e+000;2.8880769043e+003;2.4491025391e+003;2.5123076172e+003;2.6128205566e+003;2.4724357910e+003;2.5841025391e+003;2.5826923828e+003;2.5316667480e+003;2.5352563477e+003;2.4256411133e+003;2.4758974609e+003;2.5076923828e+003;2.4917949219e+003;2.4933332520e+003;
3.3750000000e+000;2.9657692871e+003;2.5348718262e+003;2.5802563477e+003;2.6875642090e+003;2.5493588867e+003;2.6566667480e+003;2.6558974609e+003;2.6073076172e+003;2.6115385742e+003;2.5093588867e+003;2.5494870605e+003;2.5894870605e+003;2.5711538086e+003;2.5757692871e+003;
3.3828125000e+000;2.9658974609e+003;2.5287180176e+003;2.5806411133e+003;2.6851281738e+003;2.5546154785e+003;2.6492307129e+003;2.6512819824e+003;2.6037180176e+003;2.6074357910e+003;2.5128205566e+003;2.5456411133e+003;2.5912819824e+003;2.5662819824e+003;2.5755129395e+003;
3.3906250000e+000;2.9538461914e+003;2.5105129395e+003;2.5708974609e+003;2.6715385742e+003;2.5494870605e+003;2.6291025391e+003;2.6330769043e+003;2.5873076172e+003;2.5900000000e+003;2.5025642090e+003;2.5335898438e+003;2.5801281738e+003;2.5528205566e+003;2.5639743652e+003;
3.3984375000e+000;2.9411538086e+003;2.4971794434e+003;2.5616667480e+003;2.6583332520e+003;2.5423076172e+003;2.6116667480e+003;2.6156411133e+003;2.5724357910e+003;2.5737180176e+003;2.4919230957e+003;2.5252563477e+003;2.5687180176e+003;2.5455129395e+003;2.5538461914e+003;
3.4062500000e+000;2.9469230957e+003;2.5155129395e+003;2.5698718262e+003;2.6603845215e+003;2.5275642090e+003;2.6102563477e+003;2.6156411133e+003;2.5671794434e+003;2.5701281738e+003;2.4926923828e+003;2.5373076172e+003;2.5814101563e+003;2.5610256348e+003;2.5696154785e+003;
3.4140625000e+000;2.9728205566e+003;2.5387180176e+003;2.5935898438e+003;2.6878205566e+003;2.5491025391e+003;2.6250000000e+003;2.6335898438e+003;2.5856411133e+003;2.5897436523e+003;2.5144870605e+003;2.5623076172e+003;2.6056411133e+003;2.5788461914e+003;2.5944870605e+003;
3.4218750000e+000;3.0576923828e+003;2.6407692871e+003;2.6785898438e+003;2.7823076172e+003;2.6397436523e+003;2.7026923828e+003;2.7116667480e+003;2.6793588867e+003;2.6864101563e+003;2.6214101563e+003;2.6598718262e+003;2.6984614258e+003;2.6801281738e+003;2.6926923828e+003;
3.4296875000e+000;3.2026923828e+003;2.7871794434e+003;2.8355129395e+003;2.9174357910e+003;2.7902563477e+003;2.8493588867e+003;2.8600000000e+003;2.8400000000e+003;2.8464101563e+003;2.7900000000e+003;2.8093588867e+003;2.8515385742e+003;2.8357692871e+003;2.8392307129e+003;
