Time (s);AF3;F7;F3;FC5;T7;P7;O1;O2;P8;T8;FC6;F4;F8;AF4;Sampling Rate
0.0000000000e+000;3.8879487305e+003;3.8523076172e+003;3.8280769043e+003;3.8456411133e+003;3.8591025391e+003;3.8492307129e+003;3.8512819824e+003;3.8380769043e+003;3.8453845215e+003;3.8583332520e+003;3.8302563477e+003;3.8537180176e+003;3.8434614258e+003;3.8405129395e+003;128
7.8125000000e-003;3.9205129395e+003;3.8858974609e+003;3.8585898438e+003;3.8696154785e+003;3.8901281738e+003;3.8787180176e+003;3.8824357910e+003;3.8680769043e+003;3.8751281738e+003;3.8892307129e+003;3.8600000000e+003;3.8848718262e+003;3.8753845215e+003;3.8726923828e+003;
1.5625000000e-002;3.9389743652e+003;3.9051281738e+003;3.8828205566e+003;3.8801281738e+003;3.9092307129e+003;3.8967949219e+003;3.9029487305e+003;3.8911538086e+003;3.8984614258e+003;3.9167949219e+003;3.8841025391e+003;3.9093588867e+003;3.8996154785e+003;3.8928205566e+003;
2.3437500000e-002;3.9185898438e+003;3.8842307129e+003;3.8650000000e+003;3.8635898438e+003;3.8901281738e+003;3.8810256348e+003;3.8860256348e+003;3.8719230957e+003;3.8807692871e+003;3.8974357910e+003;3.8671794434e+003;3.8907692871e+003;3.8796154785e+003;3.8708974609e+003;
3.1250000000e-002;3.9679487305e+003;3.9344870605e+003;3.9101281738e+003;3.9165385742e+003;3.9433332520e+003;3.9321794434e+003;3.9266667480e+003;3.9203845215e+003;3.9307692871e+003;3.9455129395e+003;3.9210256348e+003;3.9401281738e+003;3.9230769043e+003;3.9146154785e+003;
3.9062500000e-002;3.9621794434e+003;3.9298718262e+003;3.9055129395e+003;3.9094870605e+003;3.9367949219e+003;3.9260256348e+003;3.9192307129e+003;3.9184614258e+003;3.9238461914e+003;3.9424357910e+003;3.9166667480e+003;3.9371794434e+003;3.9188461914e+003;3.9111538086e+003;
4.6875000000e-002;3.9369230957e+003;3.9079487305e+003;3.8774357910e+003;3.8764101563e+003;3.9114101563e+003;3.9028205566e+003;3.9060256348e+003;3.8985898438e+003;3.9007692871e+003;3.9216667480e+003;3.8884614258e+003;3.9133332520e+003;3.9029487305e+003;3.8901281738e+003;
5.4687500000e-002;3.9357692871e+003;3.9058974609e+003;3.8752563477e+003;3.8773076172e+003;3.9115385742e+003;3.9050000000e+003;3.9062819824e+003;3.9003845215e+003;3.9070512695e+003;3.9252563477e+003;3.8885898438e+003;3.9152563477e+003;3.9033332520e+003;3.8903845215e+003;
6.2500000000e-002;3.9105129395e+003;3.8779487305e+003;3.8516667480e+003;3.8578205566e+003;3.8867949219e+003;3.8844870605e+003;3.8812819824e+003;3.8780769043e+003;3.8878205566e+003;3.9034614258e+003;3.8662819824e+003;3.8933332520e+003;3.8776923828e+003;3.8662819824e+003;
7.0312500000e-002;3.8805129395e+003;3.8458974609e+003;3.8243588867e+003;3.8324357910e+003;3.8565385742e+003;3.8576923828e+003;3.8517949219e+003;3.8487180176e+003;3.8591025391e+003;3.8737180176e+003;3.8394870605e+003;3.8637180176e+003;3.8464101563e+003;3.8357692871e+003;
7.8125000000e-002;3.9219230957e+003;3.8967949219e+003;3.8591025391e+003;3.8617949219e+003;3.8948718262e+003;3.8921794434e+003;3.8965385742e+003;3.8878205566e+003;3.8978205566e+003;3.9183332520e+003;3.8812819824e+003;3.8994870605e+003;3.8832050781e+003;3.8721794434e+003;
8.5937500000e-002;3.9148718262e+003;3.8876923828e+003;3.8553845215e+003;3.8596154785e+003;3.8897436523e+003;3.8858974609e+003;3.8853845215e+003;3.8826923828e+003;3.8911538086e+003;3.9069230957e+003;3.8735898438e+003;3.8956411133e+003;3.8806411133e+003;3.8702563477e+003;
9.3750000000e-002;3.9469230957e+003;3.9182050781e+003;3.8903845215e+003;3.8887180176e+003;3.9219230957e+003;3.9161538086e+003;3.9157692871e+003;3.9183332520e+003;3.9261538086e+003;3.9451281738e+003;3.9092307129e+003;3.9311538086e+003;3.9147436523e+003;3.9050000000e+003;
1.0156250000e-001;3.9356411133e+003;3.9046154785e+003;3.8787180176e+003;3.8782050781e+003;3.9116667480e+003;3.9101281738e+003;3.9121794434e+003;3.9062819824e+003;3.9158974609e+003;3.9367949219e+003;3.9026923828e+003;3.9248718262e+003;3.8975642090e+003;3.8983332520e+003;
1.0937500000e-001;3.9328205566e+003;3.9091025391e+003;3.8789743652e+003;3.8829487305e+003;3.9119230957e+003;3.9028205566e+003;3.9012819824e+003;3.9026923828e+003;3.9141025391e+003;3.9335898438e+003;3.8960256348e+003;3.9192307129e+003;3.9073076172e+003;3.8973076172e+003;
1.1718750000e-001;3.8962819824e+003;3.8707692871e+003;3.8443588867e+003;3.8444870605e+003;3.8658974609e+003;3.8673076172e+003;3.8641025391e+003;3.8630769043e+003;3.8756411133e+003;3.8923076172e+003;3.8535898438e+003;3.8808974609e+003;3.8678205566e+003;3.8564101563e+003;
1.2500000000e-001;3.9460256348e+003;3.9167949219e+003;3.8912819824e+003;3.8871794434e+003;3.9097436523e+003;3.9135898438e+003;3.9092307129e+003;3.9015385742e+003;3.9155129395e+003;3.9325642090e+003;3.9017949219e+003;3.9257692871e+003;3.9033332520e+003;3.8960256348e+003;
1.3281250000e-001;3.9496154785e+003;3.9180769043e+003;3.8961538086e+003;3.8942307129e+003;3.9228205566e+003;3.9173076172e+003;3.9111538086e+003;3.9070512695e+003;3.9182050781e+003;3.9388461914e+003;3.9085898438e+003;3.9328205566e+003;3.9069230957e+003;3.9030769043e+003;
1.4062500000e-001;3.9266667480e+003;3.8916667480e+003;3.8747436523e+003;3.8746154785e+003;3.9074357910e+003;3.8947436523e+003;3.8884614258e+003;3.8835898438e+003;3.8925642090e+003;3.9139743652e+003;3.8844870605e+003;3.9116667480e+003;3.8839743652e+003;3.8825642090e+003;
1.4843750000e-001;3.9160256348e+003;3.8788461914e+003;3.8644870605e+003;3.8642307129e+003;3.8989743652e+003;3.8820512695e+003;3.8785898438e+003;3.8685898438e+003;3.8780769043e+003;3.8970512695e+003;3.8693588867e+003;3.8989743652e+003;3.8728205566e+003;3.8717949219e+003;
1.5625000000e-001;3.9520512695e+003;3.9262819824e+003;3.9101281738e+003;3.8985898438e+003;3.9283332520e+003;3.9178205566e+003;3.9138461914e+003;3.9091025391e+003;3.9239743652e+003;3.9380769043e+003;3.9087180176e+003;3.9308974609e+003;3.9055129395e+003;3.9069230957e+003;
1.6406250000e-001;3.9160256348e+003;3.8880769043e+003;3.8737180176e+003;3.8637180176e+003;3.8943588867e+003;3.8847436523e+003;3.8798718262e+003;3.8737180176e+003;3.8856411133e+003;3.8997436523e+003;3.8701281738e+003;3.8934614258e+003;3.8660256348e+003;3.8688461914e+003;
1.7187500000e-001;3.9116667480e+003;3.8770512695e+003;3.8685898438e+003;3.8565385742e+003;3.8900000000e+003;3.8841025391e+003;3.8819230957e+003;3.8698718262e+003;3.8800000000e+003;3.8942307129e+003;3.8570512695e+003;3.8870512695e+003;3.8648718262e+003;3.8614101563e+003;
1.7968750000e-001;3.9002563477e+003;3.8650000000e+003;3.8602563477e+003;3.8464101563e+003;3.8761538086e+003;3.8752563477e+003;3.8734614258e+003;3.8614101563e+003;3.8694870605e+003;3.8841025391e+003;3.8456411133e+003;3.8757692871e+003;3.8542307129e+003;3.8489743652e+003;
1.8750000000e-001;3.9237180176e+003;3.8911538086e+003;3.8812819824e+003;3.8720512695e+003;3.8982050781e+003;3.8926923828e+003;3.8947436523e+003;3.8856411133e+003;3.8892307129e+003;3.9069230957e+003;3.8715385742e+003;3.8951281738e+003;3.8743588867e+003;3.8712819824e+003;
1.9531250000e-001;3.9323076172e+003;3.9091025391e+003;3.8879487305e+003;3.8830769043e+003;3.9153845215e+003;3.9089743652e+003;3.9108974609e+003;3.8985898438e+003;3.9138461914e+003;3.9266667480e+003;3.8869230957e+003;3.9134614258e+003;3.8892307129e+003;3.8928205566e+003;
2.0312500000e-001;3.9560256348e+003;3.9325642090e+003;3.9155129395e+003;3.9048718262e+003;3.9400000000e+003;3.9323076172e+003;3.9362819824e+003;3.9214101563e+003;3.9355129395e+003;3.9503845215e+003;3.9107692871e+003;3.9358974609e+003;3.9151281738e+003;3.9146154785e+003;
2.1093750000e-001;4.0137180176e+003;3.9924357910e+003;3.9796154785e+003;3.9634614258e+003;3.9966667480e+003;3.9835898438e+003;3.9907692871e+003;3.9816667480e+003;3.9888461914e+003;4.0130769043e+003;3.9758974609e+003;3.9982050781e+003;3.9774357910e+003;3.9746154785e+003;
2.1875000000e-001;3.9994870605e+003;3.9787180176e+003;3.9660256348e+003;3.9521794434e+003;3.9821794434e+003;3.9696154785e+003;3.9757692871e+003;3.9669230957e+003;3.9726923828e+003;3.9984614258e+003;3.9643588867e+003;3.9879487305e+003;3.9635898438e+003;3.9638461914e+003;
2.2656250000e-001;4.0155129395e+003;3.9976923828e+003;3.9787180176e+003;3.9697436523e+003;4.0055129395e+003;3.9856411133e+003;3.9897436523e+003;3.9743588867e+003;3.9889743652e+003;4.0166667480e+003;3.9864101563e+003;4.0051281738e+003;3.9864101563e+003;3.9882050781e+003;
2.3437500000e-001;4.0261538086e+003;4.0125642090e+003;3.9912819824e+003;3.9819230957e+003;4.0184614258e+003;3.9974357910e+003;4.0015385742e+003;3.9893588867e+003;4.0056411133e+003;4.0346154785e+003;4.0014101563e+003;4.0185898438e+003;4.0024357910e+003;4.0021794434e+003;
2.4218750000e-001;3.9857692871e+003;3.9780769043e+003;3.9528205566e+003;3.9462819824e+003;3.9801281738e+003;3.9651281738e+003;3.9679487305e+003;3.9548718262e+003;3.9698718262e+003;3.9960256348e+003;3.9629487305e+003;3.9811538086e+003;3.9650000000e+003;3.9630769043e+003;
2.5000000000e-001;3.9861538086e+003;3.9791025391e+003;3.9512819824e+003;3.9464101563e+003;3.9810256348e+003;3.9678205566e+003;3.9700000000e+003;3.9547436523e+003;3.9688461914e+003;3.9932050781e+003;3.9628205566e+003;3.9806411133e+003;3.9642307129e+003;3.9620512695e+003;
2.5781250000e-001;3.9771794434e+003;3.9603845215e+003;3.9419230957e+003;3.9321794434e+003;3.9638461914e+003;3.9551281738e+003;3.9541025391e+003;3.9476923828e+003;3.9592307129e+003;3.9826923828e+003;3.9542307129e+003;3.9730769043e+003;3.9478205566e+003;3.9520512695e+003;
2.6562500000e-001;3.9435898438e+003;3.9224357910e+003;3.9091025391e+003;3.8975642090e+003;3.9260256348e+003;3.9189743652e+003;3.9180769043e+003;3.9092307129e+003;3.9221794434e+003;3.9432050781e+003;3.9158974609e+003;3.9366667480e+003;3.9103845215e+003;3.9170512695e+003;
2.7343750000e-001;3.9337180176e+003;3.9107692871e+003;3.8988461914e+003;3.8862819824e+003;3.9138461914e+003;3.9056411133e+003;3.9057692871e+003;3.8925642090e+003;3.9083332520e+003;3.9275642090e+003;3.9007692871e+003;3.9220512695e+003;3.8994870605e+003;3.9061538086e+003;
2.8125000000e-001;3.9001281738e+003;3.8861538086e+003;3.8643588867e+003;3.8648718262e+003;3.8876923828e+003;3.8787180176e+003;3.8762819824e+003;3.8638461914e+003;3.8802563477e+003;3.8987180176e+003;3.8746154785e+003;3.8994870605e+003;3.8701281738e+003;3.8780769043e+003;
2.8906250000e-001;3.9253845215e+003;3.9133332520e+003;3.8888461914e+003;3.8898718262e+003;3.9156411133e+003;3.9005129395e+003;3.8984614258e+003;3.8862819824e+003;3.9064101563e+003;3.9256411133e+003;3.9001281738e+003;3.9228205566e+003;3.8935898438e+003;3.9020512695e+003;
2.9687500000e-001;3.9774357910e+003;3.9666667480e+003;3.9474357910e+003;3.9424357910e+003;3.9692307129e+003;3.9493588867e+003;3.9488461914e+003;3.9370512695e+003;3.9582050781e+003;3.9841025391e+003;3.9488461914e+003;3.9708974609e+003;3.9530769043e+003;3.9529487305e+003;
3.0468750000e-001;4.1093588867e+003;4.1037177734e+003;4.0802563477e+003;4.0701281738e+003;4.1019228516e+003;4.0752563477e+003;4.0769230957e+003;4.0712819824e+003;4.0933332520e+003;4.1219228516e+003;4.0837180176e+003;4.1055126953e+003;4.0865385742e+003;4.0853845215e+003;
3.1250000000e-001;4.0828205566e+003;4.0791025391e+003;4.0585898438e+003;4.0456411133e+003;4.0773076172e+003;4.0521794434e+003;4.0529487305e+003;4.0479487305e+003;4.0696154785e+003;4.0992309570e+003;4.0593588867e+003;4.0824357910e+003;4.0597436523e+003;4.0619230957e+003;
3.2031250000e-001;4.0971796875e+003;4.1055126953e+003;4.0789743652e+003;4.0616667480e+003;4.0976923828e+003;4.0728205566e+003;4.0770512695e+003;4.0605129395e+003;4.0784614258e+003;4.1103847656e+003;4.0761538086e+003;4.0961538086e+003;4.0774357910e+003;4.0802563477e+003;
3.2812500000e-001;4.1688461914e+003;4.1806411133e+003;4.1507690430e+003;4.1329487305e+003;4.1653847656e+003;4.1421796875e+003;4.1465385742e+003;4.1339741211e+003;4.1537177734e+003;4.1875639648e+003;4.1515385742e+003;4.1702563477e+003;4.1535898438e+003;4.1550000000e+003;
3.3593750000e-001;4.1860258789e+003;4.1950000000e+003;4.1717949219e+003;4.1528203125e+003;4.1744873047e+003;4.1588461914e+003;4.1611538086e+003;4.1521796875e+003;4.1735898438e+003;4.2096152344e+003;4.1707690430e+003;4.1923076172e+003;4.1735898438e+003;4.1748715820e+003;
3.4375000000e-001;4.1547436523e+003;4.1624360352e+003;4.1412822266e+003;4.1216665039e+003;4.1482050781e+003;4.1285898438e+003;4.1307690430e+003;4.1194873047e+003;4.1384614258e+003;4.1750000000e+003;4.1383334961e+003;4.1605126953e+003;4.1403847656e+003;4.1420512695e+003;
3.5156250000e-001;4.1152563477e+003;4.1350000000e+003;4.1071796875e+003;4.0885898438e+003;4.1415385742e+003;4.1076923828e+003;4.1071796875e+003;4.1023076172e+003;4.1141025391e+003;4.1453847656e+003;4.1125639648e+003;4.1316665039e+003;4.1112822266e+003;4.1133334961e+003;
3.5937500000e-001;4.1120512695e+003;4.1338461914e+003;4.1074360352e+003;4.0891025391e+003;4.1393588867e+003;4.1130771484e+003;4.1106411133e+003;4.1051284180e+003;4.1184614258e+003;4.1447436523e+003;4.1116665039e+003;4.1305126953e+003;4.1138461914e+003;4.1132050781e+003;
3.6718750000e-001;4.1812822266e+003;4.2028203125e+003;4.1783334961e+003;4.1557690430e+003;4.2044873047e+003;4.1812822266e+003;4.1798715820e+003;4.1692309570e+003;4.1870512695e+003;4.2138461914e+003;4.1787177734e+003;4.1951284180e+003;4.1847436523e+003;4.1785898438e+003;
3.7500000000e-001;4.2123076172e+003;4.2360258789e+003;4.2101284180e+003;4.1858974609e+003;4.2385898438e+003;4.2092309570e+003;4.2080771484e+003;4.1993588867e+003;4.2171796875e+003;4.2494873047e+003;4.2125639648e+003;4.2282050781e+003;4.2141025391e+003;4.2107690430e+003;
3.8281250000e-001;4.1326923828e+003;4.1711538086e+003;4.1378203125e+003;4.1214101563e+003;4.1719228516e+003;4.1421796875e+003;4.1400000000e+003;4.1316665039e+003;4.1464101563e+003;4.1825639648e+003;4.1448715820e+003;4.1614101563e+003;4.1407690430e+003;4.1479487305e+003;
3.9062500000e-001;4.1423076172e+003;4.1848715820e+003;4.1479487305e+003;4.1314101563e+003;4.1812822266e+003;4.1526923828e+003;4.1512822266e+003;4.1428203125e+003;4.1587177734e+003;4.1937177734e+003;4.1556411133e+003;4.1698715820e+003;4.1585898438e+003;4.1592309570e+003;
3.9843750000e-001;4.1630771484e+003;4.2065385742e+003;4.1682050781e+003;4.1496152344e+003;4.2002563477e+003;4.1714101563e+003;4.1696152344e+003;4.1635898438e+003;4.1811538086e+003;4.2158974609e+003;4.1775639648e+003;4.1901284180e+003;4.1860258789e+003;4.1797436523e+003;
4.0625000000e-001;4.1585898438e+003;4.1989741211e+003;4.1625639648e+003;4.1430771484e+003;4.1926923828e+003;4.1652563477e+003;4.1615385742e+003;4.1573076172e+003;4.1760258789e+003;4.2105126953e+003;4.1741025391e+003;4.1865385742e+003;4.1820512695e+003;4.1739741211e+003;
4.1406250000e-001;4.1206411133e+003;4.1539741211e+003;4.1192309570e+003;4.1051284180e+003;4.1469228516e+003;4.1267949219e+003;4.1208974609e+003;4.1135898438e+003;4.1303847656e+003;4.1630771484e+003;4.1351284180e+003;4.1447436523e+003;4.1312822266e+003;4.1364101563e+003;
4.2187500000e-001;4.1161538086e+003;4.1550000000e+003;4.1187177734e+003;4.1015385742e+003;4.1461538086e+003;4.1251284180e+003;4.1187177734e+003;4.1144873047e+003;4.1292309570e+003;4.1626923828e+003;4.1311538086e+003;4.1433334961e+003;4.1333334961e+003;4.1358974609e+003;
4.2968750000e-001;4.0728205566e+003;4.1129487305e+003;4.0801281738e+003;4.0629487305e+003;4.1064101563e+003;4.0828205566e+003;4.0798718262e+003;4.0702563477e+003;4.0780769043e+003;4.1085898438e+003;4.0838461914e+003;4.1034614258e+003;4.0856411133e+003;4.0893588867e+003;
4.3750000000e-001;4.0410256348e+003;4.0575642090e+003;4.0453845215e+003;4.0224357910e+003;4.0561538086e+003;4.0467949219e+003;4.0435898438e+003;4.0344870605e+003;4.0435898438e+003;4.0694870605e+003;4.0478205566e+003;4.0670512695e+003;4.0392307129e+003;4.0519230957e+003;
4.4531250000e-001;4.0352563477e+003;4.0501281738e+003;4.0401281738e+003;4.0133332520e+003;4.0473076172e+003;4.0406411133e+003;4.0392307129e+003;4.0265385742e+003;4.0337180176e+003;4.0589743652e+003;4.0367949219e+003;4.0575642090e+003;4.0326923828e+003;4.0437180176e+003;
4.5312500000e-001;4.1317949219e+003;4.1597436523e+003;4.1416665039e+003;4.1126923828e+003;4.1493588867e+003;4.1364101563e+003;4.1380771484e+003;4.1356411133e+003;4.1378203125e+003;4.1692309570e+003;4.1424360352e+003;4.1625639648e+003;4.1388461914e+003;4.1461538086e+003;
4.6093750000e-001;4.0789743652e+003;4.1069228516e+003;4.0907692871e+003;4.0688461914e+003;4.1002563477e+003;4.0888461914e+003;4.0941025391e+003;4.0888461914e+003;4.1025639648e+003;4.1225639648e+003;4.1039741211e+003;4.1247436523e+003;4.0951281738e+003;4.1051284180e+003;
4.6875000000e-001;4.1011538086e+003;4.1298715820e+003;4.1110258789e+003;4.0885898438e+003;4.1234614258e+003;4.1078203125e+003;4.1152563477e+003;4.1103847656e+003;4.1257690430e+003;4.1455126953e+003;4.1270512695e+003;4.1471796875e+003;4.1197436523e+003;4.1288461914e+003;
4.7656250000e-001;4.0861538086e+003;4.1183334961e+003;4.0996152344e+003;4.0761538086e+003;4.1080771484e+003;4.1015385742e+003;4.1034614258e+003;4.1001284180e+003;4.1084614258e+003;4.1374360352e+003;4.1084614258e+003;4.1311538086e+003;4.1096152344e+003;4.1107690430e+003;
4.8437500000e-001;4.0902563477e+003;4.1239741211e+003;4.1037177734e+003;4.0823076172e+003;4.1142309570e+003;4.1066665039e+003;4.1076923828e+003;4.1017949219e+003;4.1103847656e+003;4.1400000000e+003;4.1098715820e+003;4.1321796875e+003;4.1146152344e+003;4.1115385742e+003;
4.9218750000e-001;4.1030771484e+003;4.1328203125e+003;4.1158974609e+003;4.0957692871e+003;4.1267949219e+003;4.1097436523e+003;4.1128203125e+003;4.1080771484e+003;4.1191025391e+003;4.1478203125e+003;4.1198715820e+003;4.1417949219e+003;4.1197436523e+003;4.1200000000e+003;
5.0000000000e-001;4.0802563477e+003;4.1041025391e+003;4.0937180176e+003;4.0711538086e+003;4.0967949219e+003;4.0826923828e+003;4.0865385742e+003;4.0805129395e+003;4.0908974609e+003;4.1193588867e+003;4.0941025391e+003;4.1182050781e+003;4.0889743652e+003;4.0947436523e+003;
5.0781250000e-001;4.1126923828e+003;4.1405126953e+003;4.1255126953e+003;4.0950000000e+003;4.1153847656e+003;4.1153847656e+003;4.1185898438e+003;4.1073076172e+003;4.1151284180e+003;4.1516665039e+003;4.1228203125e+003;4.1520512695e+003;4.1221796875e+003;4.1271796875e+003;
5.1562500000e-001;4.1219228516e+003;4.1564101563e+003;4.1361538086e+003;4.1091025391e+003;4.1330771484e+003;4.1297436523e+003;4.1306411133e+003;4.1230771484e+003;4.1312822266e+003;4.1692309570e+003;4.1361538086e+003;4.1653847656e+003;4.1365385742e+003;4.1415385742e+003;
5.2343750000e-001;4.0942307129e+003;4.1319228516e+003;4.1101284180e+003;4.0896154785e+003;4.1174360352e+003;4.1079487305e+003;4.1067949219e+003;4.1001284180e+003;4.1085898438e+003;4.1441025391e+003;4.1114101563e+003;4.1393588867e+003;4.1100000000e+003;4.1166665039e+003;
5.3125000000e-001;4.0601281738e+003;4.0965385742e+003;4.0758974609e+003;4.0611538086e+003;4.0939743652e+003;4.0757692871e+003;4.0751281738e+003;4.0648718262e+003;4.0737180176e+003;4.1044873047e+003;4.0776923828e+003;4.1020512695e+003;4.0737180176e+003;4.0806411133e+003;
5.3906250000e-001;4.1075639648e+003;4.1410258789e+003;4.1216665039e+003;4.1050000000e+003;4.1401284180e+003;4.1162822266e+003;4.1183334961e+003;4.1153847656e+003;4.1285898438e+003;4.1538461914e+003;4.1334614258e+003;4.1517949219e+003;4.1315385742e+003;4.1292309570e+003;
5.4687500000e-001;4.0962822266e+003;4.1284614258e+003;4.1112822266e+003;4.0948718262e+003;4.1273076172e+003;4.1112822266e+003;4.1103847656e+003;4.1085898438e+003;4.1229487305e+003;4.1453847656e+003;4.1228203125e+003;4.1416665039e+003;4.1197436523e+003;4.1193588867e+003;
5.5468750000e-001;4.1525639648e+003;4.1894873047e+003;4.1670512695e+003;4.1461538086e+003;4.1941025391e+003;4.1730771484e+003;4.1787177734e+003;4.1757690430e+003;4.1870512695e+003;4.2115385742e+003;4.1807690430e+003;4.1900000000e+003;4.1817949219e+003;4.1743588867e+003;
5.6250000000e-001;4.1371796875e+003;4.1769228516e+003;4.1534614258e+003;4.1292309570e+003;4.1764101563e+003;4.1625639648e+003;4.1650000000e+003;4.1652563477e+003;4.1764101563e+003;4.2051284180e+003;4.1675639648e+003;4.1826923828e+003;4.1730771484e+003;4.1634614258e+003;
5.7031250000e-001;4.1680771484e+003;4.2070512695e+003;4.1848715820e+003;4.1584614258e+003;4.2061538086e+003;4.1898715820e+003;4.1908974609e+003;4.1926923828e+003;4.2088461914e+003;4.2379487305e+003;4.1998715820e+003;4.2139741211e+003;4.2042309570e+003;4.1947436523e+003;
5.7812500000e-001;4.1514101563e+003;4.1969228516e+003;4.1755126953e+003;4.1514101563e+003;4.1887177734e+003;4.1748715820e+003;4.1751284180e+003;4.1739741211e+003;4.1920512695e+003;4.2282050781e+003;4.1919228516e+003;4.1989741211e+003;4.1951284180e+003;4.1852563477e+003;
5.8593750000e-001;4.1779487305e+003;4.2282050781e+003;4.2012822266e+003;4.1744873047e+003;4.2178203125e+003;4.2003847656e+003;4.2006411133e+003;4.1980771484e+003;4.2128203125e+003;4.2552563477e+003;4.2207690430e+003;4.2261538086e+003;4.2243588867e+003;4.2146152344e+003;
5.9375000000e-001;4.1803847656e+003;4.2300000000e+003;4.2064101563e+003;4.1738461914e+003;4.2185898438e+003;4.2039741211e+003;4.2034614258e+003;4.2020512695e+003;4.2183334961e+003;4.2588461914e+003;4.2238461914e+003;4.2301284180e+003;4.2297436523e+003;4.2166665039e+003;
6.0156250000e-001;4.2825639648e+003;4.3410258789e+003;4.3047436523e+003;4.2770512695e+003;4.3285898438e+003;4.3066665039e+003;4.3134614258e+003;4.3073076172e+003;4.3237177734e+003;4.3610258789e+003;4.3298715820e+003;4.3312822266e+003;4.3306411133e+003;4.3194873047e+003;
6.0937500000e-001;4.3280771484e+003;4.3921796875e+003;4.3511538086e+003;4.3261538086e+003;4.3805126953e+003;4.3539741211e+003;4.3608974609e+003;4.3594873047e+003;4.3744873047e+003;4.4158974609e+003;4.3833334961e+003;4.3835898438e+003;4.3774360352e+003;4.3715385742e+003;
6.1718750000e-001;4.2794873047e+003;4.3456411133e+003;4.3155126953e+003;4.2837177734e+003;4.3361538086e+003;4.3137177734e+003;4.3180771484e+003;4.3197436523e+003;4.3348715820e+003;4.3794873047e+003;4.3464101563e+003;4.3498715820e+003;4.3365385742e+003;4.3348715820e+003;
6.2500000000e-001;4.2488461914e+003;4.3129487305e+003;4.2898715820e+003;4.2523076172e+003;4.3041025391e+003;4.2832050781e+003;4.2889741211e+003;4.2867949219e+003;4.3042309570e+003;4.3460258789e+003;4.3142309570e+003;4.3192309570e+003;4.3089741211e+003;4.3042309570e+003;
6.3281250000e-001;4.2814101563e+003;4.3514101563e+003;4.3234614258e+003;4.2839741211e+003;4.3373076172e+003;4.3139741211e+003;4.3219228516e+003;4.3275639648e+003;4.3407690430e+003;4.3765385742e+003;4.3393588867e+003;4.3483334961e+003;4.3376923828e+003;4.3329487305e+003;
6.4062500000e-001;4.2617949219e+003;4.3367949219e+003;4.3050000000e+003;4.2697436523e+003;4.3208974609e+003;4.3001284180e+003;4.3070512695e+003;4.3139741211e+003;4.3219228516e+003;4.3578203125e+003;4.3203847656e+003;4.3312822266e+003;4.3164101563e+003;4.3144873047e+003;
6.4843750000e-001;4.2501284180e+003;4.3297436523e+003;4.2942309570e+003;4.2633334961e+003;4.3137177734e+003;4.2930771484e+003;4.3000000000e+003;4.3044873047e+003;4.3100000000e+003;4.3464101563e+003;4.3103847656e+003;4.3208974609e+003;4.3070512695e+003;4.3044873047e+003;
6.5625000000e-001;4.2656411133e+003;4.3487177734e+003;4.3102563477e+003;4.2816665039e+003;4.3335898438e+003;4.3102563477e+003;4.3183334961e+003;4.3201284180e+003;4.3269228516e+003;4.3644873047e+003;4.3293588867e+003;4.3367949219e+003;4.3284614258e+003;4.3226923828e+003;
6.6406250000e-001;4.2874360352e+003;4.3732050781e+003;4.3402563477e+003;4.3080771484e+003;4.3524360352e+003;4.3365385742e+003;4.3401284180e+003;4.3434614258e+003;4.3511538086e+003;4.3894873047e+003;4.3646152344e+003;4.3656411133e+003;4.3511538086e+003;4.3492309570e+003;
6.7187500000e-001;4.3111538086e+003;4.4005126953e+003;4.3661538086e+003;4.3333334961e+003;4.3778203125e+003;4.3593588867e+003;4.3626923828e+003;4.3661538086e+003;4.3720512695e+003;4.4133334961e+003;4.3891025391e+003;4.3891025391e+003;4.3767949219e+003;4.3714101563e+003;
6.7968750000e-001;4.3083334961e+003;4.3987177734e+003;4.3691025391e+003;4.3314101563e+003;4.3871796875e+003;4.3603847656e+003;4.3646152344e+003;4.3646152344e+003;4.3767949219e+003;4.4229487305e+003;4.3842309570e+003;4.3853847656e+003;4.3852563477e+003;4.3738461914e+003;
6.8750000000e-001;4.3183334961e+003;4.4094873047e+003;4.3791025391e+003;4.3383334961e+003;4.3808974609e+003;4.3653847656e+003;4.3691025391e+003;4.3661538086e+003;4.3793588867e+003;4.4208974609e+003;4.3921796875e+003;4.3952563477e+003;4.3903847656e+003;4.3857690430e+003;
6.9531250000e-001;4.3287177734e+003;4.4203847656e+003;4.3916665039e+003;4.3512822266e+003;4.3903847656e+003;4.3725639648e+003;4.3761538086e+003;4.3770512695e+003;4.3911538086e+003;4.4311538086e+003;4.4051284180e+003;4.4091025391e+003;4.4008974609e+003;4.3987177734e+003;
7.0312500000e-001;4.3511538086e+003;4.4411538086e+003;4.4164101563e+003;4.3820512695e+003;4.4410258789e+003;4.3960258789e+003;4.4043588867e+003;4.3961538086e+003;4.4165385742e+003;4.4543588867e+003;4.4315385742e+003;4.4316665039e+003;4.4203847656e+003;4.4242309570e+003;
7.1093750000e-001;4.3671796875e+003;4.4746152344e+003;4.4366665039e+003;4.4042309570e+003;4.4634614258e+003;4.4237177734e+003;4.4271796875e+003;4.4297436523e+003;4.4421796875e+003;4.4843588867e+003;4.4514101563e+003;4.4553847656e+003;4.4491025391e+003;4.4414101563e+003;
7.1875000000e-001;4.3442309570e+003;4.4502563477e+003;4.4141025391e+003;4.3788461914e+003;4.4361538086e+003;4.4030771484e+003;4.4067949219e+003;4.4067949219e+003;4.4167949219e+003;4.4574360352e+003;4.4232050781e+003;4.4291025391e+003;4.4257690430e+003;4.4156411133e+003;
7.2656250000e-001;4.4174360352e+003;4.5188461914e+003;4.4880771484e+003;4.4432050781e+003;4.5117949219e+003;4.4733334961e+003;4.4803847656e+003;4.4779487305e+003;4.4921796875e+003;4.5294873047e+003;4.5029487305e+003;4.5008974609e+003;4.4935898438e+003;4.4853847656e+003;
7.3437500000e-001;4.4267949219e+003;4.5315385742e+003;4.4997436523e+003;4.4593588867e+003;4.5238461914e+003;4.4838461914e+003;4.4914101563e+003;4.4896152344e+003;4.5056411133e+003;4.5398715820e+003;4.5153847656e+003;4.5150000000e+003;4.5026923828e+003;4.4942309570e+003;
7.4218750000e-001;4.4797436523e+003;4.5885898438e+003;4.5557690430e+003;4.5200000000e+003;4.5793588867e+003;4.5341025391e+003;4.5479487305e+003;4.5421796875e+003;4.5575639648e+003;4.5917949219e+003;4.5632050781e+003;4.5676923828e+003;4.5555126953e+003;4.5426923828e+003;
7.5000000000e-001;4.5270512695e+003;4.6352563477e+003;4.6061538086e+003;4.5638461914e+003;4.6273076172e+003;4.5802563477e+003;4.5950000000e+003;4.5917949219e+003;4.6051284180e+003;4.6442309570e+003;4.6110258789e+003;4.6147436523e+003;4.6053847656e+003;4.5908974609e+003;
7.5781250000e-001;4.5148715820e+003;4.6308974609e+003;4.6089741211e+003;4.5521796875e+003;4.6200000000e+003;4.5834614258e+003;4.5864101563e+003;4.5925639648e+003;4.6034614258e+003;4.6434614258e+003;4.6176923828e+003;4.6207690430e+003;4.6097436523e+003;4.5943588867e+003;
7.6562500000e-001;4.5258974609e+003;4.6492309570e+003;4.6184614258e+003;4.5671796875e+003;4.6352563477e+003;4.5948715820e+003;4.5970512695e+003;4.6032050781e+003;4.6147436523e+003;4.6517949219e+003;4.6308974609e+003;4.6356411133e+003;4.6250000000e+003;4.6079487305e+003;
7.7343750000e-001;4.5566665039e+003;4.6846152344e+003;4.6460258789e+003;4.6000000000e+003;4.6697436523e+003;4.6220512695e+003;4.6256411133e+003;4.6335898438e+003;4.6457690430e+003;4.6834614258e+003;4.6621796875e+003;4.6684614258e+003;4.6583334961e+003;4.6402563477e+003;
7.8125000000e-001;4.5680771484e+003;4.6960258789e+003;4.6573076172e+003;4.6125639648e+003;4.6834614258e+003;4.6312822266e+003;4.6364101563e+003;4.6462822266e+003;4.6591025391e+003;4.7003847656e+003;4.6744873047e+003;4.6817949219e+003;4.6710258789e+003;4.6525639648e+003;
7.8906250000e-001;4.4884614258e+003;4.6211538086e+003;4.5975639648e+003;4.5429487305e+003;4.6150000000e+003;4.5697436523e+003;4.5684614258e+003;4.5742309570e+003;4.5951284180e+003;4.6303847656e+003;4.6078203125e+003;4.6082050781e+003;4.6033334961e+003;4.5791025391e+003;
7.9687500000e-001;4.4851284180e+003;4.6203847656e+003;4.5983334961e+003;4.5441025391e+003;4.6134614258e+003;4.5701284180e+003;4.5656411133e+003;4.5770512695e+003;4.5958974609e+003;4.6294873047e+003;4.6079487305e+003;4.6098715820e+003;4.6037177734e+003;4.5808974609e+003;
8.0468750000e-001;4.4303847656e+003;4.5524360352e+003;4.5348715820e+003;4.4884614258e+003;4.5550000000e+003;4.5187177734e+003;4.5137177734e+003;4.5197436523e+003;4.5348715820e+003;4.5705126953e+003;4.5439741211e+003;4.5529487305e+003;4.5407690430e+003;4.5219228516e+003;
8.1250000000e-001;4.4442309570e+003;4.5751284180e+003;4.5461538086e+003;4.4971796875e+003;4.5679487305e+003;4.5279487305e+003;4.5274360352e+003;4.5387177734e+003;4.5530771484e+003;4.5906411133e+003;4.5656411133e+003;4.5682050781e+003;4.5628203125e+003;4.5416665039e+003;
8.2031250000e-001;4.4164101563e+003;4.5437177734e+003;4.5221796875e+003;4.4706411133e+003;4.5366665039e+003;4.4998715820e+003;4.5003847656e+003;4.5129487305e+003;4.5235898438e+003;4.5598715820e+003;4.5379487305e+003;4.5398715820e+003;4.5335898438e+003;4.5135898438e+003;
8.2812500000e-001;4.4411538086e+003;4.5600000000e+003;4.5424360352e+003;4.4976923828e+003;4.5624360352e+003;4.5258974609e+003;4.5270512695e+003;4.5382050781e+003;4.5546152344e+003;4.5891025391e+003;4.5562822266e+003;4.5573076172e+003;4.5542309570e+003;4.5285898438e+003;
8.3593750000e-001;4.3974360352e+003;4.5312822266e+003;4.5012822266e+003;4.4632050781e+003;4.5275639648e+003;4.4985898438e+003;4.4985898438e+003;4.5023076172e+003;4.5147436523e+003;4.5458974609e+003;4.5233334961e+003;4.5216665039e+003;4.5160258789e+003;4.4961538086e+003;
8.4375000000e-001;4.4297436523e+003;4.5628203125e+003;4.5353847656e+003;4.4898715820e+003;4.5598715820e+003;4.5265385742e+003;4.5288461914e+003;4.5317949219e+003;4.5430771484e+003;4.5750000000e+003;4.5579487305e+003;4.5537177734e+003;4.5478203125e+003;4.5308974609e+003;
8.5156250000e-001;4.4585898438e+003;4.5885898438e+003;4.5666665039e+003;4.5125639648e+003;4.5878203125e+003;4.5508974609e+003;4.5538461914e+003;4.5594873047e+003;4.5716665039e+003;4.6038461914e+003;4.5871796875e+003;4.5833334961e+003;4.5755126953e+003;4.5605126953e+003;
8.5937500000e-001;4.4229487305e+003;4.5474360352e+003;4.5350000000e+003;4.4766665039e+003;4.5492309570e+003;4.5175639648e+003;4.5166665039e+003;4.5265385742e+003;4.5394873047e+003;4.5651284180e+003;4.5439741211e+003;4.5482050781e+003;4.5360258789e+003;4.5214101563e+003;
8.6718750000e-001;4.4067949219e+003;4.5315385742e+003;4.5191025391e+003;4.4651284180e+003;4.5325639648e+003;4.5030771484e+003;4.5014101563e+003;4.5111538086e+003;4.5220512695e+003;4.5446152344e+003;4.5241025391e+003;4.5297436523e+003;4.5189741211e+003;4.5030771484e+003;
8.7500000000e-001;4.4450000000e+003;4.5726923828e+003;4.5603847656e+003;4.5088461914e+003;4.5716665039e+003;4.5392309570e+003;4.5407690430e+003;4.5515385742e+003;4.5575639648e+003;4.5846152344e+003;4.5669228516e+003;4.5700000000e+003;4.5619228516e+003;4.5447436523e+003;
8.8281250000e-001;4.4475639648e+003;4.5738461914e+003;4.5666665039e+003;4.5103847656e+003;4.5739741211e+003;4.5420512695e+003;4.5450000000e+003;4.5550000000e+003;4.5598715820e+003;4.5894873047e+003;4.5734614258e+003;4.5769228516e+003;4.5667949219e+003;4.5505126953e+003;
8.9062500000e-001;4.4052563477e+003;4.5244873047e+003;4.5235898438e+003;4.4628203125e+003;4.5265385742e+003;4.4956411133e+003;4.4994873047e+003;4.5064101563e+003;4.5119228516e+003;4.5350000000e+003;4.5220512695e+003;4.5312822266e+003;4.5170512695e+003;4.5048715820e+003;
8.9843750000e-001;4.3908974609e+003;4.5110258789e+003;4.5076923828e+003;4.4526923828e+003;4.5098715820e+003;4.4802563477e+003;4.4821796875e+003;4.4934614258e+003;4.4991025391e+003;4.5207690430e+003;4.5061538086e+003;4.5169228516e+003;4.5002563477e+003;4.4908974609e+003;
9.0625000000e-001;4.3512822266e+003;4.4715385742e+003;4.4676923828e+003;4.4187177734e+003;4.4676923828e+003;4.4434614258e+003;4.4430771484e+003;4.4557690430e+003;4.4608974609e+003;4.4810258789e+003;4.4662822266e+003;4.4785898438e+003;4.4588461914e+003;4.4528203125e+003;
9.1406250000e-001;4.2882050781e+003;4.3938461914e+003;4.3958974609e+003;4.3460258789e+003;4.3980771484e+003;4.3755126953e+003;4.3803847656e+003;4.3788461914e+003;4.3788461914e+003;4.3983334961e+003;4.3961538086e+003;4.4030771484e+003;4.3858974609e+003;4.3846152344e+003;
9.2187500000e-001;4.2471796875e+003;4.3500000000e+003;4.3537177734e+003;4.3102563477e+003;4.3537177734e+003;4.3364101563e+003;4.3391025391e+003;4.3358974609e+003;4.3350000000e+003;4.3551284180e+003;4.3541025391e+003;4.3626923828e+003;4.3411538086e+003;4.3425639648e+003;
9.2968750000e-001;4.2291025391e+003;4.3365385742e+003;4.3293588867e+003;4.2970512695e+003;4.3362822266e+003;4.3233334961e+003;4.3239741211e+003;4.3098715820e+003;4.3135898438e+003;4.3311538086e+003;4.3276923828e+003;4.3337177734e+003;4.3229487305e+003;4.3174360352e+003;
9.3750000000e-001;4.2230771484e+003;4.3211538086e+003;4.3193588867e+003;4.2857690430e+003;4.3258974609e+003;4.3096152344e+003;4.3124360352e+003;4.3021796875e+003;4.3064101563e+003;4.3161538086e+003;4.3126923828e+003;4.3192309570e+003;4.3057690430e+003;4.3089741211e+003;
9.4531250000e-001;4.2506411133e+003;4.3469228516e+003;4.3437177734e+003;4.3105126953e+003;4.3479487305e+003;4.3321796875e+003;4.3373076172e+003;4.3276923828e+003;4.3324360352e+003;4.3412822266e+003;4.3408974609e+003;4.3456411133e+003;4.3315385742e+003;4.3366665039e+003;
9.5312500000e-001;4.2544873047e+003;4.3512822266e+003;4.3425639648e+003;4.3093588867e+003;4.3397436523e+003;4.3374360352e+003;4.3370512695e+003;4.3382050781e+003;4.3451284180e+003;4.3526923828e+003;4.3473076172e+003;4.3474360352e+003;4.3387177734e+003;4.3479487305e+003;
9.6093750000e-001;4.2297436523e+003;4.3274360352e+003;4.3156411133e+003;4.2851284180e+003;4.3187177734e+003;4.3135898438e+003;4.3128203125e+003;4.3115385742e+003;4.3194873047e+003;4.3238461914e+003;4.3174360352e+003;4.3171796875e+003;4.3107690430e+003;4.3214101563e+003;
9.6875000000e-001;4.2547436523e+003;4.3571796875e+003;4.3376923828e+003;4.3121796875e+003;4.3588461914e+003;4.3323076172e+003;4.3350000000e+003;4.3317949219e+003;4.3411538086e+003;4.3430771484e+003;4.3391025391e+003;4.3375639648e+003;4.3307690430e+003;4.3447436523e+003;
9.7656250000e-001;4.2575639648e+003;4.3592309570e+003;4.3414101563e+003;4.3175639648e+003;4.3641025391e+003;4.3337177734e+003;4.3351284180e+003;4.3344873047e+003;4.3420512695e+003;4.3461538086e+003;4.3438461914e+003;4.3438461914e+003;4.3328203125e+003;4.3507690430e+003;
9.8437500000e-001;4.2201284180e+003;4.3060258789e+003;4.2966665039e+003;4.2762822266e+003;4.3083334961e+003;4.2908974609e+003;4.2873076172e+003;4.2844873047e+003;4.2842309570e+003;4.2967949219e+003;4.2980771484e+003;4.3060258789e+003;4.2917949219e+003;4.3144873047e+003;
9.9218750000e-001;4.2338461914e+003;4.3188461914e+003;4.3087177734e+003;4.2861538086e+003;4.3197436523e+003;4.3020512695e+003;4.2983334961e+003;4.2961538086e+003;4.2965385742e+003;4.3101284180e+003;4.3112822266e+003;4.3173076172e+003;4.3066665039e+003;4.3271796875e+003;
1.0000000000e+000;4.2085898438e+003;4.2946152344e+003;4.2852563477e+003;4.2624360352e+003;4.2948715820e+003;4.2803847656e+003;4.2730771484e+003;4.2706411133e+003;4.2750000000e+003;4.2857690430e+003;4.2891025391e+003;4.2875639648e+003;4.2796152344e+003;4.2980771484e+003;
1.0078125000e+000;4.1997436523e+003;4.2855126953e+003;4.2750000000e+003;4.2552563477e+003;4.2850000000e+003;4.2720512695e+003;4.2639741211e+003;4.2578203125e+003;4.2641025391e+003;4.2735898438e+003;4.2783334961e+003;4.2737177734e+003;4.2671796875e+003;4.2844873047e+003;
1.0156250000e+000;4.2882050781e+003;4.3742309570e+003;4.3601284180e+003;4.3385898438e+003;4.3716665039e+003;4.3524360352e+003;4.3502563477e+003;4.3423076172e+003;4.3512822266e+003;4.3671796875e+003;4.3617949219e+003;4.3594873047e+003;4.3553847656e+003;4.3711538086e+003;
1.0234375000e+000;4.2697436523e+003;4.3553847656e+003;4.3448715820e+003;4.3230771484e+003;4.3538461914e+003;4.3383334961e+003;4.3351284180e+003;4.3278203125e+003;4.3346152344e+003;4.3497436523e+003;4.3434614258e+003;4.3446152344e+003;4.3373076172e+003;4.3552563477e+003;
1.0312500000e+000;4.2450000000e+003;4.3302563477e+003;4.3208974609e+003;4.3024360352e+003;4.3291025391e+003;4.3179487305e+003;4.3125639648e+003;4.3032050781e+003;4.3082050781e+003;4.3198715820e+003;4.3167949219e+003;4.3188461914e+003;4.3107690430e+003;4.3294873047e+003;
1.0390625000e+000;4.2639741211e+003;4.3521796875e+003;4.3338461914e+003;4.3248715820e+003;4.3501284180e+003;4.3339741211e+003;4.3362822266e+003;4.3291025391e+003;4.3326923828e+003;4.3441025391e+003;4.3437177734e+003;4.3451284180e+003;4.3301284180e+003;4.3475639648e+003;
1.0468750000e+000;4.2660258789e+003;4.3556411133e+003;4.3370512695e+003;4.3266665039e+003;4.3533334961e+003;4.3393588867e+003;4.3414101563e+003;4.3366665039e+003;4.3376923828e+003;4.3474360352e+003;4.3497436523e+003;4.3492309570e+003;4.3373076172e+003;4.3529487305e+003;
1.0546875000e+000;4.2443588867e+003;4.3301284180e+003;4.3121796875e+003;4.2973076172e+003;4.3247436523e+003;4.3232050781e+003;4.3138461914e+003;4.3169228516e+003;4.3173076172e+003;4.3200000000e+003;4.3169228516e+003;4.3176923828e+003;4.3157690430e+003;4.3255126953e+003;
1.0625000000e+000;4.2434614258e+003;4.3210258789e+003;4.3139741211e+003;4.2905126953e+003;4.3206411133e+003;4.3120512695e+003;4.3123076172e+003;4.3030771484e+003;4.2991025391e+003;4.3094873047e+003;4.3093588867e+003;4.3084614258e+003;4.2998715820e+003;4.3194873047e+003;
1.0703125000e+000;4.2717949219e+003;4.3511538086e+003;4.3434614258e+003;4.3220512695e+003;4.3500000000e+003;4.3380771484e+003;4.3393588867e+003;4.3360258789e+003;4.3310258789e+003;4.3453847656e+003;4.3450000000e+003;4.3407690430e+003;4.3337177734e+003;4.3533334961e+003;
1.0781250000e+000;4.2548715820e+003;4.3398715820e+003;4.3229487305e+003;4.3110258789e+003;4.3353847656e+003;4.3276923828e+003;4.3261538086e+003;4.3256411133e+003;4.3230771484e+003;4.3324360352e+003;4.3279487305e+003;4.3265385742e+003;4.3241025391e+003;4.3355126953e+003;
1.0859375000e+000;4.2780771484e+003;4.3630771484e+003;4.3434614258e+003;4.3306411133e+003;4.3592309570e+003;4.3506411133e+003;4.3475639648e+003;4.3489741211e+003;4.3474360352e+003;4.3574360352e+003;4.3501284180e+003;4.3470512695e+003;4.3465385742e+003;4.3550000000e+003;
1.0937500000e+000;4.2657690430e+003;4.3467949219e+003;4.3330771484e+003;4.3192309570e+003;4.3450000000e+003;4.3426923828e+003;4.3334614258e+003;4.3430771484e+003;4.3405126953e+003;4.3556411133e+003;4.3433334961e+003;4.3364101563e+003;4.3384614258e+003;4.3450000000e+003;
1.1015625000e+000;4.2251284180e+003;4.3028203125e+003;4.2952563477e+003;4.2819228516e+003;4.3035898438e+003;4.3052563477e+003;4.2960258789e+003;4.3010258789e+003;4.2987177734e+003;4.3135898438e+003;4.3021796875e+003;4.2961538086e+003;4.2998715820e+003;4.3058974609e+003;
1.1093750000e+000;4.2532050781e+003;4.3326923828e+003;4.3258974609e+003;4.3091025391e+003;4.3367949219e+003;4.3262822266e+003;4.3278203125e+003;4.3192309570e+003;4.3188461914e+003;4.3358974609e+003;4.3258974609e+003;4.3269228516e+003;4.3317949219e+003;4.3333334961e+003;
1.1171875000e+000;4.2582050781e+003;4.3388461914e+003;4.3321796875e+003;4.3134614258e+003;4.3400000000e+003;4.3302563477e+003;4.3314101563e+003;4.3273076172e+003;4.3264101563e+003;4.3444873047e+003;4.3342309570e+003;4.3357690430e+003;4.3383334961e+003;4.3411538086e+003;
1.1250000000e+000;4.2426923828e+003;4.3198715820e+003;4.3165385742e+003;4.2951284180e+003;4.3176923828e+003;4.3117949219e+003;4.3119228516e+003;4.3103847656e+003;4.3123076172e+003;4.3270512695e+003;4.3241025391e+003;4.3215385742e+003;4.3197436523e+003;4.3316665039e+003;
1.1328125000e+000;4.2589741211e+003;4.3342309570e+003;4.3308974609e+003;4.3085898438e+003;4.3317949219e+003;4.3234614258e+003;4.3244873047e+003;4.3219228516e+003;4.3275639648e+003;4.3403847656e+003;4.3410258789e+003;4.3362822266e+003;4.3323076172e+003;4.3489741211e+003;
1.1406250000e+000;4.2315385742e+003;4.3020512695e+003;4.3028203125e+003;4.2835898438e+003;4.2989741211e+003;4.2926923828e+003;4.2917949219e+003;4.2903847656e+003;4.2946152344e+003;4.3065385742e+003;4.3039741211e+003;4.3050000000e+003;4.2967949219e+003;4.3143588867e+003;
1.1484375000e+000;4.2211538086e+003;4.2902563477e+003;4.2911538086e+003;4.2729487305e+003;4.2891025391e+003;4.2824360352e+003;4.2815385742e+003;4.2810258789e+003;4.2821796875e+003;4.2928203125e+003;4.2892309570e+003;4.2908974609e+003;4.2850000000e+003;4.3006411133e+003;
1.1562500000e+000;4.2374360352e+003;4.3071796875e+003;4.3056411133e+003;4.2858974609e+003;4.3057690430e+003;4.2976923828e+003;4.2973076172e+003;4.2996152344e+003;4.3000000000e+003;4.3087177734e+003;4.3051284180e+003;4.3052563477e+003;4.3008974609e+003;4.3167949219e+003;
1.1640625000e+000;4.2178203125e+003;4.2871796875e+003;4.2776923828e+003;4.2729487305e+003;4.2756411133e+003;4.2817949219e+003;4.2780771484e+003;4.2815385742e+003;4.2828203125e+003;4.2908974609e+003;4.2866665039e+003;4.2837177734e+003;4.2811538086e+003;4.2924360352e+003;
1.1718750000e+000;4.2351284180e+003;4.3037177734e+003;4.2962822266e+003;4.2920512695e+003;4.3055126953e+003;4.2998715820e+003;4.2962822266e+003;4.3050000000e+003;4.3048715820e+003;4.3156411133e+003;4.3047436523e+003;4.3026923828e+003;4.3011538086e+003;4.3111538086e+003;
1.1796875000e+000;4.1710258789e+003;4.2367949219e+003;4.2371796875e+003;4.2206411133e+003;4.2543588867e+003;4.2512822266e+003;4.2453847656e+003;4.2567949219e+003;4.2555126953e+003;4.2556411133e+003;4.2451284180e+003;4.2469228516e+003;4.2323076172e+003;4.2500000000e+003;
1.1875000000e+000;4.2105126953e+003;4.2729487305e+003;4.2678203125e+003;4.2547436523e+003;4.2776923828e+003;4.2807690430e+003;4.2782050781e+003;4.2821796875e+003;4.2780771484e+003;4.2858974609e+003;4.2816665039e+003;4.2779487305e+003;4.2720512695e+003;4.2814101563e+003;
1.1953125000e+000;4.2001284180e+003;4.2619228516e+003;4.2591025391e+003;4.2502563477e+003;4.2702563477e+003;4.2720512695e+003;4.2697436523e+003;4.2689741211e+003;4.2660258789e+003;4.2758974609e+003;4.2707690430e+003;4.2685898438e+003;4.2605126953e+003;4.2732050781e+003;
1.2031250000e+000;4.2656411133e+003;4.3311538086e+003;4.3229487305e+003;4.3179487305e+003;4.3385898438e+003;4.3307690430e+003;4.3350000000e+003;4.3333334961e+003;4.3311538086e+003;4.3424360352e+003;4.3380771484e+003;4.3353847656e+003;4.3230771484e+003;4.3442309570e+003;
1.2109375000e+000;4.2706411133e+003;4.3344873047e+003;4.3289741211e+003;4.3170512695e+003;4.3360258789e+003;4.3300000000e+003;4.3346152344e+003;4.3384614258e+003;4.3342309570e+003;4.3478203125e+003;4.3437177734e+003;4.3407690430e+003;4.3296152344e+003;4.3484614258e+003;
1.2187500000e+000;4.2419228516e+003;4.2991025391e+003;4.3037177734e+003;4.2771796875e+003;4.2939741211e+003;4.2933334961e+003;4.2966665039e+003;4.2961538086e+003;4.2943588867e+003;4.3078203125e+003;4.3070512695e+003;4.3066665039e+003;4.3000000000e+003;4.3132050781e+003;
1.2265625000e+000;4.2675639648e+003;4.3235898438e+003;4.3279487305e+003;4.3001284180e+003;4.3175639648e+003;4.3150000000e+003;4.3188461914e+003;4.3137177734e+003;4.3170512695e+003;4.3297436523e+003;4.3292309570e+003;4.3287177734e+003;4.3244873047e+003;4.3370512695e+003;
1.2343750000e+000;4.2982050781e+003;4.3542309570e+003;4.3517949219e+003;4.3414101563e+003;4.3501284180e+003;4.3457690430e+003;4.3493588867e+003;4.3519228516e+003;4.3587177734e+003;4.3733334961e+003;4.3679487305e+003;4.3666665039e+003;4.3552563477e+003;4.3735898438e+003;
1.2421875000e+000;4.2760258789e+003;4.3324360352e+003;4.3292309570e+003;4.3178203125e+003;4.3282050781e+003;4.3241025391e+003;4.3282050781e+003;4.3325639648e+003;4.3361538086e+003;4.3506411133e+003;4.3469228516e+003;4.3448715820e+003;4.3334614258e+003;4.3514101563e+003;
1.2500000000e+000;4.2944873047e+003;4.3552563477e+003;4.3508974609e+003;4.3243588867e+003;4.3474360352e+003;4.3387177734e+003;4.3442309570e+003;4.3534614258e+003;4.3543588867e+003;4.3694873047e+003;4.3678203125e+003;4.3593588867e+003;4.3561538086e+003;4.3717949219e+003;
1.2578125000e+000;4.2882050781e+003;4.3502563477e+003;4.3479487305e+003;4.3189741211e+003;4.3412822266e+003;4.3339741211e+003;4.3389741211e+003;4.3498715820e+003;4.3512822266e+003;4.3656411133e+003;4.3641025391e+003;4.3541025391e+003;4.3515385742e+003;4.3689741211e+003;
1.2656250000e+000;4.2329487305e+003;4.2923076172e+003;4.2926923828e+003;4.2785898438e+003;4.2815385742e+003;4.2835898438e+003;4.2887177734e+003;4.2892309570e+003;4.2912822266e+003;4.3023076172e+003;4.3028203125e+003;4.3000000000e+003;4.2928203125e+003;4.3106411133e+003;
1.2734375000e+000;4.2624360352e+003;4.3226923828e+003;4.3208974609e+003;4.3042309570e+003;4.3102563477e+003;4.3103847656e+003;4.3137177734e+003;4.3180771484e+003;4.3194873047e+003;4.3317949219e+003;4.3287177734e+003;4.3296152344e+003;4.3230771484e+003;4.3374360352e+003;
1.2812500000e+000;4.2738461914e+003;4.3344873047e+003;4.3333334961e+003;4.3114101563e+003;4.3229487305e+003;4.3220512695e+003;4.3220512695e+003;4.3324360352e+003;4.3335898438e+003;4.3453847656e+003;4.3385898438e+003;4.3429487305e+003;4.3356411133e+003;4.3491025391e+003;
1.2890625000e+000;4.2498715820e+003;4.3080771484e+003;4.3110258789e+003;4.2858974609e+003;4.3014101563e+003;4.3017949219e+003;4.2993588867e+003;4.3111538086e+003;4.3129487305e+003;4.3210258789e+003;4.3141025391e+003;4.3196152344e+003;4.3110258789e+003;4.3267949219e+003;
1.2968750000e+000;4.2217949219e+003;4.2678203125e+003;4.2726923828e+003;4.2573076172e+003;4.2717949219e+003;4.2782050781e+003;4.2785898438e+003;4.2826923828e+003;4.2894873047e+003;4.2914101563e+003;4.2903847656e+003;4.2826923828e+003;4.2782050781e+003;4.3011538086e+003;
1.3046875000e+000;4.1974360352e+003;4.2432050781e+003;4.2533334961e+003;4.2283334961e+003;4.2514101563e+003;4.2626923828e+003;4.2603847656e+003;4.2593588867e+003;4.2665385742e+003;4.2603847656e+003;4.2573076172e+003;4.2592309570e+003;4.2380771484e+003;4.2673076172e+003;
1.3125000000e+000;4.2133334961e+003;4.2579487305e+003;4.2679487305e+003;4.2450000000e+003;4.2676923828e+003;4.2751284180e+003;4.2724360352e+003;4.2715385742e+003;4.2773076172e+003;4.2744873047e+003;4.2724360352e+003;4.2728203125e+003;4.2537177734e+003;4.2807690430e+003;
1.3203125000e+000;4.1891025391e+003;4.2324360352e+003;4.2400000000e+003;4.2215385742e+003;4.2358974609e+003;4.2433334961e+003;4.2415385742e+003;4.2380771484e+003;4.2408974609e+003;4.2456411133e+003;4.2452563477e+003;4.2438461914e+003;4.2316665039e+003;4.2537177734e+003;
1.3281250000e+000;4.1792309570e+003;4.2175639648e+003;4.2261538086e+003;4.2050000000e+003;4.2191025391e+003;4.2239741211e+003;4.2258974609e+003;4.2216665039e+003;4.2298715820e+003;4.2302563477e+003;4.2321796875e+003;4.2307690430e+003;4.2182050781e+003;4.2415385742e+003;
1.3359375000e+000;4.1506411133e+003;4.1864101563e+003;4.1978203125e+003;4.1793588867e+003;4.1893588867e+003;4.1960258789e+003;4.1952563477e+003;4.1900000000e+003;4.1975639648e+003;4.1958974609e+003;4.1998715820e+003;4.1991025391e+003;4.1848715820e+003;4.2084614258e+003;
1.3437500000e+000;4.1647436523e+003;4.2064101563e+003;4.2116665039e+003;4.2000000000e+003;4.2080771484e+003;4.2062822266e+003;4.2043588867e+003;4.2034614258e+003;4.2098715820e+003;4.2076923828e+003;4.2126923828e+003;4.2085898438e+003;4.1958974609e+003;4.2161538086e+003;
1.3515625000e+000;4.1773076172e+003;4.2220512695e+003;4.2251284180e+003;4.2144873047e+003;4.2244873047e+003;4.2191025391e+003;4.2176923828e+003;4.2210258789e+003;4.2262822266e+003;4.2246152344e+003;4.2292309570e+003;4.2241025391e+003;4.2098715820e+003;4.2308974609e+003;
1.3593750000e+000;4.2023076172e+003;4.2374360352e+003;4.2443588867e+003;4.2311538086e+003;4.2420512695e+003;4.2456411133e+003;4.2462822266e+003;4.2383334961e+003;4.2392309570e+003;4.2367949219e+003;4.2497436523e+003;4.2500000000e+003;4.2321796875e+003;4.2584614258e+003;
1.3671875000e+000;4.2684614258e+003;4.3034614258e+003;4.3056411133e+003;4.2903847656e+003;4.3035898438e+003;4.3035898438e+003;4.3057690430e+003;4.2988461914e+003;4.3016665039e+003;4.3001284180e+003;4.3108974609e+003;4.3117949219e+003;4.2987177734e+003;4.3229487305e+003;
1.3750000000e+000;4.3392309570e+003;4.3814101563e+003;4.3762822266e+003;4.3557690430e+003;4.3785898438e+003;4.3670512695e+003;4.3703847656e+003;4.3761538086e+003;4.3815385742e+003;4.3816665039e+003;4.3805126953e+003;4.3784614258e+003;4.3758974609e+003;4.3955126953e+003;
1.3828125000e+000;4.3303847656e+003;4.3760258789e+003;4.3712822266e+003;4.3482050781e+003;4.3766665039e+003;4.3630771484e+003;4.3671796875e+003;4.3726923828e+003;4.3769228516e+003;4.3770512695e+003;4.3739741211e+003;4.3687177734e+003;4.3694873047e+003;4.3876923828e+003;
1.3906250000e+000;4.3978203125e+003;4.4530771484e+003;4.4479487305e+003;4.4175639648e+003;4.4444873047e+003;4.4424360352e+003;4.4478203125e+003;4.4461538086e+003;4.4514101563e+003;4.4592309570e+003;4.4552563477e+003;4.4466665039e+003;4.4424360352e+003;4.4614101563e+003;
1.3984375000e+000;4.3862822266e+003;4.4434614258e+003;4.4385898438e+003;4.4093588867e+003;4.4275639648e+003;4.4329487305e+003;4.4356411133e+003;4.4374360352e+003;4.4434614258e+003;4.4529487305e+003;4.4456411133e+003;4.4415385742e+003;4.4319228516e+003;4.4529487305e+003;
1.4062500000e+000;4.3489741211e+003;4.4060258789e+003;4.4010258789e+003;4.3765385742e+003;4.3893588867e+003;4.3970512695e+003;4.3973076172e+003;4.4000000000e+003;4.4061538086e+003;4.4141025391e+003;4.4055126953e+003;4.4050000000e+003;4.3939741211e+003;4.4153847656e+003;
1.4140625000e+000;4.3291025391e+003;4.3846152344e+003;4.3779487305e+003;4.3585898438e+003;4.3751284180e+003;4.3758974609e+003;4.3756411133e+003;4.3764101563e+003;4.3821796875e+003;4.3870512695e+003;4.3797436523e+003;4.3792309570e+003;4.3723076172e+003;4.3917949219e+003;
1.4218750000e+000;4.3764101563e+003;4.4297436523e+003;4.4303847656e+003;4.3888461914e+003;4.4383334961e+003;4.4216665039e+003;4.4210258789e+003;4.4187177734e+003;4.4207690430e+003;4.4275639648e+003;4.4273076172e+003;4.4276923828e+003;4.4188461914e+003;4.4458974609e+003;
1.4296875000e+000;4.3674360352e+003;4.4232050781e+003;4.4211538086e+003;4.3819228516e+003;4.4255126953e+003;4.4114101563e+003;4.4115385742e+003;4.4067949219e+003;4.4084614258e+003;4.4166665039e+003;4.4208974609e+003;4.4211538086e+003;4.4098715820e+003;4.4396152344e+003;
1.4375000000e+000;4.3782050781e+003;4.4446152344e+003;4.4292309570e+003;4.4120512695e+003;4.4369228516e+003;4.4196152344e+003;4.4161538086e+003;4.4164101563e+003;4.4182050781e+003;4.4324360352e+003;4.4366665039e+003;4.4324360352e+003;4.4225639648e+003;4.4521796875e+003;
1.4453125000e+000;4.3611538086e+003;4.4151284180e+003;4.4207690430e+003;4.3860258789e+003;4.4191025391e+003;4.4088461914e+003;4.4093588867e+003;4.3983334961e+003;4.3973076172e+003;4.4097436523e+003;4.4128203125e+003;4.4176923828e+003;4.4010258789e+003;4.4315385742e+003;
1.4531250000e+000;4.3857690430e+003;4.4414101563e+003;4.4456411133e+003;4.4119228516e+003;4.4469228516e+003;4.4339741211e+003;4.4355126953e+003;4.4269228516e+003;4.4266665039e+003;4.4396152344e+003;4.4429487305e+003;4.4446152344e+003;4.4320512695e+003;4.4602563477e+003;
1.4609375000e+000;4.3793588867e+003;4.4491025391e+003;4.4393588867e+003;4.4197436523e+003;4.4438461914e+003;4.4320512695e+003;4.4339741211e+003;4.4311538086e+003;4.4357690430e+003;4.4452563477e+003;4.4426923828e+003;4.4412822266e+003;4.4387177734e+003;4.4606411133e+003;
1.4687500000e+000;4.4707690430e+003;4.5403847656e+003;4.5364101563e+003;4.5056411133e+003;4.5407690430e+003;4.5198715820e+003;4.5288461914e+003;4.5365385742e+003;4.5408974609e+003;4.5485898438e+003;4.5447436523e+003;4.5369228516e+003;4.5378203125e+003;4.5520512695e+003;
1.4765625000e+000;4.4530771484e+003;4.5247436523e+003;4.5207690430e+003;4.4958974609e+003;4.5279487305e+003;4.5061538086e+003;4.5138461914e+003;4.5255126953e+003;4.5279487305e+003;4.5325639648e+003;4.5303847656e+003;4.5232050781e+003;4.5201284180e+003;4.5360258789e+003;
1.4843750000e+000;4.5157690430e+003;4.5943588867e+003;4.5793588867e+003;4.5624360352e+003;4.5929487305e+003;4.5642309570e+003;4.5725639648e+003;4.5842309570e+003;4.5876923828e+003;4.5878203125e+003;4.5883334961e+003;4.5851284180e+003;4.5700000000e+003;4.5951284180e+003;
1.4921875000e+000;4.5434614258e+003;4.6221796875e+003;4.6116665039e+003;4.5896152344e+003;4.6200000000e+003;4.5934614258e+003;4.6024360352e+003;4.6138461914e+003;4.6180771484e+003;4.6214101563e+003;4.6182050781e+003;4.6146152344e+003;4.6016665039e+003;4.6224360352e+003;
1.5000000000e+000;4.5230771484e+003;4.6066665039e+003;4.6043588867e+003;4.5776923828e+003;4.6096152344e+003;4.5906411133e+003;4.5985898438e+003;4.6043588867e+003;4.6071796875e+003;4.6144873047e+003;4.6071796875e+003;4.6000000000e+003;4.6015385742e+003;4.6057690430e+003;
1.5078125000e+000;4.5193588867e+003;4.6080771484e+003;4.6044873047e+003;4.5761538086e+003;4.6143588867e+003;4.5934614258e+003;4.6005126953e+003;4.6055126953e+003;4.6076923828e+003;4.6152563477e+003;4.6087177734e+003;4.5998715820e+003;4.6055126953e+003;4.6066665039e+003;
1.5156250000e+000;4.4670512695e+003;4.5524360352e+003;4.5564101563e+003;4.5226923828e+003;4.5641025391e+003;4.5428203125e+003;4.5462822266e+003;4.5538461914e+003;4.5558974609e+003;4.5573076172e+003;4.5583334961e+003;4.5617949219e+003;4.5433334961e+003;4.5600000000e+003;
1.5234375000e+000;4.4419228516e+003;4.5247436523e+003;4.5300000000e+003;4.5007690430e+003;4.5355126953e+003;4.5184614258e+003;4.5212822266e+003;4.5232050781e+003;4.5262822266e+003;4.5252563477e+003;4.5284614258e+003;4.5352563477e+003;4.5128203125e+003;4.5282050781e+003;
1.5312500000e+000;4.4475639648e+003;4.5325639648e+003;4.5335898438e+003;4.5106411133e+003;4.5411538086e+003;4.5250000000e+003;4.5279487305e+003;4.5256411133e+003;4.5293588867e+003;4.5288461914e+003;4.5316665039e+003;4.5375639648e+003;4.5175639648e+003;4.5276923828e+003;
1.5390625000e+000;4.4679487305e+003;4.5579487305e+003;4.5530771484e+003;4.5347436523e+003;4.5644873047e+003;4.5473076172e+003;4.5500000000e+003;4.5475639648e+003;4.5517949219e+003;4.5532050781e+003;4.5539741211e+003;4.5569228516e+003;4.5407690430e+003;4.5467949219e+003;
1.5468750000e+000;4.4207690430e+003;4.5142309570e+003;4.5083334961e+003;4.4950000000e+003;4.5247436523e+003;4.5130771484e+003;4.5146152344e+003;4.5120512695e+003;4.5151284180e+003;4.5108974609e+003;4.5144873047e+003;4.5162822266e+003;4.5001284180e+003;4.5116665039e+003;
1.5546875000e+000;4.4411538086e+003;4.5361538086e+003;4.5246152344e+003;4.5138461914e+003;4.5446152344e+003;4.5294873047e+003;4.5320512695e+003;4.5334614258e+003;4.5350000000e+003;4.5324360352e+003;4.5338461914e+003;4.5328203125e+003;4.5207690430e+003;4.5282050781e+003;
1.5625000000e+000;4.4202563477e+003;4.5137177734e+003;4.5041025391e+003;4.4903847656e+003;4.5205126953e+003;4.5076923828e+003;4.5078203125e+003;4.5144873047e+003;4.5151284180e+003;4.5142309570e+003;4.5125639648e+003;4.5097436523e+003;4.4956411133e+003;4.5038461914e+003;
1.5703125000e+000;4.4889741211e+003;4.5906411133e+003;4.5797436523e+003;4.5624360352e+003;4.5893588867e+003;4.5701284180e+003;4.5678203125e+003;4.5832050781e+003;4.5902563477e+003;4.5896152344e+003;4.5843588867e+003;4.5832050781e+003;4.5723076172e+003;4.5789741211e+003;
1.5781250000e+000;4.4624360352e+003;4.5656411133e+003;4.5529487305e+003;4.5378203125e+003;4.5620512695e+003;4.5423076172e+003;4.5389741211e+003;4.5576923828e+003;4.5635898438e+003;4.5624360352e+003;4.5567949219e+003;4.5578203125e+003;4.5456411133e+003;4.5521796875e+003;
1.5859375000e+000;4.4757690430e+003;4.5730771484e+003;4.5608974609e+003;4.5452563477e+003;4.5766665039e+003;4.5492309570e+003;4.5539741211e+003;4.5602563477e+003;4.5685898438e+003;4.5667949219e+003;4.5703847656e+003;4.5655126953e+003;4.5556411133e+003;4.5651284180e+003;
1.5937500000e+000;4.4714101563e+003;4.5803847656e+003;4.5625639648e+003;4.5487177734e+003;4.5738461914e+003;4.5524360352e+003;4.5551284180e+003;4.5683334961e+003;4.5785898438e+003;4.5742309570e+003;4.5766665039e+003;4.5723076172e+003;4.5585898438e+003;4.5701284180e+003;
1.6015625000e+000;4.4520512695e+003;4.5628203125e+003;4.5407690430e+003;4.5287177734e+003;4.5555126953e+003;4.5317949219e+003;4.5339741211e+003;4.5465385742e+003;4.5548715820e+003;4.5483334961e+003;4.5519228516e+003;4.5493588867e+003;4.5353847656e+003;4.5484614258e+003;
1.6093750000e+000;4.4628203125e+003;4.5735898438e+003;4.5487177734e+003;4.5360258789e+003;4.5676923828e+003;4.5412822266e+003;4.5425639648e+003;4.5539741211e+003;4.5616665039e+003;4.5544873047e+003;4.5585898438e+003;4.5567949219e+003;4.5442309570e+003;4.5578203125e+003;
1.6171875000e+000;4.4893588867e+003;4.5948715820e+003;4.5767949219e+003;4.5638461914e+003;4.5888461914e+003;4.5756411133e+003;4.5730771484e+003;4.5811538086e+003;4.5888461914e+003;4.5826923828e+003;4.5889741211e+003;4.5873076172e+003;4.5753847656e+003;4.5882050781e+003;
1.6250000000e+000;4.5211538086e+003;4.6156411133e+003;4.6097436523e+003;4.5971796875e+003;4.6119228516e+003;4.5992309570e+003;4.6029487305e+003;4.6055126953e+003;4.6080771484e+003;4.6039741211e+003;4.6197436523e+003;4.6157690430e+003;4.6029487305e+003;4.6169228516e+003;
1.6328125000e+000;4.5382050781e+003;4.6338461914e+003;4.6279487305e+003;4.6091025391e+003;4.6356411133e+003;4.6100000000e+003;4.6146152344e+003;4.6205126953e+003;4.6233334961e+003;4.6214101563e+003;4.6338461914e+003;4.6307690430e+003;4.6183334961e+003;4.6351284180e+003;
1.6406250000e+000;4.5244873047e+003;4.6219228516e+003;4.6165385742e+003;4.5921796875e+003;4.6280771484e+003;4.5950000000e+003;4.5985898438e+003;4.6056411133e+003;4.6098715820e+003;4.6092309570e+003;4.6179487305e+003;4.6165385742e+003;4.6041025391e+003;4.6230771484e+003;
1.6484375000e+000;4.4566665039e+003;4.5560258789e+003;4.5503847656e+003;4.5279487305e+003;4.5607690430e+003;4.5350000000e+003;4.5355126953e+003;4.5347436523e+003;4.5420512695e+003;4.5406411133e+003;4.5503847656e+003;4.5498715820e+003;4.5407690430e+003;4.5535898438e+003;
1.6562500000e+000;4.4364101563e+003;4.5365385742e+003;4.5296152344e+003;4.5133334961e+003;4.5379487305e+003;4.5183334961e+003;4.5176923828e+003;4.5156411133e+003;4.5233334961e+003;4.5212822266e+003;4.5338461914e+003;4.5329487305e+003;4.5250000000e+003;4.5332050781e+003;
1.6640625000e+000;4.4098715820e+003;4.5094873047e+003;4.5037177734e+003;4.4926923828e+003;4.5094873047e+003;4.4942309570e+003;4.4923076172e+003;4.4928203125e+003;4.4998715820e+003;4.4966665039e+003;4.5112822266e+003;4.5111538086e+003;4.5007690430e+003;4.5088461914e+003;
1.6718750000e+000;4.3723076172e+003;4.4630771484e+003;4.4625639648e+003;4.4535898438e+003;4.4637177734e+003;4.4560258789e+003;4.4538461914e+003;4.4543588867e+003;4.4608974609e+003;4.4528203125e+003;4.4624360352e+003;4.4624360352e+003;4.4546152344e+003;4.4628203125e+003;
1.6796875000e+000;4.3667949219e+003;4.4571796875e+003;4.4567949219e+003;4.4460258789e+003;4.4555126953e+003;4.4542309570e+003;4.4483334961e+003;4.4519228516e+003;4.4588461914e+003;4.4523076172e+003;4.4602563477e+003;4.4580771484e+003;4.4502563477e+003;4.4566665039e+003;
1.6875000000e+000;4.2975639648e+003;4.3796152344e+003;4.3839741211e+003;4.3735898438e+003;4.3848715820e+003;4.3825639648e+003;4.3780771484e+003;4.3794873047e+003;4.3830771484e+003;4.3807690430e+003;4.3894873047e+003;4.3819228516e+003;4.3737177734e+003;4.3866665039e+003;
1.6953125000e+000;4.2467949219e+003;4.3253847656e+003;4.3283334961e+003;4.3305126953e+003;4.3279487305e+003;4.3300000000e+003;4.3305126953e+003;4.3316665039e+003;4.3371796875e+003;4.3303847656e+003;4.3396152344e+003;4.3347436523e+003;4.3241025391e+003;4.3362822266e+003;
1.7031250000e+000;4.2303847656e+003;4.3046152344e+003;4.3073076172e+003;4.3116665039e+003;4.3080771484e+003;4.3144873047e+003;4.3142309570e+003;4.3106411133e+003;4.3192309570e+003;4.3076923828e+003;4.3207690430e+003;4.3138461914e+003;4.3075639648e+003;4.3174360352e+003;
1.7109375000e+000;4.2630771484e+003;4.3228203125e+003;4.3300000000e+003;4.3341025391e+003;4.3306411133e+003;4.3334614258e+003;4.3276923828e+003;4.3314101563e+003;4.3389741211e+003;4.3321796875e+003;4.3461538086e+003;4.3343588867e+003;4.3369228516e+003;4.3456411133e+003;
1.7187500000e+000;4.1793588867e+003;4.2405126953e+003;4.2438461914e+003;4.2392309570e+003;4.2379487305e+003;4.2455126953e+003;4.2402563477e+003;4.2370512695e+003;4.2433334961e+003;4.2291025391e+003;4.2515385742e+003;4.2461538086e+003;4.2414101563e+003;4.2543588867e+003;
1.7265625000e+000;4.1908974609e+003;4.2501284180e+003;4.2524360352e+003;4.2434614258e+003;4.2462822266e+003;4.2533334961e+003;4.2496152344e+003;4.2461538086e+003;4.2541025391e+003;4.2373076172e+003;4.2621796875e+003;4.2561538086e+003;4.2507690430e+003;4.2647436523e+003;
1.7343750000e+000;4.1924360352e+003;4.2470512695e+003;4.2517949219e+003;4.2423076172e+003;4.2444873047e+003;4.2520512695e+003;4.2494873047e+003;4.2470512695e+003;4.2550000000e+003;4.2376923828e+003;4.2632050781e+003;4.2579487305e+003;4.2498715820e+003;4.2658974609e+003;
1.7421875000e+000;4.1757690430e+003;4.2201284180e+003;4.2300000000e+003;4.2329487305e+003;4.2211538086e+003;4.2302563477e+003;4.2291025391e+003;4.2226923828e+003;4.2289741211e+003;4.2130771484e+003;4.2393588867e+003;4.2376923828e+003;4.2226923828e+003;4.2423076172e+003;
1.7500000000e+000;4.2021796875e+003;4.2421796875e+003;4.2517949219e+003;4.2571796875e+003;4.2424360352e+003;4.2476923828e+003;4.2458974609e+003;4.2443588867e+003;4.2496152344e+003;4.2360258789e+003;4.2584614258e+003;4.2582050781e+003;4.2429487305e+003;4.2612822266e+003;
1.7578125000e+000;4.1603847656e+003;4.1982050781e+003;4.2112822266e+003;4.2116665039e+003;4.2011538086e+003;4.2088461914e+003;4.2058974609e+003;4.2058974609e+003;4.2092309570e+003;4.1942309570e+003;4.2161538086e+003;4.2166665039e+003;4.2003847656e+003;4.2197436523e+003;
1.7656250000e+000;4.1229487305e+003;4.1580771484e+003;4.1726923828e+003;4.1700000000e+003;4.1638461914e+003;4.1733334961e+003;4.1705126953e+003;4.1688461914e+003;4.1710258789e+003;4.1541025391e+003;4.1778203125e+003;4.1765385742e+003;4.1598715820e+003;4.1802563477e+003;
1.7734375000e+000;4.1241025391e+003;4.1548715820e+003;4.1664101563e+003;4.1674360352e+003;4.1606411133e+003;4.1711538086e+003;4.1694873047e+003;4.1661538086e+003;4.1707690430e+003;4.1508974609e+003;4.1775639648e+003;4.1705126953e+003;4.1582050781e+003;4.1762822266e+003;
1.7812500000e+000;4.1162822266e+003;4.1447436523e+003;4.1569228516e+003;4.1633334961e+003;4.1497436523e+003;4.1626923828e+003;4.1593588867e+003;4.1570512695e+003;4.1628203125e+003;4.1419228516e+003;4.1683334961e+003;4.1625639648e+003;4.1526923828e+003;4.1688461914e+003;
1.7890625000e+000;4.0862819824e+003;4.1120512695e+003;4.1260258789e+003;4.1379487305e+003;4.1182050781e+003;4.1332050781e+003;4.1278203125e+003;4.1244873047e+003;4.1300000000e+003;4.1076923828e+003;4.1344873047e+003;4.1325639648e+003;4.1239741211e+003;4.1392309570e+003;
1.7968750000e+000;4.0462819824e+003;4.0574357910e+003;4.0767949219e+003;4.0911538086e+003;4.0501281738e+003;4.0821794434e+003;4.0764101563e+003;4.0737180176e+003;4.0808974609e+003;4.0519230957e+003;4.0810256348e+003;4.0811538086e+003;4.0638461914e+003;4.0847436523e+003;
1.8046875000e+000;4.0066667480e+003;4.0134614258e+003;4.0344870605e+003;4.0532050781e+003;4.0061538086e+003;4.0441025391e+003;4.0379487305e+003;4.0330769043e+003;4.0392307129e+003;4.0073076172e+003;4.0382050781e+003;4.0391025391e+003;4.0255129395e+003;4.0433332520e+003;
1.8125000000e+000;4.0384614258e+003;4.0385898438e+003;4.0488461914e+003;4.0638461914e+003;4.0492307129e+003;4.0567949219e+003;4.0521794434e+003;4.0469230957e+003;4.0529487305e+003;4.0232050781e+003;4.0571794434e+003;4.0521794434e+003;4.0450000000e+003;4.0624357910e+003;
1.8203125000e+000;4.0278205566e+003;4.0250000000e+003;4.0332050781e+003;4.0532050781e+003;4.0252563477e+003;4.0447436523e+003;4.0387180176e+003;4.0252563477e+003;4.0300000000e+003;4.0000000000e+003;4.0317949219e+003;4.0287180176e+003;4.0216667480e+003;4.0374357910e+003;
1.8281250000e+000;4.0505129395e+003;4.0494870605e+003;4.0550000000e+003;4.0793588867e+003;4.0465385742e+003;4.0665385742e+003;4.0611538086e+003;4.0503845215e+003;4.0544870605e+003;4.0261538086e+003;4.0560256348e+003;4.0523076172e+003;4.0484614258e+003;4.0617949219e+003;
1.8359375000e+000;4.0015385742e+003;3.9905129395e+003;4.0069230957e+003;4.0278205566e+003;3.9985898438e+003;4.0166667480e+003;4.0083332520e+003;4.0035898438e+003;4.0105129395e+003;3.9829487305e+003;4.0115385742e+003;4.0089743652e+003;3.9991025391e+003;4.0150000000e+003;
1.8437500000e+000;4.0051281738e+003;3.9871794434e+003;3.9996154785e+003;4.0210256348e+003;3.9935898438e+003;4.0150000000e+003;4.0069230957e+003;3.9966667480e+003;3.9987180176e+003;3.9751281738e+003;3.9993588867e+003;4.0015385742e+003;4.0006411133e+003;4.0051281738e+003;
1.8515625000e+000;3.9866667480e+003;3.9679487305e+003;3.9810256348e+003;4.0037180176e+003;3.9746154785e+003;4.0003845215e+003;3.9897436523e+003;3.9793588867e+003;3.9817949219e+003;3.9576923828e+003;3.9820512695e+003;3.9850000000e+003;3.9830769043e+003;3.9873076172e+003;
1.8593750000e+000;3.9696154785e+003;3.9493588867e+003;3.9642307129e+003;3.9875642090e+003;3.9576923828e+003;3.9871794434e+003;3.9739743652e+003;3.9610256348e+003;3.9651281738e+003;3.9393588867e+003;3.9657692871e+003;3.9687180176e+003;3.9653845215e+003;3.9705129395e+003;
1.8671875000e+000;4.0248718262e+003;4.0026923828e+003;4.0171794434e+003;4.0405129395e+003;4.0112819824e+003;4.0382050781e+003;4.0242307129e+003;4.0107692871e+003;4.0166667480e+003;3.9928205566e+003;4.0167949219e+003;4.0191025391e+003;4.0187180176e+003;4.0242307129e+003;
1.8750000000e+000;4.0526923828e+003;4.0297436523e+003;4.0441025391e+003;4.0670512695e+003;4.0364101563e+003;4.0607692871e+003;4.0487180176e+003;4.0394870605e+003;4.0446154785e+003;4.0228205566e+003;4.0416667480e+003;4.0456411133e+003;4.0450000000e+003;4.0521794434e+003;
1.8828125000e+000;4.0124357910e+003;3.9833332520e+003;4.0015385742e+003;4.0237180176e+003;3.9903845215e+003;4.0146154785e+003;4.0082050781e+003;4.0003845215e+003;4.0041025391e+003;3.9784614258e+003;3.9969230957e+003;4.0039743652e+003;3.9937180176e+003;4.0107692871e+003;
1.8906250000e+000;4.0020512695e+003;3.9694870605e+003;3.9873076172e+003;4.0088461914e+003;3.9788461914e+003;4.0020512695e+003;3.9966667480e+003;3.9870512695e+003;3.9919230957e+003;3.9625642090e+003;3.9852563477e+003;3.9911538086e+003;3.9780769043e+003;3.9976923828e+003;
1.8984375000e+000;4.0162819824e+003;3.9821794434e+003;3.9969230957e+003;4.0102563477e+003;3.9906411133e+003;4.0152563477e+003;4.0033332520e+003;4.0014101563e+003;4.0058974609e+003;3.9807692871e+003;3.9989743652e+003;4.0012819824e+003;3.9971794434e+003;4.0064101563e+003;
1.9062500000e+000;3.9838461914e+003;3.9471794434e+003;3.9653845215e+003;3.9764101563e+003;3.9544870605e+003;3.9830769043e+003;3.9710256348e+003;3.9655129395e+003;3.9696154785e+003;3.9444870605e+003;3.9632050781e+003;3.9655129395e+003;3.9614101563e+003;3.9712819824e+003;
1.9140625000e+000;3.9705129395e+003;3.9311538086e+003;3.9512819824e+003;3.9617949219e+003;3.9385898438e+003;3.9682050781e+003;3.9579487305e+003;3.9462819824e+003;3.9528205566e+003;3.9244870605e+003;3.9473076172e+003;3.9484614258e+003;3.9423076172e+003;3.9558974609e+003;
1.9218750000e+000;3.9928205566e+003;3.9482050781e+003;3.9684614258e+003;3.9892307129e+003;3.9551281738e+003;3.9797436523e+003;3.9689743652e+003;3.9608974609e+003;3.9665385742e+003;3.9369230957e+003;3.9596154785e+003;3.9680769043e+003;3.9630769043e+003;3.9764101563e+003;
1.9296875000e+000;4.0147436523e+003;3.9711538086e+003;3.9869230957e+003;4.0073076172e+003;3.9765385742e+003;3.9952563477e+003;3.9855129395e+003;3.9753845215e+003;3.9821794434e+003;3.9543588867e+003;3.9779487305e+003;3.9843588867e+003;3.9821794434e+003;3.9941025391e+003;
1.9375000000e+000;4.0171794434e+003;3.9798718262e+003;3.9878205566e+003;4.0078205566e+003;3.9835898438e+003;3.9994870605e+003;3.9876923828e+003;3.9797436523e+003;3.9907692871e+003;3.9623076172e+003;3.9876923828e+003;3.9910256348e+003;3.9825642090e+003;4.0037180176e+003;
1.9453125000e+000;4.0846154785e+003;4.0496154785e+003;4.0551281738e+003;4.0714101563e+003;4.0501281738e+003;4.0587180176e+003;4.0541025391e+003;4.0476923828e+003;4.0583332520e+003;4.0341025391e+003;4.0537180176e+003;4.0550000000e+003;4.0569230957e+003;4.0710256348e+003;
1.9531250000e+000;4.0887180176e+003;4.0567949219e+003;4.0606411133e+003;4.0765385742e+003;4.0539743652e+003;4.0638461914e+003;4.0594870605e+003;4.0532050781e+003;4.0650000000e+003;4.0437180176e+003;4.0606411133e+003;4.0606411133e+003;4.0629487305e+003;4.0757692871e+003;
1.9609375000e+000;4.0578205566e+003;4.0294870605e+003;4.0308974609e+003;4.0520512695e+003;4.0232050781e+003;4.0408974609e+003;4.0338461914e+003;4.0251281738e+003;4.0348718262e+003;4.0132050781e+003;4.0294870605e+003;4.0294870605e+003;4.0285898438e+003;4.0407692871e+003;
1.9687500000e+000;4.0728205566e+003;4.0442307129e+003;4.0458974609e+003;4.0666667480e+003;4.0383332520e+003;4.0553845215e+003;4.0467949219e+003;4.0414101563e+003;4.0500000000e+003;4.0294870605e+003;4.0461538086e+003;4.0433332520e+003;4.0424357910e+003;4.0565385742e+003;
1.9765625000e+000;4.0602563477e+003;4.0324357910e+003;4.0341025391e+003;4.0510256348e+003;4.0235898438e+003;4.0433332520e+003;4.0348718262e+003;4.0256411133e+003;4.0339743652e+003;4.0160256348e+003;4.0350000000e+003;4.0293588867e+003;4.0287180176e+003;4.0461538086e+003;
1.9843750000e+000;4.0662819824e+003;4.0423076172e+003;4.0397436523e+003;4.0539743652e+003;4.0296154785e+003;4.0479487305e+003;4.0438461914e+003;4.0282050781e+003;4.0369230957e+003;4.0201281738e+003;4.0401281738e+003;4.0337180176e+003;4.0370512695e+003;4.0508974609e+003;
1.9921875000e+000;4.1257690430e+003;4.1108974609e+003;4.1021796875e+003;4.1135898438e+003;4.0934614258e+003;4.1016665039e+003;4.1023076172e+003;4.0971796875e+003;4.1042309570e+003;4.0956411133e+003;4.1066665039e+003;4.1008974609e+003;4.1108974609e+003;4.1130771484e+003;
2.0000000000e+000;4.0810256348e+003;4.0620512695e+003;4.0576923828e+003;4.0719230957e+003;4.0471794434e+003;4.0602563477e+003;4.0565385742e+003;4.0553845215e+003;4.0601281738e+003;4.0519230957e+003;4.0617949219e+003;4.0583332520e+003;4.0657692871e+003;4.0703845215e+003;
2.0078125000e+000;4.0346154785e+003;4.0055129395e+003;4.0061538086e+003;4.0230769043e+003;3.9991025391e+003;4.0173076172e+003;4.0124357910e+003;4.0071794434e+003;4.0089743652e+003;3.9979487305e+003;4.0093588867e+003;4.0087180176e+003;4.0142307129e+003;4.0232050781e+003;
2.0156250000e+000;4.0533332520e+003;4.0214101563e+003;4.0239743652e+003;4.0396154785e+003;4.0193588867e+003;4.0362819824e+003;4.0334614258e+003;4.0280769043e+003;4.0305129395e+003;4.0176923828e+003;4.0275642090e+003;4.0283332520e+003;4.0319230957e+003;4.0414101563e+003;
2.0234375000e+000;4.0206411133e+003;3.9821794434e+003;3.9930769043e+003;4.0107692871e+003;3.9901281738e+003;4.0134614258e+003;4.0047436523e+003;3.9996154785e+003;4.0089743652e+003;3.9853845215e+003;3.9914101563e+003;3.9955129395e+003;3.9878205566e+003;4.0005129395e+003;
2.0312500000e+000;4.0298718262e+003;3.9906411133e+003;3.9993588867e+003;4.0171794434e+003;3.9987180176e+003;4.0217949219e+003;4.0123076172e+003;4.0062819824e+003;4.0152563477e+003;3.9911538086e+003;3.9974357910e+003;3.9994870605e+003;3.9911538086e+003;4.0056411133e+003;
2.0390625000e+000;4.0566667480e+003;4.0179487305e+003;4.0241025391e+003;4.0394870605e+003;4.0243588867e+003;4.0456411133e+003;4.0374357910e+003;4.0339743652e+003;4.0401281738e+003;4.0184614258e+003;4.0225642090e+003;4.0243588867e+003;4.0152563477e+003;4.0306411133e+003;
2.0468750000e+000;4.0669230957e+003;4.0288461914e+003;4.0347436523e+003;4.0478205566e+003;4.0332050781e+003;4.0541025391e+003;4.0483332520e+003;4.0487180176e+003;4.0508974609e+003;4.0321794434e+003;4.0324357910e+003;4.0367949219e+003;4.0261538086e+003;4.0410256348e+003;
2.0546875000e+000;4.0196154785e+003;3.9779487305e+003;3.9875642090e+003;4.0143588867e+003;3.9816667480e+003;4.0005129395e+003;4.0006411133e+003;3.9920512695e+003;3.9985898438e+003;3.9744870605e+003;3.9783332520e+003;3.9837180176e+003;3.9850000000e+003;3.9839743652e+003;
2.0625000000e+000;3.9907692871e+003;3.9385898438e+003;3.9544870605e+003;3.9760256348e+003;3.9442307129e+003;3.9719230957e+003;3.9669230957e+003;3.9592307129e+003;3.9633332520e+003;3.9406411133e+003;3.9461538086e+003;3.9612819824e+003;3.9443588867e+003;3.9596154785e+003;
2.0703125000e+000;4.0124357910e+003;3.9632050781e+003;3.9741025391e+003;3.9932050781e+003;3.9605129395e+003;3.9896154785e+003;3.9880769043e+003;3.9807692871e+003;3.9842307129e+003;3.9648718262e+003;3.9719230957e+003;3.9835898438e+003;3.9696154785e+003;3.9811538086e+003;
2.0781250000e+000;3.9876923828e+003;3.9400000000e+003;3.9556411133e+003;3.9675642090e+003;3.9306411133e+003;3.9614101563e+003;3.9615385742e+003;3.9579487305e+003;3.9598718262e+003;3.9410256348e+003;3.9484614258e+003;3.9579487305e+003;3.9487180176e+003;3.9543588867e+003;
2.0859375000e+000;4.0807692871e+003;4.0315385742e+003;4.0384614258e+003;4.0660256348e+003;4.0505129395e+003;4.0500000000e+003;4.0515385742e+003;4.0441025391e+003;4.0476923828e+003;4.0296154785e+003;4.0325642090e+003;4.0425642090e+003;4.0323076172e+003;4.0419230957e+003;
2.0937500000e+000;4.0692307129e+003;4.0216667480e+003;4.0260256348e+003;4.0579487305e+003;4.0391025391e+003;4.0438461914e+003;4.0453845215e+003;4.0401281738e+003;4.0411538086e+003;4.0257692871e+003;4.0273076172e+003;4.0379487305e+003;4.0265385742e+003;4.0357692871e+003;
2.1015625000e+000;3.9939743652e+003;3.9479487305e+003;3.9564101563e+003;3.9880769043e+003;3.9644870605e+003;3.9814101563e+003;3.9835898438e+003;3.9748718262e+003;3.9739743652e+003;3.9575642090e+003;3.9587180176e+003;3.9712819824e+003;3.9635898438e+003;3.9685898438e+003;
2.1093750000e+000;3.9803845215e+003;3.9356411133e+003;3.9448718262e+003;3.9739743652e+003;3.9538461914e+003;3.9702563477e+003;3.9715385742e+003;3.9619230957e+003;3.9634614258e+003;3.9462819824e+003;3.9462819824e+003;3.9578205566e+003;3.9552563477e+003;3.9570512695e+003;
2.1171875000e+000;3.9174357910e+003;3.8669230957e+003;3.8758974609e+003;3.9030769043e+003;3.8811538086e+003;3.9037180176e+003;3.8948718262e+003;3.8843588867e+003;3.8905129395e+003;3.8734614258e+003;3.8738461914e+003;3.8846154785e+003;3.8869230957e+003;3.8873076172e+003;
2.1250000000e+000;3.9175642090e+003;3.8633332520e+003;3.8706411133e+003;3.9007692871e+003;3.8746154785e+003;3.8980769043e+003;3.8888461914e+003;3.8767949219e+003;3.8830769043e+003;3.8650000000e+003;3.8676923828e+003;3.8792307129e+003;3.8794870605e+003;3.8823076172e+003;
2.1328125000e+000;3.9508974609e+003;3.8964101563e+003;3.8988461914e+003;3.9361538086e+003;3.9052563477e+003;3.9229487305e+003;3.9187180176e+003;3.9097436523e+003;3.9165385742e+003;3.8966667480e+003;3.8993588867e+003;3.9105129395e+003;3.9065385742e+003;3.9125642090e+003;
2.1406250000e+000;3.9361538086e+003;3.8817949219e+003;3.8847436523e+003;3.9229487305e+003;3.8910256348e+003;3.9082050781e+003;3.9070512695e+003;3.8987180176e+003;3.9052563477e+003;3.8833332520e+003;3.8857692871e+003;3.8966667480e+003;3.8919230957e+003;3.8973076172e+003;
2.1484375000e+000;3.9351281738e+003;3.8715385742e+003;3.8808974609e+003;3.9114101563e+003;3.8834614258e+003;3.9012819824e+003;3.9053845215e+003;3.8914101563e+003;3.8979487305e+003;3.8712819824e+003;3.8793588867e+003;3.8883332520e+003;3.8920512695e+003;3.8892307129e+003;
2.1562500000e+000;3.9501281738e+003;3.8871794434e+003;3.8957692871e+003;3.9284614258e+003;3.8982050781e+003;3.9170512695e+003;3.9193588867e+003;3.9076923828e+003;3.9132050781e+003;3.8887180176e+003;3.8962819824e+003;3.9057692871e+003;3.9089743652e+003;3.9069230957e+003;
2.1640625000e+000;3.9362819824e+003;3.8756411133e+003;3.8821794434e+003;3.9197436523e+003;3.8846154785e+003;3.9074357910e+003;3.9071794434e+003;3.8967949219e+003;3.8997436523e+003;3.8775642090e+003;3.8841025391e+003;3.8956411133e+003;3.8962819824e+003;3.8971794434e+003;
2.1718750000e+000;3.9116667480e+003;3.8525642090e+003;3.8560256348e+003;3.8969230957e+003;3.8588461914e+003;3.8853845215e+003;3.8835898438e+003;3.8719230957e+003;3.8715385742e+003;3.8514101563e+003;3.8580769043e+003;3.8705129395e+003;3.8705129395e+003;3.8741025391e+003;
2.1796875000e+000;3.9389743652e+003;3.8701281738e+003;3.8806411133e+003;3.9023076172e+003;3.8737180176e+003;3.8933332520e+003;3.8892307129e+003;3.8871794434e+003;3.8905129395e+003;3.8748718262e+003;3.8801281738e+003;3.8869230957e+003;3.8932050781e+003;3.8923076172e+003;
2.1875000000e+000;3.9097436523e+003;3.8416667480e+003;3.8446154785e+003;3.8815385742e+003;3.8491025391e+003;3.8730769043e+003;3.8651281738e+003;3.8535898438e+003;3.8594870605e+003;3.8430769043e+003;3.8497436523e+003;3.8601281738e+003;3.8583332520e+003;3.8578205566e+003;
2.1953125000e+000;3.8989743652e+003;3.8276923828e+003;3.8332050781e+003;3.8666667480e+003;3.8357692871e+003;3.8621794434e+003;3.8523076172e+003;3.8442307129e+003;3.8507692871e+003;3.8339743652e+003;3.8379487305e+003;3.8515385742e+003;3.8474357910e+003;3.8461538086e+003;
2.2031250000e+000;3.8550000000e+003;3.7742307129e+003;3.7891025391e+003;3.8221794434e+003;3.7887180176e+003;3.8174357910e+003;3.8074357910e+003;3.7983332520e+003;3.8067949219e+003;3.7858974609e+003;3.7903845215e+003;3.8050000000e+003;3.7979487305e+003;3.7974357910e+003;
2.2109375000e+000;3.8701281738e+003;3.7889743652e+003;3.8037180176e+003;3.8392307129e+003;3.8060256348e+003;3.8312819824e+003;3.8223076172e+003;3.8141025391e+003;3.8221794434e+003;3.8014101563e+003;3.8067949219e+003;3.8167949219e+003;3.8114101563e+003;3.8107692871e+003;
2.2187500000e+000;3.8734614258e+003;3.7898718262e+003;3.8094870605e+003;3.8411538086e+003;3.8123076172e+003;3.8370512695e+003;3.8288461914e+003;3.8261538086e+003;3.8291025391e+003;3.8094870605e+003;3.8162819824e+003;3.8270512695e+003;3.8173076172e+003;3.8157692871e+003;
2.2265625000e+000;3.9855129395e+003;3.9012819824e+003;3.9162819824e+003;3.9467949219e+003;3.9221794434e+003;3.9405129395e+003;3.9337180176e+003;3.9282050781e+003;3.9366667480e+003;3.9160256348e+003;3.9239743652e+003;3.9385898438e+003;3.9319230957e+003;3.9201281738e+003;
2.2343750000e+000;4.0175642090e+003;3.9396154785e+003;3.9497436523e+003;3.9823076172e+003;3.9569230957e+003;3.9748718262e+003;3.9639743652e+003;3.9646154785e+003;3.9726923828e+003;3.9550000000e+003;3.9605129395e+003;3.9715385742e+003;3.9667949219e+003;3.9535898438e+003;
2.2421875000e+000;4.0383332520e+003;3.9600000000e+003;3.9732050781e+003;4.0048718262e+003;3.9703845215e+003;3.9920512695e+003;3.9834614258e+003;3.9834614258e+003;3.9873076172e+003;3.9717949219e+003;3.9784614258e+003;3.9887180176e+003;3.9853845215e+003;3.9706411133e+003;
2.2500000000e+000;4.0656411133e+003;3.9816667480e+003;3.9993588867e+003;4.0278205566e+003;3.9880769043e+003;4.0102563477e+003;4.0060256348e+003;4.0066667480e+003;4.0110256348e+003;3.9957692871e+003;4.0003845215e+003;4.0170512695e+003;4.0101281738e+003;3.9951281738e+003;
2.2578125000e+000;4.0487180176e+003;3.9635898438e+003;3.9848718262e+003;4.0052563477e+003;3.9647436523e+003;3.9906411133e+003;3.9869230957e+003;3.9884614258e+003;3.9915385742e+003;3.9794870605e+003;3.9812819824e+003;4.0082050781e+003;3.9903845215e+003;3.9770512695e+003;
2.2656250000e+000;4.0296154785e+003;3.9496154785e+003;3.9670512695e+003;3.9839743652e+003;3.9541025391e+003;3.9774357910e+003;3.9698718262e+003;3.9694870605e+003;3.9707692871e+003;3.9619230957e+003;3.9656411133e+003;3.9906411133e+003;3.9711538086e+003;3.9584614258e+003;
2.2734375000e+000;4.0202563477e+003;3.9448718262e+003;3.9612819824e+003;3.9803845215e+003;3.9685898438e+003;3.9793588867e+003;3.9598718262e+003;3.9638461914e+003;3.9670512695e+003;3.9620512695e+003;3.9669230957e+003;3.9842307129e+003;3.9669230957e+003;3.9576923828e+003;
2.2812500000e+000;3.9806411133e+003;3.9011538086e+003;3.9242307129e+003;3.9489743652e+003;3.9248718262e+003;3.9401281738e+003;3.9210256348e+003;3.9230769043e+003;3.9287180176e+003;3.9189743652e+003;3.9243588867e+003;3.9451281738e+003;3.9262819824e+003;3.9197436523e+003;
2.2890625000e+000;3.9532050781e+003;3.8720512695e+003;3.8979487305e+003;3.9274357910e+003;3.8916667480e+003;3.9103845215e+003;3.8943588867e+003;3.8910256348e+003;3.8984614258e+003;3.8846154785e+003;3.8923076172e+003;3.9155129395e+003;3.8964101563e+003;3.8908974609e+003;
2.2968750000e+000;3.9633332520e+003;3.8851281738e+003;3.9079487305e+003;3.9387180176e+003;3.8997436523e+003;3.9170512695e+003;3.9042307129e+003;3.8962819824e+003;3.9042307129e+003;3.8903845215e+003;3.9001281738e+003;3.9230769043e+003;3.9058974609e+003;3.8991025391e+003;
2.3046875000e+000;4.0019230957e+003;3.9325642090e+003;3.9485898438e+003;3.9765385742e+003;3.9491025391e+003;3.9652563477e+003;3.9482050781e+003;3.9388461914e+003;3.9423076172e+003;3.9360256348e+003;3.9421794434e+003;3.9616667480e+003;3.9494870605e+003;3.9388461914e+003;
2.3125000000e+000;4.0150000000e+003;3.9455129395e+003;3.9606411133e+003;3.9882050781e+003;3.9615385742e+003;3.9767949219e+003;3.9616667480e+003;3.9512819824e+003;3.9565385742e+003;3.9478205566e+003;3.9546154785e+003;3.9729487305e+003;3.9629487305e+003;3.9505129395e+003;
2.3203125000e+000;4.0437180176e+003;3.9798718262e+003;3.9910256348e+003;4.0083332520e+003;3.9861538086e+003;3.9943588867e+003;3.9857692871e+003;3.9820512695e+003;3.9841025391e+003;3.9808974609e+003;3.9887180176e+003;4.0051281738e+003;3.9950000000e+003;3.9815385742e+003;
2.3281250000e+000;4.0848718262e+003;4.0275642090e+003;4.0278205566e+003;4.0575642090e+003;4.0305129395e+003;4.0393588867e+003;4.0294870605e+003;4.0284614258e+003;4.0324357910e+003;4.0262819824e+003;4.0333332520e+003;4.0457692871e+003;4.0397436523e+003;4.0261538086e+003;
2.3359375000e+000;4.0939743652e+003;4.0408974609e+003;4.0389743652e+003;4.0700000000e+003;4.0437180176e+003;4.0529487305e+003;4.0424357910e+003;4.0453845215e+003;4.0516667480e+003;4.0460256348e+003;4.0493588867e+003;4.0612819824e+003;4.0567949219e+003;4.0400000000e+003;
2.3437500000e+000;4.0383332520e+003;3.9846154785e+003;3.9889743652e+003;4.0151281738e+003;3.9887180176e+003;4.0003845215e+003;3.9898718262e+003;3.9932050781e+003;3.9953845215e+003;3.9941025391e+003;3.9960256348e+003;4.0085898438e+003;4.0017949219e+003;3.9875642090e+003;
2.3515625000e+000;4.0161538086e+003;3.9560256348e+003;3.9684614258e+003;3.9908974609e+003;3.9639743652e+003;3.9758974609e+003;3.9601281738e+003;3.9730769043e+003;3.9760256348e+003;3.9717949219e+003;3.9675642090e+003;3.9774357910e+003;3.9760256348e+003;3.9589743652e+003;
2.3593750000e+000;3.9857692871e+003;3.9237180176e+003;3.9388461914e+003;3.9614101563e+003;3.9330769043e+003;3.9458974609e+003;3.9297436523e+003;3.9400000000e+003;3.9441025391e+003;3.9351281738e+003;3.9344870605e+003;3.9455129395e+003;3.9448718262e+003;3.9241025391e+003;
2.3671875000e+000;4.0551281738e+003;3.9982050781e+003;4.0066667480e+003;4.0228205566e+003;3.9969230957e+003;4.0042307129e+003;3.9914101563e+003;3.9953845215e+003;3.9965385742e+003;3.9950000000e+003;4.0010256348e+003;4.0134614258e+003;4.0070512695e+003;3.9947436523e+003;
2.3750000000e+000;4.0497436523e+003;3.9942307129e+003;4.0016667480e+003;4.0167949219e+003;3.9888461914e+003;3.9996154785e+003;3.9861538086e+003;3.9894870605e+003;3.9907692871e+003;3.9928205566e+003;3.9965385742e+003;4.0097436523e+003;4.0021794434e+003;3.9924357910e+003;
2.3828125000e+000;4.0241025391e+003;3.9670512695e+003;3.9742307129e+003;3.9939743652e+003;3.9638461914e+003;3.9770512695e+003;3.9629487305e+003;3.9593588867e+003;3.9646154785e+003;3.9643588867e+003;3.9700000000e+003;3.9815385742e+003;3.9820512695e+003;3.9658974609e+003;
2.3906250000e+000;4.0470512695e+003;3.9883332520e+003;3.9952563477e+003;4.0184614258e+003;3.9882050781e+003;3.9984614258e+003;3.9832050781e+003;3.9808974609e+003;3.9865385742e+003;3.9857692871e+003;3.9926923828e+003;4.0028205566e+003;4.0066667480e+003;3.9880769043e+003;
2.3984375000e+000;4.0660256348e+003;4.0062819824e+003;4.0139743652e+003;4.0396154785e+003;4.0075642090e+003;4.0171794434e+003;3.9987180176e+003;4.0019230957e+003;4.0060256348e+003;4.0070512695e+003;4.0125642090e+003;4.0230769043e+003;4.0253845215e+003;4.0083332520e+003;
2.4062500000e+000;4.0192307129e+003;3.9621794434e+003;3.9696154785e+003;3.9937180176e+003;3.9623076172e+003;3.9791025391e+003;3.9552563477e+003;3.9630769043e+003;3.9628205566e+003;3.9675642090e+003;3.9676923828e+003;3.9810256348e+003;3.9756411133e+003;3.9635898438e+003;
2.4140625000e+000;3.9911538086e+003;3.9370512695e+003;3.9412819824e+003;3.9616667480e+003;3.9365385742e+003;3.9551281738e+003;3.9335898438e+003;3.9373076172e+003;3.9370512695e+003;3.9412819824e+003;3.9398718262e+003;3.9526923828e+003;3.9479487305e+003;3.9346154785e+003;
2.4218750000e+000;3.9778205566e+003;3.9250000000e+003;3.9267949219e+003;3.9441025391e+003;3.9230769043e+003;3.9434614258e+003;3.9260256348e+003;3.9264101563e+003;3.9267949219e+003;3.9288461914e+003;3.9261538086e+003;3.9385898438e+003;3.9360256348e+003;3.9211538086e+003;
2.4296875000e+000;3.8769230957e+003;3.8074357910e+003;3.8169230957e+003;3.8507692871e+003;3.8075642090e+003;3.8393588867e+003;3.8226923828e+003;3.8241025391e+003;3.8238461914e+003;3.8132050781e+003;3.8094870605e+003;3.8298718262e+003;3.8242307129e+003;3.8162819824e+003;
2.4375000000e+000;3.8915385742e+003;3.8232050781e+003;3.8316667480e+003;3.8585898438e+003;3.8291025391e+003;3.8497436523e+003;3.8348718262e+003;3.8374357910e+003;3.8403845215e+003;3.8284614258e+003;3.8238461914e+003;3.8424357910e+003;3.8352563477e+003;3.8270512695e+003;
2.4453125000e+000;3.8325642090e+003;3.7512819824e+003;3.7684614258e+003;3.7993588867e+003;3.7667949219e+003;3.7933332520e+003;3.7742307129e+003;3.7747436523e+003;3.7756411133e+003;3.7569230957e+003;3.7521794434e+003;3.7737180176e+003;3.7625642090e+003;3.7624357910e+003;
2.4531250000e+000;3.8671794434e+003;3.7882050781e+003;3.7924357910e+003;3.8312819824e+003;3.7934614258e+003;3.8158974609e+003;3.7987180176e+003;3.8043588867e+003;3.8116667480e+003;3.7994870605e+003;3.7926923828e+003;3.8100000000e+003;3.8028205566e+003;3.7980769043e+003;
2.4609375000e+000;3.8394870605e+003;3.7611538086e+003;3.7678205566e+003;3.7987180176e+003;3.7651281738e+003;3.7871794434e+003;3.7708974609e+003;3.7742307129e+003;3.7844870605e+003;3.7715385742e+003;3.7671794434e+003;3.7853845215e+003;3.7746154785e+003;3.7694870605e+003;
2.4687500000e+000;3.8635898438e+003;3.7816667480e+003;3.7902563477e+003;3.8212819824e+003;3.7855129395e+003;3.8082050781e+003;3.7888461914e+003;3.7866667480e+003;3.7950000000e+003;3.7858974609e+003;3.7844870605e+003;3.8030769043e+003;3.7921794434e+003;3.7887180176e+003;
2.4765625000e+000;3.8521794434e+003;3.7643588867e+003;3.7720512695e+003;3.8034614258e+003;3.7655129395e+003;3.7910256348e+003;3.7752563477e+003;3.7656411133e+003;3.7698718262e+003;3.7626923828e+003;3.7658974609e+003;3.7838461914e+003;3.7658974609e+003;3.7760256348e+003;
2.4843750000e+000;3.8744870605e+003;3.7874357910e+003;3.7939743652e+003;3.8216667480e+003;3.7864101563e+003;3.8079487305e+003;3.7952563477e+003;3.7866667480e+003;3.7920512695e+003;3.7846154785e+003;3.7903845215e+003;3.8055129395e+003;3.7891025391e+003;3.7979487305e+003;
2.4921875000e+000;3.8647436523e+003;3.7683332520e+003;3.7907692871e+003;3.8165385742e+003;3.7719230957e+003;3.7947436523e+003;3.7783332520e+003;3.7794870605e+003;3.7853845215e+003;3.7814101563e+003;3.7855129395e+003;3.8003845215e+003;3.7885898438e+003;3.7879487305e+003;
2.5000000000e+000;3.8493588867e+003;3.7475642090e+003;3.7721794434e+003;3.7978205566e+003;3.7528205566e+003;3.7776923828e+003;3.7624357910e+003;3.7569230957e+003;3.7607692871e+003;3.7578205566e+003;3.7621794434e+003;3.7792307129e+003;3.7669230957e+003;3.7671794434e+003;
2.5078125000e+000;3.8975642090e+003;3.8012819824e+003;3.8114101563e+003;3.8389743652e+003;3.8015385742e+003;3.8208974609e+003;3.8103845215e+003;3.8012819824e+003;3.8037180176e+003;3.8016667480e+003;3.8069230957e+003;3.8223076172e+003;3.8110256348e+003;3.8130769043e+003;
2.5156250000e+000;3.9083332520e+003;3.8197436523e+003;3.8221794434e+003;3.8534614258e+003;3.8156411133e+003;3.8342307129e+003;3.8230769043e+003;3.8189743652e+003;3.8219230957e+003;3.8184614258e+003;3.8246154785e+003;3.8387180176e+003;3.8264101563e+003;3.8288461914e+003;
2.5234375000e+000;3.9212819824e+003;3.8351281738e+003;3.8396154785e+003;3.8702563477e+003;3.8303845215e+003;3.8488461914e+003;3.8342307129e+003;3.8312819824e+003;3.8342307129e+003;3.8312819824e+003;3.8391025391e+003;3.8544870605e+003;3.8387180176e+003;3.8393588867e+003;
2.5312500000e+000;3.9574357910e+003;3.8688461914e+003;3.8753845215e+003;3.9006411133e+003;3.8647436523e+003;3.8803845215e+003;3.8667949219e+003;3.8651281738e+003;3.8674357910e+003;3.8693588867e+003;3.8729487305e+003;3.8879487305e+003;3.8739743652e+003;3.8728205566e+003;
2.5390625000e+000;3.9689743652e+003;3.8803845215e+003;3.8874357910e+003;3.9101281738e+003;3.8747436523e+003;3.8914101563e+003;3.8787180176e+003;3.8800000000e+003;3.8812819824e+003;3.8867949219e+003;3.8857692871e+003;3.9002563477e+003;3.8888461914e+003;3.8857692871e+003;
2.5468750000e+000;3.9521794434e+003;3.8658974609e+003;3.8720512695e+003;3.8961538086e+003;3.8578205566e+003;3.8783332520e+003;3.8666667480e+003;3.8685898438e+003;3.8696154785e+003;3.8753845215e+003;3.8724357910e+003;3.8862819824e+003;3.8782050781e+003;3.8730769043e+003;
2.5546875000e+000;3.9925642090e+003;3.9119230957e+003;3.9124357910e+003;3.9367949219e+003;3.9057692871e+003;3.9142307129e+003;3.9064101563e+003;3.9071794434e+003;3.9111538086e+003;3.9184614258e+003;3.9150000000e+003;3.9302563477e+003;3.9211538086e+003;3.9138461914e+003;
2.5625000000e+000;3.9689743652e+003;3.8879487305e+003;3.8903845215e+003;3.9125642090e+003;3.8767949219e+003;3.8915385742e+003;3.8828205566e+003;3.8835898438e+003;3.8857692871e+003;3.8923076172e+003;3.8900000000e+003;3.9091025391e+003;3.8928205566e+003;3.8906411133e+003;
2.5703125000e+000;3.9580769043e+003;3.8787180176e+003;3.8794870605e+003;3.9061538086e+003;3.8596154785e+003;3.8874357910e+003;3.8812819824e+003;3.8780769043e+003;3.8752563477e+003;3.8810256348e+003;3.8828205566e+003;3.9016667480e+003;3.8878205566e+003;3.8897436523e+003;
2.5781250000e+000;3.9079487305e+003;3.8256411133e+003;3.8319230957e+003;3.8603845215e+003;3.8344870605e+003;3.8424357910e+003;3.8321794434e+003;3.8303845215e+003;3.8280769043e+003;3.8326923828e+003;3.8330769043e+003;3.8583332520e+003;3.8360256348e+003;3.8391025391e+003;
2.5859375000e+000;3.9152563477e+003;3.8297436523e+003;3.8373076172e+003;3.8638461914e+003;3.8403845215e+003;3.8442307129e+003;3.8365385742e+003;3.8333332520e+003;3.8325642090e+003;3.8346154785e+003;3.8384614258e+003;3.8626923828e+003;3.8411538086e+003;3.8410256348e+003;
2.5937500000e+000;3.9666667480e+003;3.8732050781e+003;3.8892307129e+003;3.9065385742e+003;3.8724357910e+003;3.8871794434e+003;3.8862819824e+003;3.8878205566e+003;3.8878205566e+003;3.8891025391e+003;3.8885898438e+003;3.9060256348e+003;3.8953845215e+003;3.8921794434e+003;
2.6015625000e+000;3.9955129395e+003;3.9125642090e+003;3.9189743652e+003;3.9398718262e+003;3.9128205566e+003;3.9176923828e+003;3.9147436523e+003;3.9123076172e+003;3.9188461914e+003;3.9180769043e+003;3.9192307129e+003;3.9407692871e+003;3.9188461914e+003;3.9241025391e+003;
2.6093750000e+000;3.9978205566e+003;3.9162819824e+003;3.9239743652e+003;3.9437180176e+003;3.9162819824e+003;3.9197436523e+003;3.9153845215e+003;3.9185898438e+003;3.9226923828e+003;3.9255129395e+003;3.9258974609e+003;3.9498718262e+003;3.9247436523e+003;3.9288461914e+003;
2.6171875000e+000;3.9674357910e+003;3.8834614258e+003;3.8966667480e+003;3.9157692871e+003;3.8832050781e+003;3.8907692871e+003;3.8852563477e+003;3.8921794434e+003;3.8920512695e+003;3.8980769043e+003;3.8973076172e+003;3.9229487305e+003;3.8983332520e+003;3.8998718262e+003;
2.6250000000e+000;3.9266667480e+003;3.8382050781e+003;3.8569230957e+003;3.8761538086e+003;3.8380769043e+003;3.8493588867e+003;3.8444870605e+003;3.8469230957e+003;3.8462819824e+003;3.8525642090e+003;3.8519230957e+003;3.8747436523e+003;3.8565385742e+003;3.8565385742e+003;
2.6328125000e+000;3.9430769043e+003;3.8603845215e+003;3.8741025391e+003;3.8956411133e+003;3.8623076172e+003;3.8703845215e+003;3.8658974609e+003;3.8696154785e+003;3.8776923828e+003;3.8766667480e+003;3.8743588867e+003;3.8969230957e+003;3.8701281738e+003;3.8801281738e+003;
2.6406250000e+000;3.9114101563e+003;3.8266667480e+003;3.8416667480e+003;3.8652563477e+003;3.8320512695e+003;3.8425642090e+003;3.8392307129e+003;3.8410256348e+003;3.8447436523e+003;3.8441025391e+003;3.8414101563e+003;3.8665385742e+003;3.8408974609e+003;3.8485898438e+003;
2.6484375000e+000;3.9006411133e+003;3.8139743652e+003;3.8284614258e+003;3.8533332520e+003;3.8216667480e+003;3.8319230957e+003;3.8300000000e+003;3.8292307129e+003;3.8278205566e+003;3.8300000000e+003;3.8271794434e+003;3.8519230957e+003;3.8337180176e+003;3.8353845215e+003;
2.6562500000e+000;3.9296154785e+003;3.8461538086e+003;3.8556411133e+003;3.8838461914e+003;3.8488461914e+003;3.8569230957e+003;3.8524357910e+003;3.8547436523e+003;3.8520512695e+003;3.8602563477e+003;3.8551281738e+003;3.8753845215e+003;3.8687180176e+003;3.8611538086e+003;
2.6640625000e+000;3.9191025391e+003;3.8383332520e+003;3.8464101563e+003;3.8791025391e+003;3.8371794434e+003;3.8483332520e+003;3.8405129395e+003;3.8442307129e+003;3.8439743652e+003;3.8521794434e+003;3.8473076172e+003;3.8674357910e+003;3.8570512695e+003;3.8503845215e+003;
2.6718750000e+000;3.8992307129e+003;3.8202563477e+003;3.8264101563e+003;3.8638461914e+003;3.8170512695e+003;3.8311538086e+003;3.8217949219e+003;3.8230769043e+003;3.8247436523e+003;3.8312819824e+003;3.8288461914e+003;3.8498718262e+003;3.8335898438e+003;3.8296154785e+003;
2.6796875000e+000;3.9088461914e+003;3.8321794434e+003;3.8337180176e+003;3.8674357910e+003;3.8184614258e+003;3.8364101563e+003;3.8364101563e+003;3.8269230957e+003;3.8387180176e+003;3.8433332520e+003;3.8342307129e+003;3.8576923828e+003;3.8430769043e+003;3.8388461914e+003;
2.6875000000e+000;3.9050000000e+003;3.8256411133e+003;3.8298718262e+003;3.8638461914e+003;3.8167949219e+003;3.8328205566e+003;3.8337180176e+003;3.8216667480e+003;3.8316667480e+003;3.8362819824e+003;3.8279487305e+003;3.8503845215e+003;3.8347436523e+003;3.8316667480e+003;
2.6953125000e+000;3.9448718262e+003;3.8697436523e+003;3.8729487305e+003;3.9057692871e+003;3.8792307129e+003;3.8793588867e+003;3.8770512695e+003;3.8735898438e+003;3.8710256348e+003;3.8832050781e+003;3.8738461914e+003;3.8923076172e+003;3.8787180176e+003;3.8729487305e+003;
2.7031250000e+000;3.9225642090e+003;3.8543588867e+003;3.8493588867e+003;3.8906411133e+003;3.8515385742e+003;3.8582050781e+003;3.8528205566e+003;3.8429487305e+003;3.8506411133e+003;3.8583332520e+003;3.8487180176e+003;3.8688461914e+003;3.8634614258e+003;3.8476923828e+003;
2.7109375000e+000;3.9416667480e+003;3.8744870605e+003;3.8685898438e+003;3.9097436523e+003;3.8698718262e+003;3.8760256348e+003;3.8698718262e+003;3.8630769043e+003;3.8716667480e+003;3.8807692871e+003;3.8719230957e+003;3.8884614258e+003;3.8821794434e+003;3.8683332520e+003;
2.7187500000e+000;3.9253845215e+003;3.8524357910e+003;3.8558974609e+003;3.8889743652e+003;3.8538461914e+003;3.8592307129e+003;3.8557692871e+003;3.8461538086e+003;3.8478205566e+003;3.8578205566e+003;3.8569230957e+003;3.8715385742e+003;3.8550000000e+003;3.8544870605e+003;
2.7265625000e+000;3.9602563477e+003;3.8934614258e+003;3.8942307129e+003;3.9287180176e+003;3.8871794434e+003;3.8892307129e+003;3.8860256348e+003;3.8787180176e+003;3.8858974609e+003;3.8923076172e+003;3.8864101563e+003;3.9132050781e+003;3.8941025391e+003;3.8896154785e+003;
2.7343750000e+000;3.9251281738e+003;3.8575642090e+003;3.8603845215e+003;3.8950000000e+003;3.8511538086e+003;3.8573076172e+003;3.8525642090e+003;3.8447436523e+003;3.8508974609e+003;3.8574357910e+003;3.8523076172e+003;3.8798718262e+003;3.8567949219e+003;3.8546154785e+003;
2.7421875000e+000;3.9084614258e+003;3.8374357910e+003;3.8414101563e+003;3.8758974609e+003;3.8326923828e+003;3.8408974609e+003;3.8373076172e+003;3.8261538086e+003;3.8306411133e+003;3.8384614258e+003;3.8353845215e+003;3.8600000000e+003;3.8364101563e+003;3.8356411133e+003;
2.7500000000e+000;3.9956411133e+003;3.9211538086e+003;3.9202563477e+003;3.9524357910e+003;3.9171794434e+003;3.9202563477e+003;3.9223076172e+003;3.9097436523e+003;3.9124357910e+003;3.9270512695e+003;3.9197436523e+003;3.9391025391e+003;3.9234614258e+003;3.9175642090e+003;
2.7578125000e+000;4.0512819824e+003;3.9796154785e+003;3.9764101563e+003;4.0065385742e+003;3.9746154785e+003;3.9746154785e+003;3.9773076172e+003;3.9674357910e+003;3.9697436523e+003;3.9864101563e+003;3.9741025391e+003;3.9958974609e+003;3.9820512695e+003;3.9730769043e+003;
2.7656250000e+000;4.1294873047e+003;4.0696154785e+003;4.0632050781e+003;4.0891025391e+003;4.0641025391e+003;4.0566667480e+003;4.0603845215e+003;4.0532050781e+003;4.0537180176e+003;4.0697436523e+003;4.0550000000e+003;4.0808974609e+003;4.0639743652e+003;4.0560256348e+003;
2.7734375000e+000;4.1660258789e+003;4.1124360352e+003;4.1029487305e+003;4.1275639648e+003;4.1076923828e+003;4.0948718262e+003;4.1001284180e+003;4.0966665039e+003;4.0957692871e+003;4.1126923828e+003;4.0980771484e+003;4.1206411133e+003;4.1035898438e+003;4.0978203125e+003;
2.7812500000e+000;4.0971796875e+003;4.0497436523e+003;4.0428205566e+003;4.0700000000e+003;4.0550000000e+003;4.0496154785e+003;4.0494870605e+003;4.0560256348e+003;4.0535898438e+003;4.0705129395e+003;4.0464101563e+003;4.0670512695e+003;4.0534614258e+003;4.0474357910e+003;
2.7890625000e+000;4.0746154785e+003;4.0273076172e+003;4.0229487305e+003;4.0498718262e+003;4.0355129395e+003;4.0355129395e+003;4.0324357910e+003;4.0330769043e+003;4.0326923828e+003;4.0488461914e+003;4.0243588867e+003;4.0461538086e+003;4.0330769043e+003;4.0244870605e+003;
2.7968750000e+000;4.1053847656e+003;4.0593588867e+003;4.0556411133e+003;4.0789743652e+003;4.0671794434e+003;4.0678205566e+003;4.0643588867e+003;4.0597436523e+003;4.0616667480e+003;4.0810256348e+003;4.0578205566e+003;4.0771794434e+003;4.0637180176e+003;4.0532050781e+003;
2.8046875000e+000;4.1002563477e+003;4.0647436523e+003;4.0611538086e+003;4.0701281738e+003;4.0621794434e+003;4.0515385742e+003;4.0539743652e+003;4.0550000000e+003;4.0551281738e+003;4.0853845215e+003;4.0680769043e+003;4.0774357910e+003;4.0752563477e+003;4.0584614258e+003;
2.8125000000e+000;4.0920512695e+003;4.0585898438e+003;4.0519230957e+003;4.0657692871e+003;4.0535898438e+003;4.0443588867e+003;4.0448718262e+003;4.0469230957e+003;4.0501281738e+003;4.0773076172e+003;4.0582050781e+003;4.0702563477e+003;4.0675642090e+003;4.0506411133e+003;
2.8203125000e+000;4.0030769043e+003;3.9705129395e+003;3.9624357910e+003;3.9864101563e+003;3.9473076172e+003;3.9660256348e+003;3.9696154785e+003;3.9683332520e+003;3.9662819824e+003;3.9947436523e+003;3.9717949219e+003;3.9865385742e+003;3.9715385742e+003;3.9576923828e+003;
2.8281250000e+000;3.9992307129e+003;3.9642307129e+003;3.9574357910e+003;3.9791025391e+003;3.9712819824e+003;3.9628205566e+003;3.9667949219e+003;3.9728205566e+003;3.9684614258e+003;3.9923076172e+003;3.9698718262e+003;3.9810256348e+003;3.9788461914e+003;3.9633332520e+003;
2.8359375000e+000;3.9662819824e+003;3.9266667480e+003;3.9257692871e+003;3.9469230957e+003;3.9425642090e+003;3.9325642090e+003;3.9330769043e+003;3.9388461914e+003;3.9384614258e+003;3.9593588867e+003;3.9356411133e+003;3.9515385742e+003;3.9446154785e+003;3.9325642090e+003;
2.8437500000e+000;3.9716667480e+003;3.9328205566e+003;3.9307692871e+003;3.9485898438e+003;3.9353845215e+003;3.9366667480e+003;3.9425642090e+003;3.9351281738e+003;3.9442307129e+003;3.9628205566e+003;3.9383332520e+003;3.9544870605e+003;3.9435898438e+003;3.9300000000e+003;
2.8515625000e+000;3.9873076172e+003;3.9510256348e+003;3.9473076172e+003;3.9655129395e+003;3.9502563477e+003;3.9515385742e+003;3.9569230957e+003;3.9524357910e+003;3.9617949219e+003;3.9801281738e+003;3.9564101563e+003;3.9698718262e+003;3.9615385742e+003;3.9462819824e+003;
2.8593750000e+000;3.9538461914e+003;3.9130769043e+003;3.9162819824e+003;3.9367949219e+003;3.9187180176e+003;3.9189743652e+003;3.9158974609e+003;3.9176923828e+003;3.9242307129e+003;3.9394870605e+003;3.9208974609e+003;3.9350000000e+003;3.9279487305e+003;3.9165385742e+003;
2.8671875000e+000;3.9569230957e+003;3.9130769043e+003;3.9189743652e+003;3.9373076172e+003;3.9210256348e+003;3.9185898438e+003;3.9137180176e+003;3.9170512695e+003;3.9226923828e+003;3.9384614258e+003;3.9206411133e+003;3.9365385742e+003;3.9287180176e+003;3.9211538086e+003;
2.8750000000e+000;3.9635898438e+003;3.9241025391e+003;3.9250000000e+003;3.9356411133e+003;3.9203845215e+003;3.9160256348e+003;3.9148718262e+003;3.9239743652e+003;3.9316667480e+003;3.9525642090e+003;3.9287180176e+003;3.9497436523e+003;3.9341025391e+003;3.9338461914e+003;
2.8828125000e+000;3.9320512695e+003;3.8917949219e+003;3.8923076172e+003;3.9074357910e+003;3.8879487305e+003;3.8869230957e+003;3.8864101563e+003;3.8914101563e+003;3.8998718262e+003;3.9191025391e+003;3.8971794434e+003;3.9166667480e+003;3.9026923828e+003;3.8996154785e+003;
2.8906250000e+000;3.9402563477e+003;3.8951281738e+003;3.8993588867e+003;3.9194870605e+003;3.8984614258e+003;3.9015385742e+003;3.9017949219e+003;3.8998718262e+003;3.9092307129e+003;3.9246154785e+003;3.9056411133e+003;3.9193588867e+003;3.9119230957e+003;3.9002563477e+003;
2.8984375000e+000;3.9544870605e+003;3.9075642090e+003;3.9153845215e+003;3.9321794434e+003;3.9134614258e+003;3.9197436523e+003;3.9200000000e+003;3.9185898438e+003;3.9271794434e+003;3.9407692871e+003;3.9208974609e+003;3.9348718262e+003;3.9257692871e+003;3.9137180176e+003;
2.9062500000e+000;3.9647436523e+003;3.9175642090e+003;3.9202563477e+003;3.9392307129e+003;3.9264101563e+003;3.9319230957e+003;3.9380769043e+003;3.9271794434e+003;3.9317949219e+003;3.9394870605e+003;3.9233332520e+003;3.9367949219e+003;3.9276923828e+003;3.9194870605e+003;
2.9140625000e+000;4.0067949219e+003;3.9623076172e+003;3.9576923828e+003;3.9821794434e+003;3.9726923828e+003;3.9707692871e+003;3.9788461914e+003;3.9658974609e+003;3.9712819824e+003;3.9808974609e+003;3.9633332520e+003;3.9735898438e+003;3.9705129395e+003;3.9592307129e+003;
2.9218750000e+000;4.0360256348e+003;3.9932050781e+003;3.9853845215e+003;4.0123076172e+003;4.0056411133e+003;3.9998718262e+003;4.0065385742e+003;3.9951281738e+003;4.0011538086e+003;4.0128205566e+003;3.9912819824e+003;4.0015385742e+003;4.0010256348e+003;3.9874357910e+003;
2.9296875000e+000;4.0255129395e+003;3.9866667480e+003;3.9771794434e+003;3.9969230957e+003;3.9914101563e+003;3.9920512695e+003;3.9889743652e+003;3.9712819824e+003;3.9760256348e+003;3.9903845215e+003;3.9751281738e+003;3.9930769043e+003;3.9819230957e+003;3.9775642090e+003;
2.9375000000e+000;4.0357692871e+003;4.0006411133e+003;3.9910256348e+003;4.0071794434e+003;4.0064101563e+003;4.0039743652e+003;4.0000000000e+003;3.9853845215e+003;3.9916667480e+003;4.0085898438e+003;3.9908974609e+003;4.0058974609e+003;3.9988461914e+003;3.9906411133e+003;
2.9453125000e+000;4.0844870605e+003;4.0591025391e+003;4.0485898438e+003;4.0574357910e+003;4.0682050781e+003;4.0582050781e+003;4.0544870605e+003;4.0455129395e+003;4.0561538086e+003;4.0724357910e+003;4.0561538086e+003;4.0667949219e+003;4.0588461914e+003;4.0473076172e+003;
2.9531250000e+000;4.2037177734e+003;4.1871796875e+003;4.1670512695e+003;4.1921796875e+003;4.1784614258e+003;4.1728203125e+003;4.1755126953e+003;4.1732050781e+003;4.1833334961e+003;4.2032050781e+003;4.1856411133e+003;4.1893588867e+003;4.1852563477e+003;4.1734614258e+003;
2.9609375000e+000;4.3338461914e+003;4.3250000000e+003;4.2978203125e+003;4.3194873047e+003;4.3187177734e+003;4.2965385742e+003;4.3066665039e+003;4.3044873047e+003;4.3133334961e+003;4.3380771484e+003;4.3179487305e+003;4.3180771484e+003;4.3226923828e+003;4.3024360352e+003;
2.9687500000e+000;4.6389741211e+003;4.6605126953e+003;4.6255126953e+003;4.6165385742e+003;4.6635898438e+003;4.5937177734e+003;4.6093588867e+003;4.6321796875e+003;4.6365385742e+003;4.6816665039e+003;4.6420512695e+003;4.6455126953e+003;4.6515385742e+003;4.6183334961e+003;
2.9765625000e+000;4.5919228516e+003;4.6174360352e+003;4.5873076172e+003;4.5767949219e+003;4.6160258789e+003;4.5528203125e+003;4.5670512695e+003;4.5878203125e+003;4.5908974609e+003;4.6369228516e+003;4.5971796875e+003;4.6032050781e+003;4.6035898438e+003;4.5744873047e+003;
2.9843750000e+000;4.5302563477e+003;4.5639741211e+003;4.5367949219e+003;4.5283334961e+003;4.5514101563e+003;4.5042309570e+003;4.5207690430e+003;4.5229487305e+003;4.5264101563e+003;4.5671796875e+003;4.5393588867e+003;4.5392309570e+003;4.5411538086e+003;4.5141025391e+003;
2.9921875000e+000;4.5317949219e+003;4.5720512695e+003;4.5461538086e+003;4.5352563477e+003;4.5593588867e+003;4.5151284180e+003;4.5315385742e+003;4.5297436523e+003;4.5332050781e+003;4.5719228516e+003;4.5475639648e+003;4.5447436523e+003;4.5480771484e+003;4.5192309570e+003;
3.0000000000e+000;4.3537177734e+003;4.3993588867e+003;4.3889741211e+003;4.3737177734e+003;4.4024360352e+003;4.3714101563e+003;4.3778203125e+003;4.3658974609e+003;4.3669228516e+003;4.4025639648e+003;4.3765385742e+003;4.3888461914e+003;4.3779487305e+003;4.3515385742e+003;
3.0078125000e+000;4.3129487305e+003;4.3556411133e+003;4.3444873047e+003;4.3330771484e+003;4.3621796875e+003;4.3330771484e+003;4.3379487305e+003;4.3212822266e+003;4.3230771484e+003;4.3580771484e+003;4.3332050781e+003;4.3461538086e+003;4.3361538086e+003;4.3094873047e+003;
3.0156250000e+000;4.2814101563e+003;4.3232050781e+003;4.3038461914e+003;4.3048715820e+003;4.3323076172e+003;4.3061538086e+003;4.3088461914e+003;4.2928203125e+003;4.2955126953e+003;4.3261538086e+003;4.3069228516e+003;4.3132050781e+003;4.3070512695e+003;4.2802563477e+003;
3.0234375000e+000;4.2452563477e+003;4.2898715820e+003;4.2678203125e+003;4.2750000000e+003;4.2998715820e+003;4.2775639648e+003;4.2784614258e+003;4.2634614258e+003;4.2655126953e+003;4.2915385742e+003;4.2751284180e+003;4.2811538086e+003;4.2725639648e+003;4.2476923828e+003;
3.0312500000e+000;4.2023076172e+003;4.2494873047e+003;4.2251284180e+003;4.2356411133e+003;4.2621796875e+003;4.2393588867e+003;4.2352563477e+003;4.2319228516e+003;4.2370512695e+003;4.2557690430e+003;4.2337177734e+003;4.2420512695e+003;4.2352563477e+003;4.2078203125e+003;
3.0390625000e+000;4.1942309570e+003;4.2361538086e+003;4.2148715820e+003;4.2237177734e+003;4.2484614258e+003;4.2251284180e+003;4.2200000000e+003;4.2256411133e+003;4.2315385742e+003;4.2505126953e+003;4.2258974609e+003;4.2324360352e+003;4.2297436523e+003;4.1996152344e+003;
3.0468750000e+000;4.1708974609e+003;4.2070512695e+003;4.1889741211e+003;4.1974360352e+003;4.2169228516e+003;4.1952563477e+003;4.1901284180e+003;4.2019228516e+003;4.2080771484e+003;4.2261538086e+003;4.2028203125e+003;4.2070512695e+003;4.2071796875e+003;4.1755126953e+003;
3.0546875000e+000;4.1532050781e+003;4.1865385742e+003;4.1689741211e+003;4.1784614258e+003;4.1912822266e+003;4.1710258789e+003;4.1673076172e+003;4.1816665039e+003;4.1882050781e+003;4.2050000000e+003;4.1851284180e+003;4.1874360352e+003;4.1888461914e+003;4.1566665039e+003;
3.0625000000e+000;4.1330771484e+003;4.1600000000e+003;4.1514101563e+003;4.1542309570e+003;4.1492309570e+003;4.1307690430e+003;4.1302563477e+003;4.1488461914e+003;4.1607690430e+003;4.1778203125e+003;4.1603847656e+003;4.1658974609e+003;4.1610258789e+003;4.1311538086e+003;
3.0703125000e+000;4.1207690430e+003;4.1378203125e+003;4.1406411133e+003;4.1351284180e+003;4.1182050781e+003;4.1034614258e+003;4.1066665039e+003;4.1184614258e+003;4.1297436523e+003;4.1480771484e+003;4.1388461914e+003;4.1541025391e+003;4.1394873047e+003;4.1178203125e+003;
3.0781250000e+000;4.0941025391e+003;4.1128203125e+003;4.1164101563e+003;4.1114101563e+003;4.0964101563e+003;4.0852563477e+003;4.0894870605e+003;4.0924357910e+003;4.1015385742e+003;4.1205126953e+003;4.1128203125e+003;4.1306411133e+003;4.1126923828e+003;4.0935898438e+003;
3.0859375000e+000;4.0760256348e+003;4.0952563477e+003;4.0912819824e+003;4.0955129395e+003;4.0925642090e+003;4.0794870605e+003;4.0847436523e+003;4.0706411133e+003;4.0766667480e+003;4.0926923828e+003;4.0891025391e+003;4.1030771484e+003;4.0924357910e+003;4.0703845215e+003;
3.0937500000e+000;4.0483332520e+003;4.0608974609e+003;4.0541025391e+003;4.0683332520e+003;4.0597436523e+003;4.0687180176e+003;4.0707692871e+003;4.0543588867e+003;4.0543588867e+003;4.0706411133e+003;4.0638461914e+003;4.0797436523e+003;4.0629487305e+003;4.0401281738e+003;
3.1015625000e+000;4.0687180176e+003;4.0811538086e+003;4.0735898438e+003;4.0879487305e+003;4.0897436523e+003;4.0897436523e+003;4.0950000000e+003;4.0744870605e+003;4.0765385742e+003;4.0925642090e+003;4.0851281738e+003;4.0991025391e+003;4.0851281738e+003;4.0602563477e+003;
3.1093750000e+000;4.1232050781e+003;4.1407690430e+003;4.1307690430e+003;4.1453847656e+003;4.1692309570e+003;4.1421796875e+003;4.1447436523e+003;4.1391025391e+003;4.1474360352e+003;4.1616665039e+003;4.1485898438e+003;4.1556411133e+003;4.1532050781e+003;4.1217949219e+003;
3.1171875000e+000;4.0942307129e+003;4.1119228516e+003;4.1067949219e+003;4.1201284180e+003;4.1423076172e+003;4.1162822266e+003;4.1121796875e+003;4.1166665039e+003;4.1266665039e+003;4.1379487305e+003;4.1239741211e+003;4.1314101563e+003;4.1291025391e+003;4.0970512695e+003;
3.1250000000e+000;4.0329487305e+003;4.0348718262e+003;4.0487180176e+003;4.0487180176e+003;4.0565385742e+003;4.0502563477e+003;4.0417949219e+003;4.0460256348e+003;4.0598718262e+003;4.0670512695e+003;4.0625642090e+003;4.0712819824e+003;4.0601281738e+003;4.0362819824e+003;
3.1328125000e+000;4.0402563477e+003;4.0387180176e+003;4.0520512695e+003;4.0514101563e+003;4.0594870605e+003;4.0521794434e+003;4.0467949219e+003;4.0510256348e+003;4.0669230957e+003;4.0746154785e+003;4.0691025391e+003;4.0753845215e+003;4.0662819824e+003;4.0430769043e+003;
3.1406250000e+000;4.0126923828e+003;4.0128205566e+003;4.0179487305e+003;4.0258974609e+003;4.0297436523e+003;4.0235898438e+003;4.0205129395e+003;4.0267949219e+003;4.0442307129e+003;4.0476923828e+003;4.0382050781e+003;4.0400000000e+003;4.0421794434e+003;4.0138461914e+003;
3.1484375000e+000;4.0157692871e+003;4.0189743652e+003;4.0193588867e+003;4.0311538086e+003;4.0315385742e+003;4.0270512695e+003;4.0238461914e+003;4.0310256348e+003;4.0465385742e+003;4.0493588867e+003;4.0397436523e+003;4.0406411133e+003;4.0465385742e+003;4.0169230957e+003;
3.1562500000e+000;4.0101281738e+003;4.0141025391e+003;4.0165385742e+003;4.0269230957e+003;4.0194870605e+003;4.0212819824e+003;4.0176923828e+003;4.0226923828e+003;4.0270512695e+003;4.0380769043e+003;4.0288461914e+003;4.0380769043e+003;4.0330769043e+003;4.0171794434e+003;
3.1640625000e+000;3.9862819824e+003;3.9883332520e+003;3.9917949219e+003;4.0030769043e+003;3.9948718262e+003;3.9985898438e+003;3.9978205566e+003;3.9946154785e+003;3.9962819824e+003;4.0070512695e+003;4.0002563477e+003;4.0094870605e+003;4.0052563477e+003;3.9892307129e+003;
3.1718750000e+000;3.9997436523e+003;4.0025642090e+003;4.0026923828e+003;4.0160256348e+003;4.0096154785e+003;4.0126923828e+003;4.0152563477e+003;4.0057692871e+003;4.0055129395e+003;4.0156411133e+003;4.0119230957e+003;4.0164101563e+003;4.0174357910e+003;3.9967949219e+003;
3.1796875000e+000;4.0505129395e+003;4.0576923828e+003;4.0517949219e+003;4.0669230957e+003;4.0641025391e+003;4.0648718262e+003;4.0691025391e+003;4.0594870605e+003;4.0571794434e+003;4.0685898438e+003;4.0664101563e+003;4.0643588867e+003;4.0703845215e+003;4.0443588867e+003;
3.1875000000e+000;4.2184614258e+003;4.2426923828e+003;4.2271796875e+003;4.2323076172e+003;4.2493588867e+003;4.2366665039e+003;4.2465385742e+003;4.2296152344e+003;4.2238461914e+003;4.2502563477e+003;4.2375639648e+003;4.2407690430e+003;4.2460258789e+003;4.2171796875e+003;
3.1953125000e+000;4.3891025391e+003;4.4283334961e+003;4.4116665039e+003;4.4005126953e+003;4.4246152344e+003;4.3970512695e+003;4.4035898438e+003;4.4028203125e+003;4.3965385742e+003;4.4396152344e+003;4.4221796875e+003;4.4188461914e+003;4.4211538086e+003;4.3911538086e+003;
3.2031250000e+000;4.3592309570e+003;4.3961538086e+003;4.3828203125e+003;4.3705126953e+003;4.3941025391e+003;4.3691025391e+003;4.3714101563e+003;4.3715385742e+003;4.3687177734e+003;4.4100000000e+003;4.3933334961e+003;4.3911538086e+003;4.3898715820e+003;4.3624360352e+003;
3.2109375000e+000;4.3396152344e+003;4.3748715820e+003;4.3642309570e+003;4.3544873047e+003;4.3765385742e+003;4.3506411133e+003;4.3532050781e+003;4.3544873047e+003;4.3580771484e+003;4.3948715820e+003;4.3752563477e+003;4.3762822266e+003;4.3760258789e+003;4.3478203125e+003;
3.2187500000e+000;4.3303847656e+003;4.3696152344e+003;4.3583334961e+003;4.3528203125e+003;4.3719228516e+003;4.3448715820e+003;4.3503847656e+003;4.3517949219e+003;4.3555126953e+003;4.3884614258e+003;4.3697436523e+003;4.3719228516e+003;4.3733334961e+003;4.3441025391e+003;
3.2265625000e+000;4.4020512695e+003;4.4612822266e+003;4.4356411133e+003;4.4289741211e+003;4.4625639648e+003;4.4267949219e+003;4.4344873047e+003;4.4378203125e+003;4.4407690430e+003;4.4664101563e+003;4.4526923828e+003;4.4487177734e+003;4.4578203125e+003;4.4260258789e+003;
3.2343750000e+000;4.4306411133e+003;4.5019228516e+003;4.4733334961e+003;4.4651284180e+003;4.4925639648e+003;4.4696152344e+003;4.4817949219e+003;4.4897436523e+003;4.4916665039e+003;4.5237177734e+003;4.4951284180e+003;4.4938461914e+003;4.4980771484e+003;4.4632050781e+003;
3.2421875000e+000;4.4641025391e+003;4.5403847656e+003;4.5087177734e+003;4.5053847656e+003;4.5310258789e+003;4.5055126953e+003;4.5224360352e+003;4.5271796875e+003;4.5266665039e+003;4.5593588867e+003;4.5329487305e+003;4.5320512695e+003;4.5352563477e+003;4.4997436523e+003;
3.2500000000e+000;4.6662822266e+003;4.7597436523e+003;4.7257690430e+003;4.7035898438e+003;4.7656411133e+003;4.7085898438e+003;4.7276923828e+003;4.7433334961e+003;4.7365385742e+003;4.7801284180e+003;4.7514101563e+003;4.7508974609e+003;4.7541025391e+003;4.7160258789e+003;
3.2578125000e+000;4.6647436523e+003;4.7607690430e+003;4.7328203125e+003;4.7041025391e+003;4.7706411133e+003;4.7123076172e+003;4.7325639648e+003;4.7479487305e+003;4.7391025391e+003;4.7862822266e+003;4.7535898438e+003;4.7546152344e+003;4.7582050781e+003;4.7184614258e+003;
3.2656250000e+000;4.6892309570e+003;4.7915385742e+003;4.7648715820e+003;4.7373076172e+003;4.7978203125e+003;4.7405126953e+003;4.7680771484e+003;4.7761538086e+003;4.7694873047e+003;4.8202563477e+003;4.7842309570e+003;4.7832050781e+003;4.7915385742e+003;4.7489741211e+003;
3.2734375000e+000;4.7205126953e+003;4.8266665039e+003;4.7982050781e+003;4.7682050781e+003;4.8279487305e+003;4.7710258789e+003;4.7983334961e+003;4.8080771484e+003;4.8044873047e+003;4.8556411133e+003;4.8197436523e+003;4.8180771484e+003;4.8260258789e+003;4.7853847656e+003;
3.2812500000e+000;4.5987177734e+003;4.7055126953e+003;4.6923076172e+003;4.6411538086e+003;4.7037177734e+003;4.6610258789e+003;4.6752563477e+003;4.6855126953e+003;4.6803847656e+003;4.7262822266e+003;4.7014101563e+003;4.7035898438e+003;4.7030771484e+003;4.6716665039e+003;
3.2890625000e+000;4.5416665039e+003;4.6478203125e+003;4.6365385742e+003;4.5891025391e+003;4.6488461914e+003;4.6073076172e+003;4.6207690430e+003;4.6261538086e+003;4.6193588867e+003;4.6651284180e+003;4.6434614258e+003;4.6429487305e+003;4.6452563477e+003;4.6115385742e+003;
3.2968750000e+000;4.4958974609e+003;4.6024360352e+003;4.5894873047e+003;4.5515385742e+003;4.6058974609e+003;4.5644873047e+003;4.5767949219e+003;4.5793588867e+003;4.5724360352e+003;4.6183334961e+003;4.5978203125e+003;4.5943588867e+003;4.5982050781e+003;4.5624360352e+003;
3.3046875000e+000;4.4465385742e+003;4.5533334961e+003;4.5382050781e+003;4.5105126953e+003;4.5576923828e+003;4.5193588867e+003;4.5278203125e+003;4.5291025391e+003;4.5238461914e+003;4.5673076172e+003;4.5474360352e+003;4.5439741211e+003;4.5446152344e+003;4.5098715820e+003;
3.3125000000e+000;4.3507690430e+003;4.4553847656e+003;4.4417949219e+003;4.4126923828e+003;4.4466665039e+003;4.4238461914e+003;4.4262822266e+003;4.4226923828e+003;4.4250000000e+003;4.4542309570e+003;4.4411538086e+003;4.4437177734e+003;4.4438461914e+003;4.4103847656e+003;
3.3203125000e+000;4.2062822266e+003;4.2998715820e+003;4.2878203125e+003;4.2762822266e+003;4.2966665039e+003;4.2812822266e+003;4.2862822266e+003;4.3062822266e+003;4.2879487305e+003;4.3065385742e+003;4.2925639648e+003;4.2950000000e+003;4.2883334961e+003;4.2660258789e+003;
3.3281250000e+000;4.2167949219e+003;4.3084614258e+003;4.2953847656e+003;4.2820512695e+003;4.3002563477e+003;4.2875639648e+003;4.2938461914e+003;4.3244873047e+003;4.2988461914e+003;4.3135898438e+003;4.3007690430e+003;4.3035898438e+003;4.2950000000e+003;4.2743588867e+003;
3.3359375000e+000;4.1875639648e+003;4.2665385742e+003;4.2639741211e+003;4.2446152344e+003;4.2555126953e+003;4.2552563477e+003;4.2638461914e+003;4.3039741211e+003;4.2728203125e+003;4.2797436523e+003;4.2716665039e+003;4.2733334961e+003;4.2655126953e+003;4.2447436523e+003;
3.3437500000e+000;4.1619228516e+003;4.2315385742e+003;4.2339741211e+003;4.2161538086e+003;4.2257690430e+003;4.2287177734e+003;4.2382050781e+003;4.2750000000e+003;4.2453847656e+003;4.2483334961e+003;4.2439741211e+003;4.2432050781e+003;4.2379487305e+003;4.2166665039e+003;
3.3515625000e+000;4.1855126953e+003;4.2497436523e+003;4.2484614258e+003;4.2392309570e+003;4.2553847656e+003;4.2492309570e+003;4.2593588867e+003;4.2951284180e+003;4.2655126953e+003;4.2702563477e+003;4.2616665039e+003;4.2583334961e+003;4.2515385742e+003;4.2334614258e+003;
3.3593750000e+000;4.1865385742e+003;4.2523076172e+003;4.2508974609e+003;4.2447436523e+003;4.2576923828e+003;4.2526923828e+003;4.2611538086e+003;4.2878203125e+003;4.2570512695e+003;4.2601284180e+003;4.2521796875e+003;4.2492309570e+003;4.2437177734e+003;4.2303847656e+003;
3.3671875000e+000;4.2185898438e+003;4.2848715820e+003;4.2792309570e+003;4.2755126953e+003;4.2896152344e+003;4.2807690430e+003;4.2876923828e+003;4.3137177734e+003;4.2848715820e+003;4.2903847656e+003;4.2830771484e+003;4.2758974609e+003;4.2761538086e+003;4.2616665039e+003;
3.3750000000e+000;4.2378203125e+003;4.3056411133e+003;4.2957690430e+003;4.2939741211e+003;4.3089741211e+003;4.2982050781e+003;4.3020512695e+003;4.3283334961e+003;4.3001284180e+003;4.3103847656e+003;4.3026923828e+003;4.2924360352e+003;4.2969228516e+003;4.2807690430e+003;
3.3828125000e+000;4.2702563477e+003;4.3423076172e+003;4.3258974609e+003;4.3230771484e+003;4.3420512695e+003;4.3296152344e+003;4.3291025391e+003;4.3461538086e+003;4.3170512695e+003;4.3358974609e+003;4.3305126953e+003;4.3179487305e+003;4.3282050781e+003;4.3070512695e+003;
3.3906250000e+000;4.5098715820e+003;4.5948715820e+003;4.5635898438e+003;4.5573076172e+003;4.5846152344e+003;4.5511538086e+003;4.5558974609e+003;4.5706411133e+003;4.5496152344e+003;4.5764101563e+003;4.5655126953e+003;4.5539741211e+003;4.5701284180e+003;4.5430771484e+003;
3.3984375000e+000;4.5211538086e+003;4.6106411133e+003;4.5778203125e+003;4.5717949219e+003;4.5984614258e+003;4.5612822266e+003;4.5667949219e+003;4.5858974609e+003;4.5641025391e+003;4.5953847656e+003;4.5806411133e+003;4.5724360352e+003;4.5851284180e+003;4.5598715820e+003;
3.4062500000e+000;4.4608974609e+003;4.5514101563e+003;4.5294873047e+003;4.5126923828e+003;4.5332050781e+003;4.5051284180e+003;4.5130771484e+003;4.5351284180e+003;4.5053847656e+003;4.5467949219e+003;4.5369228516e+003;4.5238461914e+003;4.5392309570e+003;4.5130771484e+003;
3.4140625000e+000;4.4519228516e+003;4.5405126953e+003;4.5237177734e+003;4.5047436523e+003;4.5170512695e+003;4.4988461914e+003;4.5065385742e+003;4.5308974609e+003;4.5023076172e+003;4.5407690430e+003;4.5305126953e+003;4.5165385742e+003;4.5328203125e+003;4.5070512695e+003;
3.4218750000e+000;4.4335898438e+003;4.5215385742e+003;4.5069228516e+003;4.4891025391e+003;4.4944873047e+003;4.4844873047e+003;4.4919228516e+003;4.5167949219e+003;4.4900000000e+003;4.5226923828e+003;4.5106411133e+003;4.4997436523e+003;4.5129487305e+003;4.4897436523e+003;
3.4296875000e+000;4.4262822266e+003;4.5170512695e+003;4.4989741211e+003;4.4835898438e+003;4.4902563477e+003;4.4803847656e+003;4.4889741211e+003;4.5114101563e+003;4.4858974609e+003;4.5130771484e+003;4.4994873047e+003;4.4923076172e+003;4.5015385742e+003;4.4812822266e+003;
