Time (s);AF3;F7;F3;FC5;T7;P7;O1;O2;P8;T8;FC6;F4;F8;AF4;Sampling Rate
0.0000000000e+000;3.6951281738e+003;3.4997436523e+003;3.5426923828e+003;3.5566667480e+003;3.4303845215e+003;3.5537180176e+003;3.5443588867e+003;3.5587180176e+003;3.5325642090e+003;3.5206411133e+003;3.4966667480e+003;3.5366667480e+003;3.5139743652e+003;3.3562819824e+003;128
7.8125000000e-003;3.6874357910e+003;3.4914101563e+003;3.5360256348e+003;3.5501281738e+003;3.4238461914e+003;3.5453845215e+003;3.5357692871e+003;3.5460256348e+003;3.5233332520e+003;3.5137180176e+003;3.4910256348e+003;3.5271794434e+003;3.5060256348e+003;3.3487180176e+003;
1.5625000000e-002;3.6883332520e+003;3.4964101563e+003;3.5357692871e+003;3.5489743652e+003;3.4285898438e+003;3.5446154785e+003;3.5326923828e+003;3.5357692871e+003;3.5262819824e+003;3.5151281738e+003;3.4947436523e+003;3.5264101563e+003;3.5128205566e+003;3.3532050781e+003;
2.3437500000e-002;3.6732050781e+003;3.4834614258e+003;3.5194870605e+003;3.5324357910e+003;3.4123076172e+003;3.5302563477e+003;3.5161538086e+003;3.5175642090e+003;3.5133332520e+003;3.4985898438e+003;3.4780769043e+003;3.5141025391e+003;3.4984614258e+003;3.3401281738e+003;
3.1250000000e-002;3.6950000000e+003;3.4925642090e+003;3.5379487305e+003;3.5498718262e+003;3.4235898438e+003;3.5478205566e+003;3.5334614258e+003;3.5244870605e+003;3.5201281738e+003;3.5071794434e+003;3.4864101563e+003;3.5317949219e+003;3.5100000000e+003;3.3550000000e+003;
3.9062500000e-002;3.7841025391e+003;3.5764101563e+003;3.6257692871e+003;3.6352563477e+003;3.5125642090e+003;3.6298718262e+003;3.6178205566e+003;3.6080769043e+003;3.6017949219e+003;3.5957692871e+003;3.5755129395e+003;3.6142307129e+003;3.5969230957e+003;3.4396154785e+003;
4.6875000000e-002;3.9057692871e+003;3.7083332520e+003;3.7561538086e+003;3.7557692871e+003;3.6466667480e+003;3.7511538086e+003;3.7378205566e+003;3.7373076172e+003;3.7382050781e+003;3.7393588867e+003;3.7152563477e+003;3.7492307129e+003;3.7237180176e+003;3.5689743652e+003;
5.4687500000e-002;3.8565385742e+003;3.6652563477e+003;3.7094870605e+003;3.7091025391e+003;3.5994870605e+003;3.7067949219e+003;3.6930769043e+003;3.6920512695e+003;3.6975642090e+003;3.6971794434e+003;3.6715385742e+003;3.7096154785e+003;3.6797436523e+003;3.5260256348e+003;
6.2500000000e-002;3.7606411133e+003;3.5691025391e+003;3.6135898438e+003;3.6165385742e+003;3.4988461914e+003;3.6132050781e+003;3.6061538086e+003;3.5962819824e+003;3.6043588867e+003;3.6062819824e+003;3.5811538086e+003;3.6193588867e+003;3.5947436523e+003;3.4358974609e+003;
7.0312500000e-002;3.7389743652e+003;3.5425642090e+003;3.5914101563e+003;3.5956411133e+003;3.4742307129e+003;3.5903845215e+003;3.5880769043e+003;3.5729487305e+003;3.5796154785e+003;3.5826923828e+003;3.5602563477e+003;3.5944870605e+003;3.5744870605e+003;3.4133332520e+003;
7.8125000000e-002;3.7316667480e+003;3.5321794434e+003;3.5837180176e+003;3.5884614258e+003;3.4667949219e+003;3.5825642090e+003;3.5835898438e+003;3.5662819824e+003;3.5702563477e+003;3.5729487305e+003;3.5529487305e+003;3.5828205566e+003;3.5660256348e+003;3.4039743652e+003;
8.5937500000e-002;3.7275642090e+003;3.5300000000e+003;3.5796154785e+003;3.5844870605e+003;3.4665385742e+003;3.5803845215e+003;3.5824357910e+003;3.5684614258e+003;3.5688461914e+003;3.5703845215e+003;3.5492307129e+003;3.5767949219e+003;3.5612819824e+003;3.3991025391e+003;
9.3750000000e-002;3.6489743652e+003;3.4593588867e+003;3.4962819824e+003;3.5055129395e+003;3.3920512695e+003;3.5107692871e+003;3.5096154785e+003;3.5165385742e+003;3.5069230957e+003;3.5035898438e+003;3.4697436523e+003;3.5039743652e+003;3.4853845215e+003;3.3265385742e+003;
1.0156250000e-001;3.7129487305e+003;3.5171794434e+003;3.5591025391e+003;3.5619230957e+003;3.4550000000e+003;3.5661538086e+003;3.5614101563e+003;3.5684614258e+003;3.5629487305e+003;3.5547436523e+003;3.5280769043e+003;3.5542307129e+003;3.5348718262e+003;3.3723076172e+003;
1.0937500000e-001;3.6812819824e+003;3.4844870605e+003;3.5307692871e+003;3.5311538086e+003;3.4238461914e+003;3.5384614258e+003;3.5306411133e+003;3.5361538086e+003;3.5302563477e+003;3.5225642090e+003;3.4933332520e+003;3.5241025391e+003;3.5030769043e+003;3.3412819824e+003;
1.1718750000e-001;3.6608974609e+003;3.4638461914e+003;3.5112819824e+003;3.5143588867e+003;3.4094870605e+003;3.5221794434e+003;3.5121794434e+003;3.5074357910e+003;3.5041025391e+003;3.4996154785e+003;3.4662819824e+003;3.4989743652e+003;3.4819230957e+003;3.3192307129e+003;
1.2500000000e-001;3.6867949219e+003;3.4937180176e+003;3.5361538086e+003;3.5415385742e+003;3.4417949219e+003;3.5491025391e+003;3.5396154785e+003;3.5310256348e+003;3.5311538086e+003;3.5284614258e+003;3.4928205566e+003;3.5223076172e+003;3.5088461914e+003;3.3439743652e+003;
1.3281250000e-001;3.7461538086e+003;3.5583332520e+003;3.5971794434e+003;3.5907692871e+003;3.5042307129e+003;3.6066667480e+003;3.5987180176e+003;3.5867949219e+003;3.6005129395e+003;3.5938461914e+003;3.5571794434e+003;3.5857692871e+003;3.5723076172e+003;3.4078205566e+003;
1.4062500000e-001;3.7114101563e+003;3.5208974609e+003;3.5620512695e+003;3.5629487305e+003;3.4665385742e+003;3.5725642090e+003;3.5588461914e+003;3.5380769043e+003;3.5511538086e+003;3.5496154785e+003;3.5198718262e+003;3.5530769043e+003;3.5328205566e+003;3.3746154785e+003;
1.4843750000e-001;3.7197436523e+003;3.5325642090e+003;3.5708974609e+003;3.5770512695e+003;3.4775642090e+003;3.5812819824e+003;3.5682050781e+003;3.5420512695e+003;3.5514101563e+003;3.5561538086e+003;3.5275642090e+003;3.5607692871e+003;3.5400000000e+003;3.3811538086e+003;
1.5625000000e-001;3.8332050781e+003;3.6501281738e+003;3.6955129395e+003;3.6810256348e+003;3.5905129395e+003;3.6815385742e+003;3.6798718262e+003;3.6550000000e+003;3.6582050781e+003;3.6719230957e+003;3.6388461914e+003;3.6721794434e+003;3.6541025391e+003;3.4956411133e+003;
1.6406250000e-001;3.8416667480e+003;3.6558974609e+003;3.7066667480e+003;3.6862819824e+003;3.5965385742e+003;3.6893588867e+003;3.6894870605e+003;3.6687180176e+003;3.6691025391e+003;3.6814101563e+003;3.6475642090e+003;3.6853845215e+003;3.6619230957e+003;3.5064101563e+003;
1.7187500000e-001;3.8333332520e+003;3.6455129395e+003;3.6975642090e+003;3.6788461914e+003;3.5867949219e+003;3.6843588867e+003;3.6856411133e+003;3.6675642090e+003;3.6634614258e+003;3.6744870605e+003;3.6410256348e+003;3.6833332520e+003;3.6533332520e+003;3.4989743652e+003;
1.7968750000e-001;3.8292307129e+003;3.6425642090e+003;3.6906411133e+003;3.6776923828e+003;3.5839743652e+003;3.6848718262e+003;3.6884614258e+003;3.6730769043e+003;3.6634614258e+003;3.6746154785e+003;3.6415385742e+003;3.6847436523e+003;3.6512819824e+003;3.4952563477e+003;
1.8750000000e-001;3.8883332520e+003;3.7138461914e+003;3.7574357910e+003;3.7314101563e+003;3.6593588867e+003;3.7475642090e+003;3.7682050781e+003;3.7744870605e+003;3.7597436523e+003;3.7641025391e+003;3.7243588867e+003;3.7532050781e+003;3.7310256348e+003;3.5706411133e+003;
1.9531250000e-001;3.8865385742e+003;3.7121794434e+003;3.7578205566e+003;3.7296154785e+003;3.6607692871e+003;3.7487180176e+003;3.7666667480e+003;3.7755129395e+003;3.7626923828e+003;3.7660256348e+003;3.7230769043e+003;3.7530769043e+003;3.7323076172e+003;3.5714101563e+003;
2.0312500000e-001;3.8106411133e+003;3.6448718262e+003;3.6832050781e+003;3.6688461914e+003;3.5902563477e+003;3.6882050781e+003;3.6942307129e+003;3.7097436523e+003;3.7011538086e+003;3.7058974609e+003;3.6551281738e+003;3.6883332520e+003;3.6639743652e+003;3.5008974609e+003;
2.1093750000e-001;3.8891025391e+003;3.7261538086e+003;3.7657692871e+003;3.7428205566e+003;3.6775642090e+003;3.7693588867e+003;3.7776923828e+003;3.7739743652e+003;3.7791025391e+003;3.7778205566e+003;3.7271794434e+003;3.7548718262e+003;3.7416667480e+003;3.5800000000e+003;
2.1875000000e-001;3.9919230957e+003;3.8335898438e+003;3.8652563477e+003;3.8410256348e+003;3.7841025391e+003;3.8693588867e+003;3.8766667480e+003;3.8701281738e+003;3.8797436523e+003;3.8820512695e+003;3.8285898438e+003;3.8521794434e+003;3.8439743652e+003;3.6817949219e+003;
2.2656250000e-001;4.1306411133e+003;3.9987180176e+003;4.0083332520e+003;3.9862819824e+003;3.9375642090e+003;4.0117949219e+003;4.0182050781e+003;4.0239743652e+003;4.0298718262e+003;4.0455129395e+003;3.9880769043e+003;4.0097436523e+003;3.9938461914e+003;3.8284614258e+003;
2.3437500000e-001;4.2065385742e+003;4.0882050781e+003;4.1008974609e+003;4.0652563477e+003;4.0342307129e+003;4.0965385742e+003;4.0983334961e+003;4.1044873047e+003;4.1079487305e+003;4.1343588867e+003;4.0820512695e+003;4.0980771484e+003;4.0885898438e+003;3.9114101563e+003;
2.4218750000e-001;4.2446152344e+003;4.1300000000e+003;4.1433334961e+003;4.1070512695e+003;4.0751281738e+003;4.1350000000e+003;4.1348715820e+003;4.1379487305e+003;4.1420512695e+003;4.1717949219e+003;4.1210258789e+003;4.1380771484e+003;4.1282050781e+003;3.9534614258e+003;
2.5000000000e-001;4.2828203125e+003;4.1747436523e+003;4.1843588867e+003;4.1508974609e+003;4.1156411133e+003;4.1726923828e+003;4.1729487305e+003;4.1737177734e+003;4.1766665039e+003;4.2100000000e+003;4.1596152344e+003;4.1796152344e+003;4.1674360352e+003;3.9967949219e+003;
2.5781250000e-001;4.3584614258e+003;4.2682050781e+003;4.2651284180e+003;4.2355126953e+003;4.2024360352e+003;4.2494873047e+003;4.2541025391e+003;4.2570512695e+003;4.2553847656e+003;4.2984614258e+003;4.2444873047e+003;4.2676923828e+003;4.2526923828e+003;4.0838461914e+003;
2.6562500000e-001;4.4106411133e+003;4.3300000000e+003;4.3329487305e+003;4.2910258789e+003;4.2702563477e+003;4.3078203125e+003;4.3147436523e+003;4.3238461914e+003;4.3189741211e+003;4.3674360352e+003;4.3176923828e+003;4.3348715820e+003;4.3219228516e+003;4.1434614258e+003;
2.7343750000e-001;4.4271796875e+003;4.3497436523e+003;4.3530771484e+003;4.3087177734e+003;4.2893588867e+003;4.3238461914e+003;4.3353847656e+003;4.3474360352e+003;4.3408974609e+003;4.3851284180e+003;4.3382050781e+003;4.3539741211e+003;4.3402563477e+003;4.1612822266e+003;
2.8125000000e-001;4.4375639648e+003;4.3657690430e+003;4.3671796875e+003;4.3211538086e+003;4.3026923828e+003;4.3358974609e+003;4.3533334961e+003;4.3720512695e+003;4.3619228516e+003;4.4016665039e+003;4.3532050781e+003;4.3693588867e+003;4.3535898438e+003;4.1750000000e+003;
2.8906250000e-001;4.4238461914e+003;4.3575639648e+003;4.3585898438e+003;4.3107690430e+003;4.2923076172e+003;4.3279487305e+003;4.3497436523e+003;4.3785898438e+003;4.3629487305e+003;4.3994873047e+003;4.3456411133e+003;4.3641025391e+003;4.3451284180e+003;4.1670512695e+003;
2.9687500000e-001;4.3796152344e+003;4.3166665039e+003;4.3201284180e+003;4.2711538086e+003;4.2503847656e+003;4.2925639648e+003;4.3156411133e+003;4.3542309570e+003;4.3326923828e+003;4.3675639648e+003;4.3085898438e+003;4.3293588867e+003;4.3073076172e+003;4.1289741211e+003;
3.0468750000e-001;4.1914101563e+003;4.1325639648e+003;4.1407690430e+003;4.1041025391e+003;4.0782050781e+003;4.1374360352e+003;4.1457690430e+003;4.1860258789e+003;4.1679487305e+003;4.1902563477e+003;4.1423076172e+003;4.1570512695e+003;4.1338461914e+003;3.9496154785e+003;
3.1250000000e-001;4.1283334961e+003;4.0711538086e+003;4.0815385742e+003;4.0414101563e+003;4.0202563477e+003;4.0839743652e+003;4.0942307129e+003;4.1255126953e+003;4.1142309570e+003;4.1301284180e+003;4.0767949219e+003;4.0951281738e+003;4.0782050781e+003;3.8944870605e+003;
3.2031250000e-001;4.1261538086e+003;4.0703845215e+003;4.0792307129e+003;4.0428205566e+003;4.0156411133e+003;4.0816667480e+003;4.0923076172e+003;4.1230771484e+003;4.1124360352e+003;4.1302563477e+003;4.0765385742e+003;4.0930769043e+003;4.0793588867e+003;3.8947436523e+003;
3.2812500000e-001;4.1101284180e+003;4.0517949219e+003;4.0625642090e+003;4.0424357910e+003;3.9964101563e+003;4.0637180176e+003;4.0706411133e+003;4.0917949219e+003;4.0929487305e+003;4.1034614258e+003;4.0600000000e+003;4.0770512695e+003;4.0571794434e+003;3.8776923828e+003;
3.3593750000e-001;4.1016665039e+003;4.0419230957e+003;4.0538461914e+003;4.0337180176e+003;3.9898718262e+003;4.0541025391e+003;4.0593588867e+003;4.0752563477e+003;4.0806411133e+003;4.0898718262e+003;4.0479487305e+003;4.0655129395e+003;4.0448718262e+003;3.8671794434e+003;
3.4375000000e-001;4.0906411133e+003;4.0333332520e+003;4.0428205566e+003;4.0201281738e+003;3.9833332520e+003;4.0437180176e+003;4.0425642090e+003;4.0528205566e+003;4.0593588867e+003;4.0780769043e+003;4.0350000000e+003;4.0503845215e+003;4.0319230957e+003;3.8565385742e+003;
3.5156250000e-001;4.0830769043e+003;4.0274357910e+003;4.0346154785e+003;4.0133332520e+003;3.9766667480e+003;4.0369230957e+003;4.0326923828e+003;4.0396154785e+003;4.0457692871e+003;4.0714101563e+003;4.0287180176e+003;4.0450000000e+003;4.0244870605e+003;3.8517949219e+003;
3.5937500000e-001;4.0802563477e+003;4.0251281738e+003;4.0301281738e+003;4.0116667480e+003;3.9737180176e+003;4.0324357910e+003;4.0273076172e+003;4.0289743652e+003;4.0373076172e+003;4.0676923828e+003;4.0273076172e+003;4.0460256348e+003;4.0219230957e+003;3.8519230957e+003;
3.6718750000e-001;4.0635898438e+003;4.0064101563e+003;4.0150000000e+003;3.9925642090e+003;3.9448718262e+003;3.9925642090e+003;3.9900000000e+003;3.9939743652e+003;4.0064101563e+003;4.0420512695e+003;4.0160256348e+003;4.0332050781e+003;4.0125642090e+003;3.8421794434e+003;
3.7500000000e-001;4.0350000000e+003;3.9803845215e+003;3.9891025391e+003;3.9669230957e+003;3.9176923828e+003;3.9671794434e+003;3.9656411133e+003;3.9744870605e+003;3.9789743652e+003;4.0165385742e+003;3.9867949219e+003;4.0046154785e+003;3.9857692871e+003;3.8161538086e+003;
3.8281250000e-001;3.9750000000e+003;3.9171794434e+003;3.9344870605e+003;3.9160256348e+003;3.8598718262e+003;3.9152563477e+003;3.9332050781e+003;3.9529487305e+003;3.9406411133e+003;3.9650000000e+003;3.9310256348e+003;3.9494870605e+003;3.9275642090e+003;3.7598718262e+003;
3.9062500000e-001;3.9379487305e+003;3.8715385742e+003;3.8965385742e+003;3.8734614258e+003;3.8178205566e+003;3.8832050781e+003;3.8992307129e+003;3.9248718262e+003;3.9158974609e+003;3.9255129395e+003;3.8961538086e+003;3.9114101563e+003;3.8894870605e+003;3.7223076172e+003;
3.9843750000e-001;3.9315385742e+003;3.8694870605e+003;3.8880769043e+003;3.8683332520e+003;3.8166667480e+003;3.8832050781e+003;3.8924357910e+003;3.9214101563e+003;3.9138461914e+003;3.9262819824e+003;3.8910256348e+003;3.9069230957e+003;3.8875642090e+003;3.7187180176e+003;
4.0625000000e-001;3.8850000000e+003;3.8257692871e+003;3.8369230957e+003;3.8346154785e+003;3.7817949219e+003;3.8555129395e+003;3.8579487305e+003;3.8826923828e+003;3.8716667480e+003;3.8805129395e+003;3.8457692871e+003;3.8617949219e+003;3.8428205566e+003;3.6733332520e+003;
4.1406250000e-001;3.8851281738e+003;3.8233332520e+003;3.8367949219e+003;3.8357692871e+003;3.7830769043e+003;3.8580769043e+003;3.8621794434e+003;3.8829487305e+003;3.8717949219e+003;3.8746154785e+003;3.8426923828e+003;3.8564101563e+003;3.8378205566e+003;3.6687180176e+003;
4.2187500000e-001;3.8333332520e+003;3.7725642090e+003;3.7835898438e+003;3.7802563477e+003;3.7317949219e+003;3.8128205566e+003;3.8139743652e+003;3.8289743652e+003;3.8220512695e+003;3.8216667480e+003;3.7746154785e+003;3.7970512695e+003;3.7789743652e+003;3.6106411133e+003;
4.2968750000e-001;3.8124357910e+003;3.7502563477e+003;3.7574357910e+003;3.7550000000e+003;3.7065385742e+003;3.7902563477e+003;3.7893588867e+003;3.8003845215e+003;3.7978205566e+003;3.7988461914e+003;3.7478205566e+003;3.7732050781e+003;3.7552563477e+003;3.5887180176e+003;
4.3750000000e-001;3.8226923828e+003;3.7485898438e+003;3.7564101563e+003;3.7544870605e+003;3.7060256348e+003;3.7896154785e+003;3.7871794434e+003;3.7930769043e+003;3.8006411133e+003;3.8010256348e+003;3.7575642090e+003;3.7751281738e+003;3.7593588867e+003;3.5982050781e+003;
4.4531250000e-001;3.8303845215e+003;3.7485898438e+003;3.7634614258e+003;3.7596154785e+003;3.7111538086e+003;3.7929487305e+003;3.7897436523e+003;3.7947436523e+003;3.8043588867e+003;3.8042307129e+003;3.7698718262e+003;3.7817949219e+003;3.7666667480e+003;3.6074357910e+003;
4.5312500000e-001;3.8516667480e+003;3.7665385742e+003;3.7894870605e+003;3.7815385742e+003;3.7332050781e+003;3.8050000000e+003;3.7982050781e+003;3.7939743652e+003;3.8023076172e+003;3.8160256348e+003;3.7910256348e+003;3.8033332520e+003;3.7905129395e+003;3.6310256348e+003;
4.6093750000e-001;3.8730769043e+003;3.7911538086e+003;3.8080769043e+003;3.8015385742e+003;3.7516667480e+003;3.8208974609e+003;3.8150000000e+003;3.8083332520e+003;3.8169230957e+003;3.8389743652e+003;3.8075642090e+003;3.8239743652e+003;3.8091025391e+003;3.6521794434e+003;
4.6875000000e-001;3.8871794434e+003;3.8002563477e+003;3.8157692871e+003;3.8089743652e+003;3.7541025391e+003;3.8233332520e+003;3.8214101563e+003;3.8183332520e+003;3.8211538086e+003;3.8512819824e+003;3.8128205566e+003;3.8380769043e+003;3.8119230957e+003;3.6647436523e+003;
4.7656250000e-001;3.8841025391e+003;3.7916667480e+003;3.8129487305e+003;3.8030769043e+003;3.7474357910e+003;3.8162819824e+003;3.8169230957e+003;3.8179487305e+003;3.8144870605e+003;3.8433332520e+003;3.8062819824e+003;3.8346154785e+003;3.8047436523e+003;3.6598718262e+003;
4.8437500000e-001;3.8864101563e+003;3.7911538086e+003;3.8183332520e+003;3.8041025391e+003;3.7494870605e+003;3.8162819824e+003;3.8206411133e+003;3.8252563477e+003;3.8153845215e+003;3.8415385742e+003;3.8065385742e+003;3.8365385742e+003;3.8060256348e+003;3.6593588867e+003;
4.9218750000e-001;3.8921794434e+003;3.7980769043e+003;3.8289743652e+003;3.8107692871e+003;3.7574357910e+003;3.8219230957e+003;3.8312819824e+003;3.8380769043e+003;3.8241025391e+003;3.8467949219e+003;3.8133332520e+003;3.8434614258e+003;3.8130769043e+003;3.6629487305e+003;
5.0000000000e-001;3.8933332520e+003;3.8078205566e+003;3.8296154785e+003;3.8137180176e+003;3.7611538086e+003;3.8258974609e+003;3.8515385742e+003;3.8621794434e+003;3.8498718262e+003;3.8601281738e+003;3.8287180176e+003;3.8460256348e+003;3.8139743652e+003;3.6642307129e+003;
5.0781250000e-001;3.9128205566e+003;3.8293588867e+003;3.8487180176e+003;3.8408974609e+003;3.7864101563e+003;3.8548718262e+003;3.8693588867e+003;3.8833332520e+003;3.8782050781e+003;3.8878205566e+003;3.8360256348e+003;3.8646154785e+003;3.8410256348e+003;3.6826923828e+003;
5.1562500000e-001;3.9248718262e+003;3.8433332520e+003;3.8603845215e+003;3.8539743652e+003;3.8016667480e+003;3.8688461914e+003;3.8821794434e+003;3.8944870605e+003;3.8916667480e+003;3.9000000000e+003;3.8515385742e+003;3.8776923828e+003;3.8533332520e+003;3.6958974609e+003;
5.2343750000e-001;3.9289743652e+003;3.8517949219e+003;3.8626923828e+003;3.8569230957e+003;3.8141025391e+003;3.8814101563e+003;3.8892307129e+003;3.8983332520e+003;3.9006411133e+003;3.9067949219e+003;3.8652563477e+003;3.8852563477e+003;3.8601281738e+003;3.7055129395e+003;
5.3125000000e-001;3.8661538086e+003;3.7824357910e+003;3.7969230957e+003;3.7905129395e+003;3.7493588867e+003;3.8233332520e+003;3.8230769043e+003;3.8212819824e+003;3.8316667480e+003;3.8335898438e+003;3.7924357910e+003;3.8211538086e+003;3.7896154785e+003;3.6367949219e+003;
5.3906250000e-001;3.8583332520e+003;3.7761538086e+003;3.7875642090e+003;3.7834614258e+003;3.7421794434e+003;3.8153845215e+003;3.8142307129e+003;3.8142307129e+003;3.8223076172e+003;3.8282050781e+003;3.7888461914e+003;3.8151281738e+003;3.7825642090e+003;3.6287180176e+003;
5.4687500000e-001;3.8224357910e+003;3.7382050781e+003;3.7514101563e+003;3.7505129395e+003;3.7008974609e+003;3.7714101563e+003;3.7735898438e+003;3.7689743652e+003;3.7739743652e+003;3.7788461914e+003;3.7455129395e+003;3.7678205566e+003;3.7428205566e+003;3.5893588867e+003;
5.5468750000e-001;3.8220512695e+003;3.7334614258e+003;3.7528205566e+003;3.7500000000e+003;3.6969230957e+003;3.7660256348e+003;3.7694870605e+003;3.7646154785e+003;3.7707692871e+003;3.7733332520e+003;3.7374357910e+003;3.7597436523e+003;3.7380769043e+003;3.5843588867e+003;
5.6250000000e-001;3.7975642090e+003;3.7033332520e+003;3.7344870605e+003;3.7270512695e+003;3.6689743652e+003;3.7380769043e+003;3.7400000000e+003;3.7406411133e+003;3.7424357910e+003;3.7494870605e+003;3.7073076172e+003;3.7352563477e+003;3.7079487305e+003;3.5583332520e+003;
5.7031250000e-001;3.7817949219e+003;3.6878205566e+003;3.7193588867e+003;3.7123076172e+003;3.6533332520e+003;3.7212819824e+003;3.7238461914e+003;3.7256411133e+003;3.7228205566e+003;3.7344870605e+003;3.6934614258e+003;3.7246154785e+003;3.6920512695e+003;3.5455129395e+003;
5.7812500000e-001;3.8133332520e+003;3.7233332520e+003;3.7432050781e+003;3.7430769043e+003;3.6820512695e+003;3.7415385742e+003;3.7542307129e+003;3.7565385742e+003;3.7535898438e+003;3.7632050781e+003;3.7320512695e+003;3.7556411133e+003;3.7261538086e+003;3.5807692871e+003;
5.8593750000e-001;3.8197436523e+003;3.7285898438e+003;3.7489743652e+003;3.7482050781e+003;3.6857692871e+003;3.7461538086e+003;3.7603845215e+003;3.7639743652e+003;3.7634614258e+003;3.7689743652e+003;3.7383332520e+003;3.7584614258e+003;3.7302563477e+003;3.5844870605e+003;
5.9375000000e-001;3.8288461914e+003;3.7356411133e+003;3.7565385742e+003;3.7537180176e+003;3.6950000000e+003;3.7550000000e+003;3.7688461914e+003;3.7751281738e+003;3.7741025391e+003;3.7811538086e+003;3.7435898438e+003;3.7625642090e+003;3.7360256348e+003;3.5878205566e+003;
6.0156250000e-001;3.8446154785e+003;3.7525642090e+003;3.7693588867e+003;3.7678205566e+003;3.7142307129e+003;3.7701281738e+003;3.7835898438e+003;3.7921794434e+003;3.7889743652e+003;3.8008974609e+003;3.7578205566e+003;3.7774357910e+003;3.7537180176e+003;3.6026923828e+003;
6.0937500000e-001;3.8580769043e+003;3.7674357910e+003;3.7789743652e+003;3.7798718262e+003;3.7308974609e+003;3.7828205566e+003;3.7960256348e+003;3.8066667480e+003;3.8015385742e+003;3.8176923828e+003;3.7708974609e+003;3.7902563477e+003;3.7696154785e+003;3.6161538086e+003;
6.1718750000e-001;3.8608974609e+003;3.7710256348e+003;3.7783332520e+003;3.7810256348e+003;3.7350000000e+003;3.7855129395e+003;3.7979487305e+003;3.8088461914e+003;3.8033332520e+003;3.8207692871e+003;3.7748718262e+003;3.7921794434e+003;3.7733332520e+003;3.6188461914e+003;
6.2500000000e-001;3.8634614258e+003;3.7775642090e+003;3.7835898438e+003;3.7861538086e+003;3.7351281738e+003;3.7921794434e+003;3.7957692871e+003;3.8058974609e+003;3.8062819824e+003;3.8156411133e+003;3.7864101563e+003;3.7982050781e+003;3.7767949219e+003;3.6305129395e+003;
6.3281250000e-001;3.8541025391e+003;3.7679487305e+003;3.7751281738e+003;3.7806411133e+003;3.7247436523e+003;3.7839743652e+003;3.7874357910e+003;3.7969230957e+003;3.7970512695e+003;3.8078205566e+003;3.7746154785e+003;3.7912819824e+003;3.7691025391e+003;3.6251281738e+003;
6.4062500000e-001;3.8625642090e+003;3.7756411133e+003;3.7779487305e+003;3.7870512695e+003;3.7337180176e+003;3.7974357910e+003;3.8002563477e+003;3.7991025391e+003;3.8024357910e+003;3.8205129395e+003;3.7825642090e+003;3.7978205566e+003;3.7815385742e+003;3.6300000000e+003;
6.4843750000e-001;3.9024357910e+003;3.8105129395e+003;3.8243588867e+003;3.8234614258e+003;3.7667949219e+003;3.8315385742e+003;3.8298718262e+003;3.8324357910e+003;3.8380769043e+003;3.8546154785e+003;3.8253845215e+003;3.8410256348e+003;3.8214101563e+003;3.6762819824e+003;
6.5625000000e-001;3.9212819824e+003;3.8292307129e+003;3.8426923828e+003;3.8458974609e+003;3.7857692871e+003;3.8464101563e+003;3.8450000000e+003;3.8462819824e+003;3.8503845215e+003;3.8687180176e+003;3.8398718262e+003;3.8597436523e+003;3.8374357910e+003;3.6962819824e+003;
6.6406250000e-001;4.0192307129e+003;3.9410256348e+003;3.9452563477e+003;3.9537180176e+003;3.9014101563e+003;3.9482050781e+003;3.9516667480e+003;3.9488461914e+003;3.9438461914e+003;3.9755129395e+003;3.9433332520e+003;3.9639743652e+003;3.9400000000e+003;3.7947436523e+003;
6.7187500000e-001;4.0328205566e+003;3.9569230957e+003;3.9647436523e+003;3.9682050781e+003;3.9192307129e+003;3.9657692871e+003;3.9729487305e+003;3.9708974609e+003;3.9623076172e+003;3.9946154785e+003;3.9634614258e+003;3.9823076172e+003;3.9580769043e+003;3.8124357910e+003;
6.7968750000e-001;4.0320512695e+003;3.9603845215e+003;3.9661538086e+003;3.9665385742e+003;3.9176923828e+003;3.9648718262e+003;3.9829487305e+003;3.9892307129e+003;3.9729487305e+003;3.9989743652e+003;3.9729487305e+003;3.9897436523e+003;3.9588461914e+003;3.8230769043e+003;
6.8750000000e-001;3.9779487305e+003;3.9101281738e+003;3.9124357910e+003;3.9188461914e+003;3.8644870605e+003;3.9167949219e+003;3.9288461914e+003;3.9347436523e+003;3.9292307129e+003;3.9505129395e+003;3.9161538086e+003;3.9394870605e+003;3.9035898438e+003;3.7673076172e+003;
6.9531250000e-001;3.9794870605e+003;3.9097436523e+003;3.9162819824e+003;3.9198718262e+003;3.8671794434e+003;3.9193588867e+003;3.9320512695e+003;3.9406411133e+003;3.9401281738e+003;3.9578205566e+003;3.9184614258e+003;3.9401281738e+003;3.9079487305e+003;3.7687180176e+003;
7.0312500000e-001;3.9829487305e+003;3.9106411133e+003;3.9214101563e+003;3.9220512695e+003;3.8703845215e+003;3.9232050781e+003;3.9375642090e+003;3.9510256348e+003;3.9539743652e+003;3.9671794434e+003;3.9241025391e+003;3.9433332520e+003;3.9143588867e+003;3.7734614258e+003;
7.1093750000e-001;3.9583332520e+003;3.8858974609e+003;3.8985898438e+003;3.9010256348e+003;3.8433332520e+003;3.9000000000e+003;3.9130769043e+003;3.9350000000e+003;3.9405129395e+003;3.9464101563e+003;3.9050000000e+003;3.9223076172e+003;3.8948718262e+003;3.7558974609e+003;
7.1875000000e-001;3.9176923828e+003;3.8593588867e+003;3.8608974609e+003;3.8771794434e+003;3.8100000000e+003;3.8591025391e+003;3.8635898438e+003;3.8861538086e+003;3.8932050781e+003;3.9107692871e+003;3.8753845215e+003;3.8830769043e+003;3.8648718262e+003;3.7242307129e+003;
7.2656250000e-001;3.8937180176e+003;3.8347436523e+003;3.8376923828e+003;3.8562819824e+003;3.7869230957e+003;3.8357692871e+003;3.8383332520e+003;3.8575642090e+003;3.8652563477e+003;3.8852563477e+003;3.8519230957e+003;3.8591025391e+003;3.8401281738e+003;3.7008974609e+003;
7.3437500000e-001;3.8655129395e+003;3.8016667480e+003;3.8096154785e+003;3.8274357910e+003;3.7565385742e+003;3.8076923828e+003;3.8089743652e+003;3.8230769043e+003;3.8319230957e+003;3.8496154785e+003;3.8201281738e+003;3.8300000000e+003;3.8069230957e+003;3.6720512695e+003;
7.4218750000e-001;3.8500000000e+003;3.7802563477e+003;3.7930769043e+003;3.8075642090e+003;3.7374357910e+003;3.7911538086e+003;3.7911538086e+003;3.8006411133e+003;3.8108974609e+003;3.8243588867e+003;3.7989743652e+003;3.8115385742e+003;3.7852563477e+003;3.6548718262e+003;
7.5000000000e-001;3.8864101563e+003;3.8180769043e+003;3.8214101563e+003;3.8376923828e+003;3.7744870605e+003;3.8266667480e+003;3.8251281738e+003;3.8232050781e+003;3.8358974609e+003;3.8575642090e+003;3.8282050781e+003;3.8421794434e+003;3.8225642090e+003;3.6916667480e+003;
7.5781250000e-001;3.8903845215e+003;3.8237180176e+003;3.8238461914e+003;3.8452563477e+003;3.7787180176e+003;3.8311538086e+003;3.8306411133e+003;3.8238461914e+003;3.8342307129e+003;3.8573076172e+003;3.8287180176e+003;3.8441025391e+003;3.8256411133e+003;3.6942307129e+003;
7.6562500000e-001;3.9523076172e+003;3.8855129395e+003;3.8878205566e+003;3.9087180176e+003;3.8393588867e+003;3.8865385742e+003;3.8883332520e+003;3.8846154785e+003;3.8833332520e+003;3.9047436523e+003;3.8823076172e+003;3.8992307129e+003;3.8801281738e+003;3.7512819824e+003;
7.7343750000e-001;3.9855129395e+003;3.9226923828e+003;3.9253845215e+003;3.9439743652e+003;3.8824357910e+003;3.9229487305e+003;3.9343588867e+003;3.9311538086e+003;3.9280769043e+003;3.9535898438e+003;3.9324357910e+003;3.9466667480e+003;3.9201281738e+003;3.7928205566e+003;
7.8125000000e-001;4.0089743652e+003;3.9474357910e+003;3.9487180176e+003;3.9658974609e+003;3.9067949219e+003;3.9444870605e+003;3.9571794434e+003;3.9565385742e+003;3.9553845215e+003;3.9812819824e+003;3.9602563477e+003;3.9712819824e+003;3.9479487305e+003;3.8176923828e+003;
7.8906250000e-001;4.0383332520e+003;3.9733332520e+003;3.9788461914e+003;3.9852563477e+003;3.9241025391e+003;3.9569230957e+003;3.9707692871e+003;3.9855129395e+003;3.9835898438e+003;4.0082050781e+003;3.9900000000e+003;4.0005129395e+003;3.9793588867e+003;3.8492307129e+003;
7.9687500000e-001;4.0329487305e+003;3.9693588867e+003;3.9728205566e+003;3.9805129395e+003;3.9188461914e+003;3.9505129395e+003;3.9648718262e+003;3.9819230957e+003;3.9803845215e+003;4.0066667480e+003;3.9873076172e+003;3.9958974609e+003;3.9748718262e+003;3.8456411133e+003;
8.0468750000e-001;4.0033332520e+003;3.9534614258e+003;3.9488461914e+003;3.9669230957e+003;3.9034614258e+003;3.9379487305e+003;3.9506411133e+003;3.9669230957e+003;3.9710256348e+003;4.0001281738e+003;3.9725642090e+003;3.9756411133e+003;3.9587180176e+003;3.8248718262e+003;
8.1250000000e-001;4.0085898438e+003;3.9592307129e+003;3.9543588867e+003;3.9660256348e+003;3.9151281738e+003;3.9483332520e+003;3.9510256348e+003;3.9667949219e+003;3.9729487305e+003;4.0024357910e+003;3.9669230957e+003;3.9721794434e+003;3.9625642090e+003;3.8302563477e+003;
8.2031250000e-001;3.9880769043e+003;3.9388461914e+003;3.9317949219e+003;3.9450000000e+003;3.8957692871e+003;3.9294870605e+003;3.9284614258e+003;3.9466667480e+003;3.9526923828e+003;3.9820512695e+003;3.9460256348e+003;3.9511538086e+003;3.9385898438e+003;3.8087180176e+003;
8.2812500000e-001;3.9464101563e+003;3.8976923828e+003;3.8893588867e+003;3.9069230957e+003;3.8548718262e+003;3.8910256348e+003;3.8879487305e+003;3.9057692871e+003;3.9123076172e+003;3.9396154785e+003;3.9057692871e+003;3.9102563477e+003;3.8934614258e+003;3.7652563477e+003;
8.3593750000e-001;3.8878205566e+003;3.8396154785e+003;3.8285898438e+003;3.8556411133e+003;3.7956411133e+003;3.8355129395e+003;3.8337180176e+003;3.8398718262e+003;3.8512819824e+003;3.8710256348e+003;3.8457692871e+003;3.8471794434e+003;3.8306411133e+003;3.7014101563e+003;
8.4375000000e-001;3.9039743652e+003;3.8551281738e+003;3.8420512695e+003;3.8708974609e+003;3.8108974609e+003;3.8494870605e+003;3.8497436523e+003;3.8493588867e+003;3.8633332520e+003;3.8812819824e+003;3.8591025391e+003;3.8601281738e+003;3.8473076172e+003;3.7167949219e+003;
8.5156250000e-001;3.9914101563e+003;3.9415385742e+003;3.9251281738e+003;3.9519230957e+003;3.8958974609e+003;3.9297436523e+003;3.9332050781e+003;3.9284614258e+003;3.9405129395e+003;3.9655129395e+003;3.9419230957e+003;3.9491025391e+003;3.9358974609e+003;3.8070512695e+003;
8.5937500000e-001;4.0411538086e+003;3.9912819824e+003;3.9735898438e+003;3.9993588867e+003;3.9442307129e+003;3.9755129395e+003;3.9802563477e+003;3.9766667480e+003;3.9847436523e+003;4.0170512695e+003;3.9892307129e+003;4.0003845215e+003;3.9835898438e+003;3.8571794434e+003;
8.6718750000e-001;4.0865385742e+003;4.0371794434e+003;4.0185898438e+003;4.0439743652e+003;3.9887180176e+003;4.0173076172e+003;4.0234614258e+003;4.0217949219e+003;4.0260256348e+003;4.0644870605e+003;4.0326923828e+003;4.0452563477e+003;4.0256411133e+003;3.9012819824e+003;
8.7500000000e-001;4.1175639648e+003;4.0747436523e+003;4.0621794434e+003;4.0830769043e+003;4.0291025391e+003;4.0567949219e+003;4.0658974609e+003;4.0612819824e+003;4.0560256348e+003;4.0920512695e+003;4.0803845215e+003;4.0847436523e+003;4.0676923828e+003;3.9416667480e+003;
8.8281250000e-001;4.1680771484e+003;4.1303847656e+003;4.1116665039e+003;4.1347436523e+003;4.0834614258e+003;4.1056411133e+003;4.1185898438e+003;4.1151284180e+003;4.1100000000e+003;4.1491025391e+003;4.1329487305e+003;4.1370512695e+003;4.1224360352e+003;3.9924357910e+003;
8.9062500000e-001;4.2696152344e+003;4.2443588867e+003;4.2262822266e+003;4.2443588867e+003;4.1969228516e+003;4.2047436523e+003;4.2247436523e+003;4.2355126953e+003;4.2367949219e+003;4.2793588867e+003;4.2411538086e+003;4.2423076172e+003;4.2362822266e+003;4.1010258789e+003;
8.9843750000e-001;4.2051284180e+003;4.1858974609e+003;4.1739741211e+003;4.1824360352e+003;4.1361538086e+003;4.1471796875e+003;4.1633334961e+003;4.1878203125e+003;4.1902563477e+003;4.2210258789e+003;4.1891025391e+003;4.1941025391e+003;4.1787177734e+003;4.0471794434e+003;
9.0625000000e-001;4.1787177734e+003;4.1620512695e+003;4.1492309570e+003;4.1624360352e+003;4.1132050781e+003;4.1270512695e+003;4.1408974609e+003;4.1691025391e+003;4.1694873047e+003;4.1969228516e+003;4.1661538086e+003;4.1753847656e+003;4.1539741211e+003;4.0234614258e+003;
9.1406250000e-001;4.1521796875e+003;4.1389741211e+003;4.1175639648e+003;4.1455126953e+003;4.1030771484e+003;4.1187177734e+003;4.1279487305e+003;4.1466665039e+003;4.1505126953e+003;4.1738461914e+003;4.1424360352e+003;4.1475639648e+003;4.1341025391e+003;3.9928205566e+003;
9.2187500000e-001;4.1511538086e+003;4.1384614258e+003;4.1137177734e+003;4.1405126953e+003;4.1048715820e+003;4.1232050781e+003;4.1301284180e+003;4.1421796875e+003;4.1508974609e+003;4.1721796875e+003;4.1398715820e+003;4.1417949219e+003;4.1332050781e+003;3.9871794434e+003;
9.2968750000e-001;4.2146152344e+003;4.2043588867e+003;4.1738461914e+003;4.1953847656e+003;4.1680771484e+003;4.1903847656e+003;4.1947436523e+003;4.1983334961e+003;4.2111538086e+003;4.2271796875e+003;4.2005126953e+003;4.2021796875e+003;4.1883334961e+003;4.0434614258e+003;
9.3750000000e-001;4.2778203125e+003;4.2720512695e+003;4.2388461914e+003;4.2587177734e+003;4.2332050781e+003;4.2500000000e+003;4.2555126953e+003;4.2612822266e+003;4.2733334961e+003;4.2929487305e+003;4.2683334961e+003;4.2675639648e+003;4.2539741211e+003;4.1071796875e+003;
9.4531250000e-001;4.3551284180e+003;4.3583334961e+003;4.3247436523e+003;4.3347436523e+003;4.3138461914e+003;4.3229487305e+003;4.3311538086e+003;4.3370512695e+003;4.3514101563e+003;4.3785898438e+003;4.3528203125e+003;4.3525639648e+003;4.3400000000e+003;4.1889741211e+003;
9.5312500000e-001;4.3524360352e+003;4.3562822266e+003;4.3256411133e+003;4.3308974609e+003;4.3106411133e+003;4.3200000000e+003;4.3285898438e+003;4.3306411133e+003;4.3470512695e+003;4.3746152344e+003;4.3466665039e+003;4.3519228516e+003;4.3373076172e+003;4.1874360352e+003;
9.6093750000e-001;4.3647436523e+003;4.3676923828e+003;4.3384614258e+003;4.3493588867e+003;4.3273076172e+003;4.3301284180e+003;4.3392309570e+003;4.3389741211e+003;4.3505126953e+003;4.3794873047e+003;4.3476923828e+003;4.3596152344e+003;4.3441025391e+003;4.1984614258e+003;
9.6875000000e-001;4.3371796875e+003;4.3455126953e+003;4.3130771484e+003;4.3243588867e+003;4.2966665039e+003;4.2979487305e+003;4.3187177734e+003;4.3169228516e+003;4.3217949219e+003;4.3501284180e+003;4.3343588867e+003;4.3407690430e+003;4.3241025391e+003;4.1751284180e+003;
9.7656250000e-001;4.3197436523e+003;4.3297436523e+003;4.2997436523e+003;4.3065385742e+003;4.2775639648e+003;4.2811538086e+003;4.3029487305e+003;4.3026923828e+003;4.3075639648e+003;4.3338461914e+003;4.3198715820e+003;4.3278203125e+003;4.3087177734e+003;4.1605126953e+003;
9.8437500000e-001;4.2989741211e+003;4.3094873047e+003;4.2842309570e+003;4.2878203125e+003;4.2569228516e+003;4.2625639648e+003;4.2826923828e+003;4.2885898438e+003;4.2924360352e+003;4.3173076172e+003;4.3003847656e+003;4.3114101563e+003;4.2888461914e+003;4.1437177734e+003;
9.9218750000e-001;4.2714101563e+003;4.2802563477e+003;4.2610258789e+003;4.2641025391e+003;4.2297436523e+003;4.2375639648e+003;4.2550000000e+003;4.2684614258e+003;4.2698715820e+003;4.2935898438e+003;4.2716665039e+003;4.2867949219e+003;4.2594873047e+003;4.1192309570e+003;
1.0000000000e+000;4.2937177734e+003;4.2998715820e+003;4.2817949219e+003;4.2802563477e+003;4.2510258789e+003;4.2564101563e+003;4.2750000000e+003;4.2907690430e+003;4.3021796875e+003;4.3073076172e+003;4.2850000000e+003;4.3017949219e+003;4.2706411133e+003;4.1369228516e+003;
1.0078125000e+000;4.2924360352e+003;4.2997436523e+003;4.2823076172e+003;4.2769228516e+003;4.2534614258e+003;4.2562822266e+003;4.2758974609e+003;4.2916665039e+003;4.3103847656e+003;4.3100000000e+003;4.2900000000e+003;4.3055126953e+003;4.2738461914e+003;4.1423076172e+003;
1.0156250000e+000;4.1614101563e+003;4.1705126953e+003;4.1520512695e+003;4.1537177734e+003;4.1348715820e+003;4.1438461914e+003;4.1520512695e+003;4.1701284180e+003;4.1941025391e+003;4.1914101563e+003;4.1679487305e+003;4.1778203125e+003;4.1557690430e+003;4.0264101563e+003;
1.0234375000e+000;4.1679487305e+003;4.1803847656e+003;4.1514101563e+003;4.1680771484e+003;4.1430771484e+003;4.1598715820e+003;4.1578203125e+003;4.1650000000e+003;4.1842309570e+003;4.1883334961e+003;4.1588461914e+003;4.1710258789e+003;4.1538461914e+003;4.0233332520e+003;
1.0312500000e+000;4.1816665039e+003;4.1915385742e+003;4.1647436523e+003;4.1819228516e+003;4.1567949219e+003;4.1719228516e+003;4.1721796875e+003;4.1729487305e+003;4.1956411133e+003;4.1969228516e+003;4.1694873047e+003;4.1835898438e+003;4.1629487305e+003;4.0353845215e+003;
1.0390625000e+000;4.2082050781e+003;4.2207690430e+003;4.1911538086e+003;4.2067949219e+003;4.1871796875e+003;4.1957690430e+003;4.1983334961e+003;4.2011538086e+003;4.2250000000e+003;4.2323076172e+003;4.2056411133e+003;4.2164101563e+003;4.1930771484e+003;4.0689743652e+003;
1.0468750000e+000;4.2079487305e+003;4.2247436523e+003;4.1919228516e+003;4.2076923828e+003;4.1879487305e+003;4.1978203125e+003;4.1980771484e+003;4.2034614258e+003;4.2223076172e+003;4.2367949219e+003;4.2096152344e+003;4.2201284180e+003;4.1973076172e+003;4.0726923828e+003;
1.0546875000e+000;4.2408974609e+003;4.2580771484e+003;4.2230771484e+003;4.2367949219e+003;4.2174360352e+003;4.2223076172e+003;4.2321796875e+003;4.2337177734e+003;4.2455126953e+003;4.2650000000e+003;4.2429487305e+003;4.2526923828e+003;4.2330771484e+003;4.1074360352e+003;
1.0625000000e+000;4.2392309570e+003;4.2537177734e+003;4.2217949219e+003;4.2332050781e+003;4.2123076172e+003;4.2171796875e+003;4.2324360352e+003;4.2320512695e+003;4.2419228516e+003;4.2600000000e+003;4.2414101563e+003;4.2516665039e+003;4.2306411133e+003;4.1074360352e+003;
1.0703125000e+000;4.2358974609e+003;4.2482050781e+003;4.2226923828e+003;4.2274360352e+003;4.2010258789e+003;4.2093588867e+003;4.2269228516e+003;4.2260258789e+003;4.2291025391e+003;4.2494873047e+003;4.2406411133e+003;4.2534614258e+003;4.2265385742e+003;4.1102563477e+003;
1.0781250000e+000;4.2651284180e+003;4.2780771484e+003;4.2529487305e+003;4.2547436523e+003;4.2271796875e+003;4.2335898438e+003;4.2500000000e+003;4.2523076172e+003;4.2534614258e+003;4.2769228516e+003;4.2712822266e+003;4.2835898438e+003;4.2574360352e+003;4.1423076172e+003;
1.0859375000e+000;4.3061538086e+003;4.3206411133e+003;4.2938461914e+003;4.2941025391e+003;4.2665385742e+003;4.2688461914e+003;4.2847436523e+003;4.2920512695e+003;4.2943588867e+003;4.3202563477e+003;4.3135898438e+003;4.3242309570e+003;4.3019228516e+003;4.1857690430e+003;
1.0937500000e+000;4.3325639648e+003;4.3489741211e+003;4.3206411133e+003;4.3201284180e+003;4.2929487305e+003;4.2915385742e+003;4.3080771484e+003;4.3206411133e+003;4.3265385742e+003;4.3528203125e+003;4.3414101563e+003;4.3507690430e+003;4.3323076172e+003;4.2146152344e+003;
1.1015625000e+000;4.2402563477e+003;4.2639741211e+003;4.2408974609e+003;4.2384614258e+003;4.2106411133e+003;4.2142309570e+003;4.2325639648e+003;4.2542309570e+003;4.2691025391e+003;4.2846152344e+003;4.2692309570e+003;4.2708974609e+003;4.2523076172e+003;4.1328203125e+003;
1.1093750000e+000;4.1894873047e+003;4.2175639648e+003;4.1905126953e+003;4.1993588867e+003;4.1706411133e+003;4.1797436523e+003;4.1933334961e+003;4.2100000000e+003;4.2235898438e+003;4.2361538086e+003;4.2115385742e+003;4.2203847656e+003;4.1984614258e+003;4.0841025391e+003;
1.1171875000e+000;4.1867949219e+003;4.2150000000e+003;4.1857690430e+003;4.1955126953e+003;4.1707690430e+003;4.1806411133e+003;4.1902563477e+003;4.2065385742e+003;4.2205126953e+003;4.2314101563e+003;4.2078203125e+003;4.2128203125e+003;4.1924360352e+003;4.0783332520e+003;
1.1250000000e+000;4.1703847656e+003;4.1915385742e+003;4.1691025391e+003;4.1765385742e+003;4.1511538086e+003;4.1715385742e+003;4.1734614258e+003;4.1884614258e+003;4.2016665039e+003;4.2079487305e+003;4.1898715820e+003;4.1934614258e+003;4.1706411133e+003;4.0598718262e+003;
1.1328125000e+000;4.1719228516e+003;4.1894873047e+003;4.1714101563e+003;4.1779487305e+003;4.1510258789e+003;4.1738461914e+003;4.1766665039e+003;4.1880771484e+003;4.2003847656e+003;4.2053847656e+003;4.1883334961e+003;4.1946152344e+003;4.1702563477e+003;4.0617949219e+003;
1.1406250000e+000;4.2573076172e+003;4.2861538086e+003;4.2597436523e+003;4.2660258789e+003;4.2492309570e+003;4.2597436523e+003;4.2726923828e+003;4.2764101563e+003;4.2910258789e+003;4.2958974609e+003;4.2779487305e+003;4.2803847656e+003;4.2612822266e+003;4.1491025391e+003;
1.1484375000e+000;4.2192309570e+003;4.2483334961e+003;4.2289741211e+003;4.2323076172e+003;4.2042309570e+003;4.2252563477e+003;4.2319228516e+003;4.2438461914e+003;4.2521796875e+003;4.2592309570e+003;4.2451284180e+003;4.2500000000e+003;4.2284614258e+003;4.1147436523e+003;
1.1562500000e+000;4.1974360352e+003;4.2251284180e+003;4.2074360352e+003;4.2116665039e+003;4.1779487305e+003;4.2008974609e+003;4.2065385742e+003;4.2191025391e+003;4.2242309570e+003;4.2374360352e+003;4.2201284180e+003;4.2267949219e+003;4.2058974609e+003;4.0933332520e+003;
1.1640625000e+000;4.1787177734e+003;4.1980771484e+003;4.1826923828e+003;4.1912822266e+003;4.1498715820e+003;4.1656411133e+003;4.1823076172e+003;4.1823076172e+003;4.1880771484e+003;4.2048715820e+003;4.1971796875e+003;4.2024360352e+003;4.1782050781e+003;4.0729487305e+003;
1.1718750000e+000;4.1978203125e+003;4.2125639648e+003;4.1994873047e+003;4.2079487305e+003;4.1657690430e+003;4.1783334961e+003;4.1983334961e+003;4.1967949219e+003;4.2038461914e+003;4.2175639648e+003;4.2171796875e+003;4.2201284180e+003;4.1970512695e+003;4.0915385742e+003;
1.1796875000e+000;4.2237177734e+003;4.2371796875e+003;4.2251284180e+003;4.2317949219e+003;4.1898715820e+003;4.1997436523e+003;4.2200000000e+003;4.2224360352e+003;4.2296152344e+003;4.2438461914e+003;4.2450000000e+003;4.2475639648e+003;4.2255126953e+003;4.1178203125e+003;
1.1875000000e+000;4.2360258789e+003;4.2570512695e+003;4.2430771484e+003;4.2451284180e+003;4.2039741211e+003;4.2119228516e+003;4.2282050781e+003;4.2443588867e+003;4.2480771484e+003;4.2711538086e+003;4.2611538086e+003;4.2737177734e+003;4.2439741211e+003;4.1346152344e+003;
1.1953125000e+000;4.2311538086e+003;4.2551284180e+003;4.2416665039e+003;4.2423076172e+003;4.2041025391e+003;4.2129487305e+003;4.2328203125e+003;4.2489741211e+003;4.2551284180e+003;4.2723076172e+003;4.2611538086e+003;4.2734614258e+003;4.2424360352e+003;4.1369228516e+003;
1.2031250000e+000;4.2496152344e+003;4.2706411133e+003;4.2601284180e+003;4.2588461914e+003;4.2229487305e+003;4.2315385742e+003;4.2517949219e+003;4.2700000000e+003;4.2792309570e+003;4.2907690430e+003;4.2816665039e+003;4.2889741211e+003;4.2612822266e+003;4.1562822266e+003;
1.2109375000e+000;4.2582050781e+003;4.2773076172e+003;4.2698715820e+003;4.2653847656e+003;4.2319228516e+003;4.2417949219e+003;4.2602563477e+003;4.2815385742e+003;4.2926923828e+003;4.2994873047e+003;4.2905126953e+003;4.2976923828e+003;4.2684614258e+003;4.1652563477e+003;
1.2187500000e+000;4.2557690430e+003;4.2748715820e+003;4.2683334961e+003;4.2610258789e+003;4.2300000000e+003;4.2429487305e+003;4.2585898438e+003;4.2810258789e+003;4.2924360352e+003;4.2957690430e+003;4.2853847656e+003;4.2975639648e+003;4.2625639648e+003;4.1621796875e+003;
1.2265625000e+000;4.2493588867e+003;4.2860258789e+003;4.2670512695e+003;4.2619228516e+003;4.2448715820e+003;4.2616665039e+003;4.2758974609e+003;4.2917949219e+003;4.2946152344e+003;4.2989741211e+003;4.2811538086e+003;4.2924360352e+003;4.2608974609e+003;4.1614101563e+003;
1.2343750000e+000;4.2394873047e+003;4.2775639648e+003;4.2596152344e+003;4.2541025391e+003;4.2396152344e+003;4.2575639648e+003;4.2708974609e+003;4.2842309570e+003;4.2861538086e+003;4.2921796875e+003;4.2753847656e+003;4.2819228516e+003;4.2543588867e+003;4.1537177734e+003;
1.2421875000e+000;4.2789741211e+003;4.3124360352e+003;4.2929487305e+003;4.2862822266e+003;4.2733334961e+003;4.2953847656e+003;4.3037177734e+003;4.3142309570e+003;4.3180771484e+003;4.3257690430e+003;4.3100000000e+003;4.3164101563e+003;4.2848715820e+003;4.1908974609e+003;
1.2500000000e+000;4.1776923828e+003;4.2123076172e+003;4.1985898438e+003;4.1924360352e+003;4.1693588867e+003;4.1975639648e+003;4.2037177734e+003;4.2220512695e+003;4.2206411133e+003;4.2319228516e+003;4.2061538086e+003;4.2182050781e+003;4.1879487305e+003;4.0985898438e+003;
1.2578125000e+000;4.1146152344e+003;4.1488461914e+003;4.1367949219e+003;4.1328203125e+003;4.1083334961e+003;4.1358974609e+003;4.1426923828e+003;4.1573076172e+003;4.1587177734e+003;4.1693588867e+003;4.1432050781e+003;4.1547436523e+003;4.1271796875e+003;4.0339743652e+003;
1.2656250000e+000;3.9756411133e+003;3.9897436523e+003;3.9869230957e+003;3.9900000000e+003;3.9553845215e+003;3.9853845215e+003;3.9919230957e+003;3.9925642090e+003;4.0050000000e+003;4.0060256348e+003;3.9891025391e+003;4.0041025391e+003;3.9760256348e+003;3.8821794434e+003;
1.2734375000e+000;3.9412819824e+003;3.9447436523e+003;3.9476923828e+003;3.9532050781e+003;3.9014101563e+003;3.9369230957e+003;3.9433332520e+003;3.9401281738e+003;3.9542307129e+003;3.9578205566e+003;3.9483332520e+003;3.9632050781e+003;3.9298718262e+003;3.8464101563e+003;
1.2812500000e+000;3.9198718262e+003;3.9224357910e+003;3.9267949219e+003;3.9337180176e+003;3.8800000000e+003;3.9158974609e+003;3.9235898438e+003;3.9208974609e+003;3.9351281738e+003;3.9393588867e+003;3.9303845215e+003;3.9460256348e+003;3.9085898438e+003;3.8265385742e+003;
1.2890625000e+000;3.8875642090e+003;3.8860256348e+003;3.8925642090e+003;3.9011538086e+003;3.8478205566e+003;3.8832050781e+003;3.8925642090e+003;3.8910256348e+003;3.9046154785e+003;3.9064101563e+003;3.8975642090e+003;3.9161538086e+003;3.8752563477e+003;3.7935898438e+003;
1.2968750000e+000;3.8443588867e+003;3.8307692871e+003;3.8379487305e+003;3.8510256348e+003;3.8014101563e+003;3.8339743652e+003;3.8426923828e+003;3.8498718262e+003;3.8605129395e+003;3.8526923828e+003;3.8416667480e+003;3.8658974609e+003;3.8265385742e+003;3.7434614258e+003;
1.3046875000e+000;3.8400000000e+003;3.8232050781e+003;3.8287180176e+003;3.8448718262e+003;3.7934614258e+003;3.8275642090e+003;3.8337180176e+003;3.8473076172e+003;3.8564101563e+003;3.8444870605e+003;3.8328205566e+003;3.8566667480e+003;3.8196154785e+003;3.7360256348e+003;
1.3125000000e+000;3.8124357910e+003;3.7916667480e+003;3.7974357910e+003;3.8189743652e+003;3.7543588867e+003;3.7984614258e+003;3.8060256348e+003;3.8158974609e+003;3.8207692871e+003;3.8060256348e+003;3.8002563477e+003;3.8221794434e+003;3.7823076172e+003;3.6996154785e+003;
1.3203125000e+000;3.8017949219e+003;3.7750000000e+003;3.7747436523e+003;3.8028205566e+003;3.7483332520e+003;3.7912819824e+003;3.7970512695e+003;3.8052563477e+003;3.8074357910e+003;3.7844870605e+003;3.7846154785e+003;3.8035898438e+003;3.7671794434e+003;3.6811538086e+003;
1.3281250000e+000;3.7900000000e+003;3.7596154785e+003;3.7614101563e+003;3.7925642090e+003;3.7370512695e+003;3.7844870605e+003;3.7871794434e+003;3.7967949219e+003;3.7991025391e+003;3.7734614258e+003;3.7724357910e+003;3.7920512695e+003;3.7506411133e+003;3.6689743652e+003;
1.3359375000e+000;3.7826923828e+003;3.7479487305e+003;3.7539743652e+003;3.7869230957e+003;3.7284614258e+003;3.7814101563e+003;3.7819230957e+003;3.7912819824e+003;3.7938461914e+003;3.7682050781e+003;3.7629487305e+003;3.7841025391e+003;3.7380769043e+003;3.6606411133e+003;
1.3437500000e+000;3.7860256348e+003;3.7474357910e+003;3.7566667480e+003;3.7903845215e+003;3.7297436523e+003;3.7867949219e+003;3.7862819824e+003;3.7947436523e+003;3.7973076172e+003;3.7743588867e+003;3.7624357910e+003;3.7850000000e+003;3.7391025391e+003;3.6621794434e+003;
1.3515625000e+000;3.7926923828e+003;3.7498718262e+003;3.7555129395e+003;3.7870512695e+003;3.7348718262e+003;3.7846154785e+003;3.7865385742e+003;3.7919230957e+003;3.8008974609e+003;3.7819230957e+003;3.7701281738e+003;3.7839743652e+003;3.7628205566e+003;3.6641025391e+003;
1.3593750000e+000;3.8169230957e+003;3.7734614258e+003;3.7784614258e+003;3.8094870605e+003;3.7570512695e+003;3.8014101563e+003;3.8041025391e+003;3.8100000000e+003;3.8225642090e+003;3.8067949219e+003;3.7970512695e+003;3.8074357910e+003;3.7867949219e+003;3.6876923828e+003;
1.3671875000e+000;3.8785898438e+003;3.8384614258e+003;3.8423076172e+003;3.8751281738e+003;3.8121794434e+003;3.8487180176e+003;3.8521794434e+003;3.8565385742e+003;3.8760256348e+003;3.8767949219e+003;3.8578205566e+003;3.8752563477e+003;3.8476923828e+003;3.7564101563e+003;
1.3750000000e+000;3.8875642090e+003;3.8475642090e+003;3.8506411133e+003;3.8773076172e+003;3.8157692871e+003;3.8483332520e+003;3.8541025391e+003;3.8487180176e+003;3.8676923828e+003;3.8708974609e+003;3.8594870605e+003;3.8746154785e+003;3.8519230957e+003;3.7600000000e+003;
1.3828125000e+000;3.9038461914e+003;3.8623076172e+003;3.8661538086e+003;3.8914101563e+003;3.8302563477e+003;3.8625642090e+003;3.8660256348e+003;3.8624357910e+003;3.8779487305e+003;3.8839743652e+003;3.8738461914e+003;3.8900000000e+003;3.8658974609e+003;3.7752563477e+003;
1.3906250000e+000;3.8988461914e+003;3.8537180176e+003;3.8565385742e+003;3.8870512695e+003;3.8282050781e+003;3.8564101563e+003;3.8605129395e+003;3.8557692871e+003;3.8652563477e+003;3.8742307129e+003;3.8638461914e+003;3.8887180176e+003;3.8553845215e+003;3.7755129395e+003;
1.3984375000e+000;3.8711538086e+003;3.8217949219e+003;3.8256411133e+003;3.8537180176e+003;3.7921794434e+003;3.8223076172e+003;3.8312819824e+003;3.8330769043e+003;3.8371794434e+003;3.8357692871e+003;3.8288461914e+003;3.8479487305e+003;3.8133332520e+003;3.7315385742e+003;
1.4062500000e+000;3.8682050781e+003;3.8174357910e+003;3.8235898438e+003;3.8526923828e+003;3.7853845215e+003;3.8197436523e+003;3.8275642090e+003;3.8328205566e+003;3.8310256348e+003;3.8270512695e+003;3.8221794434e+003;3.8456411133e+003;3.8046154785e+003;3.7276923828e+003;
1.4140625000e+000;3.8832050781e+003;3.8332050781e+003;3.8387180176e+003;3.8698718262e+003;3.8000000000e+003;3.8353845215e+003;3.8430769043e+003;3.8505129395e+003;3.8443588867e+003;3.8398718262e+003;3.8353845215e+003;3.8634614258e+003;3.8173076172e+003;3.7460256348e+003;
1.4218750000e+000;3.9162819824e+003;3.8712819824e+003;3.8733332520e+003;3.9033332520e+003;3.8391025391e+003;3.8707692871e+003;3.8803845215e+003;3.8912819824e+003;3.8857692871e+003;3.8841025391e+003;3.8723076172e+003;3.9020512695e+003;3.8575642090e+003;3.7871794434e+003;
1.4296875000e+000;3.8900000000e+003;3.8442307129e+003;3.8488461914e+003;3.8760256348e+003;3.8129487305e+003;3.8466667480e+003;3.8558974609e+003;3.8680769043e+003;3.8647436523e+003;3.8625642090e+003;3.8471794434e+003;3.8753845215e+003;3.8356411133e+003;3.7603845215e+003;
1.4375000000e+000;3.7046154785e+003;3.6483332520e+003;3.6626923828e+003;3.6928205566e+003;3.6219230957e+003;3.6667949219e+003;3.6733332520e+003;3.6832050781e+003;3.6760256348e+003;3.6644870605e+003;3.6584614258e+003;3.6815385742e+003;3.6503845215e+003;3.5662819824e+003;
1.4453125000e+000;3.6710256348e+003;3.6150000000e+003;3.6273076172e+003;3.6628205566e+003;3.5908974609e+003;3.6360256348e+003;3.6423076172e+003;3.6506411133e+003;3.6419230957e+003;3.6293588867e+003;3.6271794434e+003;3.6482050781e+003;3.6170512695e+003;3.5341025391e+003;
1.4531250000e+000;3.6826923828e+003;3.6273076172e+003;3.6344870605e+003;3.6761538086e+003;3.6048718262e+003;3.6498718262e+003;3.6548718262e+003;3.6571794434e+003;3.6552563477e+003;3.6448718262e+003;3.6426923828e+003;3.6580769043e+003;3.6306411133e+003;3.5480769043e+003;
1.4609375000e+000;3.7210256348e+003;3.6641025391e+003;3.6682050781e+003;3.7101281738e+003;3.6402563477e+003;3.6839743652e+003;3.6876923828e+003;3.6879487305e+003;3.6916667480e+003;3.6844870605e+003;3.6800000000e+003;3.6912819824e+003;3.6685898438e+003;3.5834614258e+003;
1.4687500000e+000;3.7617949219e+003;3.7025642090e+003;3.7039743652e+003;3.7455129395e+003;3.6766667480e+003;3.7179487305e+003;3.7196154785e+003;3.7206411133e+003;3.7283332520e+003;3.7255129395e+003;3.7183332520e+003;3.7264101563e+003;3.7075642090e+003;3.6194870605e+003;
1.4765625000e+000;3.7547436523e+003;3.6901281738e+003;3.6985898438e+003;3.7391025391e+003;3.6584614258e+003;3.6921794434e+003;3.6952563477e+003;3.6848718262e+003;3.7035898438e+003;3.7056411133e+003;3.6988461914e+003;3.7207692871e+003;3.6897436523e+003;3.6156411133e+003;
1.4843750000e+000;3.7766667480e+003;3.7146154785e+003;3.7202563477e+003;3.7601281738e+003;3.6823076172e+003;3.7128205566e+003;3.7160256348e+003;3.7052563477e+003;3.7239743652e+003;3.7296154785e+003;3.7247436523e+003;3.7424357910e+003;3.7138461914e+003;3.6391025391e+003;
1.4921875000e+000;3.8230769043e+003;3.7600000000e+003;3.7637180176e+003;3.7979487305e+003;3.7317949219e+003;3.7548718262e+003;3.7555129395e+003;3.7515385742e+003;3.7665385742e+003;3.7775642090e+003;3.7720512695e+003;3.7887180176e+003;3.7600000000e+003;3.6851281738e+003;
1.5000000000e+000;3.8237180176e+003;3.7576923828e+003;3.7708974609e+003;3.7978205566e+003;3.7282050781e+003;3.7643588867e+003;3.7630769043e+003;3.7703845215e+003;3.7757692871e+003;3.7828205566e+003;3.7706411133e+003;3.7948718262e+003;3.7620512695e+003;3.6919230957e+003;
1.5078125000e+000;3.8102563477e+003;3.7416667480e+003;3.7569230957e+003;3.7843588867e+003;3.7150000000e+003;3.7552563477e+003;3.7550000000e+003;3.7653845215e+003;3.7641025391e+003;3.7719230957e+003;3.7598718262e+003;3.7816667480e+003;3.7485898438e+003;3.6778205566e+003;
1.5156250000e+000;3.8374357910e+003;3.7603845215e+003;3.7698718262e+003;3.7998718262e+003;3.7439743652e+003;3.7794870605e+003;3.7843588867e+003;3.7957692871e+003;3.7933332520e+003;3.7983332520e+003;3.7843588867e+003;3.7941025391e+003;3.7683332520e+003;3.6929487305e+003;
1.5234375000e+000;3.8465385742e+003;3.7710256348e+003;3.7787180176e+003;3.8083332520e+003;3.7525642090e+003;3.7869230957e+003;3.7925642090e+003;3.8043588867e+003;3.8041025391e+003;3.8067949219e+003;3.7896154785e+003;3.8028205566e+003;3.7760256348e+003;3.7014101563e+003;
1.5312500000e+000;3.8571794434e+003;3.7921794434e+003;3.7952563477e+003;3.8256411133e+003;3.7674357910e+003;3.8005129395e+003;3.8050000000e+003;3.8178205566e+003;3.8135898438e+003;3.8191025391e+003;3.7966667480e+003;3.8191025391e+003;3.7906411133e+003;3.7119230957e+003;
1.5390625000e+000;3.8826923828e+003;3.8225642090e+003;3.8224357910e+003;3.8532050781e+003;3.7983332520e+003;3.8293588867e+003;3.8321794434e+003;3.8444870605e+003;3.8371794434e+003;3.8469230957e+003;3.8251281738e+003;3.8455129395e+003;3.8193588867e+003;3.7361538086e+003;
1.5468750000e+000;3.9547436523e+003;3.8879487305e+003;3.8907692871e+003;3.9173076172e+003;3.8757692871e+003;3.9043588867e+003;3.9069230957e+003;3.9066667480e+003;3.9037180176e+003;3.9150000000e+003;3.9046154785e+003;3.9123076172e+003;3.8866667480e+003;3.8010256348e+003;
1.5546875000e+000;3.9603845215e+003;3.8908974609e+003;3.8946154785e+003;3.9196154785e+003;3.8778205566e+003;3.9069230957e+003;3.9097436523e+003;3.9069230957e+003;3.9067949219e+003;3.9161538086e+003;3.9070512695e+003;3.9152563477e+003;3.8884614258e+003;3.8021794434e+003;
1.5625000000e+000;3.9776923828e+003;3.9264101563e+003;3.9173076172e+003;3.9430769043e+003;3.9010256348e+003;3.9233332520e+003;3.9238461914e+003;3.9241025391e+003;3.9297436523e+003;3.9461538086e+003;3.9260256348e+003;3.9388461914e+003;3.9110256348e+003;3.8212819824e+003;
1.5703125000e+000;3.9619230957e+003;3.9157692871e+003;3.9051281738e+003;3.9311538086e+003;3.8906411133e+003;3.9087180176e+003;3.9106411133e+003;3.9087180176e+003;3.9158974609e+003;3.9346154785e+003;3.9144870605e+003;3.9292307129e+003;3.8998718262e+003;3.8097436523e+003;
1.5781250000e+000;3.9215385742e+003;3.8735898438e+003;3.8648718262e+003;3.8906411133e+003;3.8512819824e+003;3.8620512695e+003;3.8662819824e+003;3.8612819824e+003;3.8706411133e+003;3.8915385742e+003;3.8774357910e+003;3.8924357910e+003;3.8635898438e+003;3.7683332520e+003;
1.5859375000e+000;3.9026923828e+003;3.8524357910e+003;3.8438461914e+003;3.8706411133e+003;3.8278205566e+003;3.8391025391e+003;3.8408974609e+003;3.8385898438e+003;3.8491025391e+003;3.8716667480e+003;3.8584614258e+003;3.8720512695e+003;3.8439743652e+003;3.7470512695e+003;
1.5937500000e+000;3.8750000000e+003;3.8239743652e+003;3.8156411133e+003;3.8438461914e+003;3.7941025391e+003;3.8098718262e+003;3.8076923828e+003;3.8079487305e+003;3.8194870605e+003;3.8442307129e+003;3.8301281738e+003;3.8438461914e+003;3.8150000000e+003;3.7200000000e+003;
1.6015625000e+000;3.7838461914e+003;3.7187180176e+003;3.7270512695e+003;3.7492307129e+003;3.6989743652e+003;3.7174357910e+003;3.7255129395e+003;3.7194870605e+003;3.7226923828e+003;3.7310256348e+003;3.7337180176e+003;3.7528205566e+003;3.7169230957e+003;3.6283332520e+003;
1.6093750000e+000;3.7810256348e+003;3.7123076172e+003;3.7207692871e+003;3.7443588867e+003;3.6935898438e+003;3.7152563477e+003;3.7246154785e+003;3.7220512695e+003;3.7243588867e+003;3.7252563477e+003;3.7276923828e+003;3.7479487305e+003;3.7107692871e+003;3.6201281738e+003;
1.6171875000e+000;3.7937180176e+003;3.7317949219e+003;3.7266667480e+003;3.7661538086e+003;3.7065385742e+003;3.7351281738e+003;3.7420512695e+003;3.7528205566e+003;3.7494870605e+003;3.7479487305e+003;3.7334614258e+003;3.7548718262e+003;3.7183332520e+003;3.6333332520e+003;
1.6250000000e+000;3.8026923828e+003;3.7405129395e+003;3.7329487305e+003;3.7688461914e+003;3.7250000000e+003;3.7548718262e+003;3.7573076172e+003;3.7680769043e+003;3.7523076172e+003;3.7603845215e+003;3.7470512695e+003;3.7664101563e+003;3.7229487305e+003;3.6416667480e+003;
1.6328125000e+000;3.8357692871e+003;3.7711538086e+003;3.7641025391e+003;3.7960256348e+003;3.7569230957e+003;3.7861538086e+003;3.7871794434e+003;3.7915385742e+003;3.7793588867e+003;3.7888461914e+003;3.7780769043e+003;3.7957692871e+003;3.7528205566e+003;3.6737180176e+003;
1.6406250000e+000;3.8757692871e+003;3.8155129395e+003;3.8085898438e+003;3.8361538086e+003;3.7970512695e+003;3.8258974609e+003;3.8243588867e+003;3.8220512695e+003;3.8243588867e+003;3.8326923828e+003;3.8182050781e+003;3.8350000000e+003;3.8043588867e+003;3.7255129395e+003;
1.6484375000e+000;3.8643588867e+003;3.8073076172e+003;3.7958974609e+003;3.8232050781e+003;3.7841025391e+003;3.8103845215e+003;3.8062819824e+003;3.7992307129e+003;3.8082050781e+003;3.8155129395e+003;3.8087180176e+003;3.8255129395e+003;3.7912819824e+003;3.7135898438e+003;
1.6562500000e+000;3.9017949219e+003;3.8433332520e+003;3.8317949219e+003;3.8562819824e+003;3.8165385742e+003;3.8369230957e+003;3.8326923828e+003;3.8244870605e+003;3.8367949219e+003;3.8497436523e+003;3.8416667480e+003;3.8600000000e+003;3.8229487305e+003;3.7483332520e+003;
1.6640625000e+000;3.9276923828e+003;3.8676923828e+003;3.8592307129e+003;3.8789743652e+003;3.8374357910e+003;3.8532050781e+003;3.8480769043e+003;3.8397436523e+003;3.8544870605e+003;3.8726923828e+003;3.8629487305e+003;3.8839743652e+003;3.8441025391e+003;3.7738461914e+003;
1.6718750000e+000;3.9132050781e+003;3.8555129395e+003;3.8532050781e+003;3.8666667480e+003;3.8217949219e+003;3.8351281738e+003;3.8284614258e+003;3.8192307129e+003;3.8344870605e+003;3.8571794434e+003;3.8480769043e+003;3.8714101563e+003;3.8305129395e+003;3.7652563477e+003;
1.6796875000e+000;3.8875642090e+003;3.8325642090e+003;3.8298718262e+003;3.8441025391e+003;3.7983332520e+003;3.8116667480e+003;3.8067949219e+003;3.7958974609e+003;3.8097436523e+003;3.8342307129e+003;3.8258974609e+003;3.8487180176e+003;3.8089743652e+003;3.7426923828e+003;
1.6875000000e+000;3.7961538086e+003;3.7352563477e+003;3.7347436523e+003;3.7511538086e+003;3.7033332520e+003;3.7191025391e+003;3.7191025391e+003;3.7023076172e+003;3.7134614258e+003;3.7384614258e+003;3.7312819824e+003;3.7575642090e+003;3.7102563477e+003;3.6493588867e+003;
1.6953125000e+000;3.7766667480e+003;3.7146154785e+003;3.7134614258e+003;3.7302563477e+003;3.6830769043e+003;3.7016667480e+003;3.6993588867e+003;3.6842307129e+003;3.6979487305e+003;3.7155129395e+003;3.7097436523e+003;3.7341025391e+003;3.6873076172e+003;3.6282050781e+003;
1.7031250000e+000;3.7603845215e+003;3.6998718262e+003;3.6966667480e+003;3.7156411133e+003;3.6682050781e+003;3.6912819824e+003;3.6867949219e+003;3.6758974609e+003;3.6925642090e+003;3.7007692871e+003;3.6957692871e+003;3.7160256348e+003;3.6729487305e+003;3.6124357910e+003;
1.7109375000e+000;3.7350000000e+003;3.6755129395e+003;3.6716667480e+003;3.6952563477e+003;3.6443588867e+003;3.6737180176e+003;3.6688461914e+003;3.6629487305e+003;3.6806411133e+003;3.6815385742e+003;3.6758974609e+003;3.6929487305e+003;3.6530769043e+003;3.5896154785e+003;
1.7187500000e+000;3.6517949219e+003;3.5766667480e+003;3.5776923828e+003;3.6212819824e+003;3.5564101563e+003;3.5935898438e+003;3.5965385742e+003;3.5982050781e+003;3.6017949219e+003;3.5973076172e+003;3.5873076172e+003;3.6092307129e+003;3.5726923828e+003;3.5044870605e+003;
1.7265625000e+000;3.6696154785e+003;3.5941025391e+003;3.5884614258e+003;3.6310256348e+003;3.5667949219e+003;3.6082050781e+003;3.6092307129e+003;3.6142307129e+003;3.6160256348e+003;3.6094870605e+003;3.5997436523e+003;3.6200000000e+003;3.5823076172e+003;3.5187180176e+003;
1.7343750000e+000;3.6421794434e+003;3.5628205566e+003;3.5597436523e+003;3.6015385742e+003;3.5367949219e+003;3.5812819824e+003;3.5810256348e+003;3.5851281738e+003;3.5853845215e+003;3.5823076172e+003;3.5717949219e+003;3.5914101563e+003;3.5541025391e+003;3.4908974609e+003;
1.7421875000e+000;3.5879487305e+003;3.4975642090e+003;3.5015385742e+003;3.5439743652e+003;3.4844870605e+003;3.5251281738e+003;3.5178205566e+003;3.5169230957e+003;3.5201281738e+003;3.5183332520e+003;3.5101281738e+003;3.5278205566e+003;3.4962819824e+003;3.4288461914e+003;
1.7500000000e+000;3.6296154785e+003;3.5319230957e+003;3.5342307129e+003;3.5770512695e+003;3.5093588867e+003;3.5521794434e+003;3.5457692871e+003;3.5410256348e+003;3.5452563477e+003;3.5474357910e+003;3.5361538086e+003;3.5575642090e+003;3.5189743652e+003;3.4603845215e+003;
1.7578125000e+000;3.6262819824e+003;3.5278205566e+003;3.5293588867e+003;3.5725642090e+003;3.5048718262e+003;3.5489743652e+003;3.5420512695e+003;3.5364101563e+003;3.5383332520e+003;3.5461538086e+003;3.5324357910e+003;3.5539743652e+003;3.5133332520e+003;3.4578205566e+003;
1.7656250000e+000;3.6343588867e+003;3.5350000000e+003;3.5384614258e+003;3.5816667480e+003;3.5191025391e+003;3.5552563477e+003;3.5484614258e+003;3.5311538086e+003;3.5353845215e+003;3.5478205566e+003;3.5432050781e+003;3.5587180176e+003;3.5320512695e+003;3.4657692871e+003;
1.7734375000e+000;3.6750000000e+003;3.5755129395e+003;3.5778205566e+003;3.6179487305e+003;3.5584614258e+003;3.5871794434e+003;3.5824357910e+003;3.5643588867e+003;3.5710256348e+003;3.5837180176e+003;3.5834614258e+003;3.5957692871e+003;3.5741025391e+003;3.5041025391e+003;
1.7812500000e+000;3.7374357910e+003;3.6406411133e+003;3.6384614258e+003;3.6720512695e+003;3.6173076172e+003;3.6397436523e+003;3.6382050781e+003;3.6223076172e+003;3.6294870605e+003;3.6476923828e+003;3.6484614258e+003;3.6610256348e+003;3.6347436523e+003;3.5675642090e+003;
1.7890625000e+000;3.7652563477e+003;3.6720512695e+003;3.6666667480e+003;3.6988461914e+003;3.6465385742e+003;3.6700000000e+003;3.6705129395e+003;3.6526923828e+003;3.6593588867e+003;3.6816667480e+003;3.6793588867e+003;3.6937180176e+003;3.6647436523e+003;3.5983332520e+003;
1.7968750000e+000;4.0052563477e+003;3.9274357910e+003;3.9100000000e+003;3.9320512695e+003;3.8998718262e+003;3.9120512695e+003;3.9215385742e+003;3.9098718262e+003;3.9224357910e+003;3.9503845215e+003;3.9328205566e+003;3.9379487305e+003;3.9275642090e+003;3.8438461914e+003;
1.8046875000e+000;4.0666667480e+003;3.9915385742e+003;3.9747436523e+003;3.9898718262e+003;3.9629487305e+003;3.9712819824e+003;3.9828205566e+003;3.9802563477e+003;3.9923076172e+003;4.0183332520e+003;3.9989743652e+003;4.0029487305e+003;3.9911538086e+003;3.9082050781e+003;
1.8125000000e+000;4.0805129395e+003;4.0069230957e+003;3.9926923828e+003;4.0021794434e+003;3.9773076172e+003;3.9853845215e+003;3.9980769043e+003;4.0021794434e+003;4.0110256348e+003;4.0347436523e+003;4.0160256348e+003;4.0226923828e+003;4.0008974609e+003;3.9264101563e+003;
1.8203125000e+000;4.0648718262e+003;3.9937180176e+003;3.9803845215e+003;3.9880769043e+003;3.9632050781e+003;3.9735898438e+003;3.9862819824e+003;3.9926923828e+003;3.9966667480e+003;4.0201281738e+003;4.0021794434e+003;4.0129487305e+003;3.9789743652e+003;3.9151281738e+003;
1.8281250000e+000;4.0893588867e+003;4.0420512695e+003;4.0098718262e+003;4.0228205566e+003;4.0143588867e+003;4.0243588867e+003;4.0301281738e+003;4.0371794434e+003;4.0355129395e+003;4.0652563477e+003;4.0378205566e+003;4.0414101563e+003;4.0303845215e+003;3.9465385742e+003;
1.8359375000e+000;4.1111538086e+003;4.0652563477e+003;4.0330769043e+003;4.0415385742e+003;4.0398718262e+003;4.0469230957e+003;4.0515385742e+003;4.0600000000e+003;4.0593588867e+003;4.0860256348e+003;4.0610256348e+003;4.0624357910e+003;4.0569230957e+003;3.9689743652e+003;
1.8437500000e+000;4.0839743652e+003;4.0429487305e+003;4.0205129395e+003;4.0184614258e+003;4.0200000000e+003;4.0301281738e+003;4.0291025391e+003;4.0430769043e+003;4.0401281738e+003;4.0678205566e+003;4.0383332520e+003;4.0461538086e+003;4.0238461914e+003;3.9532050781e+003;
1.8515625000e+000;4.0344870605e+003;3.9939743652e+003;3.9698718262e+003;3.9725642090e+003;3.9770512695e+003;3.9848718262e+003;3.9833332520e+003;3.9812819824e+003;3.9850000000e+003;4.0144870605e+003;3.9869230957e+003;3.9947436523e+003;3.9750000000e+003;3.9011538086e+003;
1.8593750000e+000;4.0930769043e+003;4.0523076172e+003;4.0257692871e+003;4.0274357910e+003;4.0350000000e+003;4.0371794434e+003;4.0365385742e+003;4.0292307129e+003;4.0382050781e+003;4.0689743652e+003;4.0474357910e+003;4.0506411133e+003;4.0346154785e+003;3.9582050781e+003;
1.8671875000e+000;4.1776923828e+003;4.1551284180e+003;4.1265385742e+003;4.1251284180e+003;4.1284614258e+003;4.1224360352e+003;4.1214101563e+003;4.1238461914e+003;4.1330771484e+003;4.1730771484e+003;4.1529487305e+003;4.1539741211e+003;4.1364101563e+003;4.0661538086e+003;
1.8750000000e+000;4.1438461914e+003;4.1291025391e+003;4.0971796875e+003;4.0991025391e+003;4.1001284180e+003;4.0917949219e+003;4.0924357910e+003;4.0992309570e+003;4.1042309570e+003;4.1475639648e+003;4.1255126953e+003;4.1266665039e+003;4.1106411133e+003;4.0403845215e+003;
1.8828125000e+000;4.0526923828e+003;4.0428205566e+003;4.0094870605e+003;4.0126923828e+003;4.0088461914e+003;4.0005129395e+003;4.0052563477e+003;4.0124357910e+003;4.0146154785e+003;4.0610256348e+003;4.0392307129e+003;4.0434614258e+003;4.0255129395e+003;3.9555129395e+003;
1.8906250000e+000;4.0115385742e+003;3.9982050781e+003;3.9703845215e+003;3.9703845215e+003;3.9615385742e+003;3.9567949219e+003;3.9621794434e+003;3.9667949219e+003;3.9716667480e+003;4.0166667480e+003;3.9955129395e+003;4.0042307129e+003;3.9808974609e+003;3.9144870605e+003;
1.8984375000e+000;4.0025642090e+003;3.9841025391e+003;3.9629487305e+003;3.9594870605e+003;3.9426923828e+003;3.9392307129e+003;3.9474357910e+003;3.9541025391e+003;3.9629487305e+003;4.0002563477e+003;3.9785898438e+003;3.9901281738e+003;3.9671794434e+003;3.9033332520e+003;
1.9062500000e+000;4.0434614258e+003;4.0366667480e+003;4.0087180176e+003;4.0006411133e+003;3.9944870605e+003;3.9898718262e+003;4.0003845215e+003;4.0157692871e+003;4.0128205566e+003;4.0447436523e+003;4.0337180176e+003;4.0428205566e+003;4.0156411133e+003;3.9537180176e+003;
1.9140625000e+000;4.0589743652e+003;4.0546154785e+003;4.0260256348e+003;4.0174357910e+003;4.0117949219e+003;4.0083332520e+003;4.0197436523e+003;4.0323076172e+003;4.0307692871e+003;4.0606411133e+003;4.0515385742e+003;4.0612819824e+003;4.0319230957e+003;3.9712819824e+003;
1.9218750000e+000;4.0773076172e+003;4.0737180176e+003;4.0437180176e+003;4.0373076172e+003;4.0306411133e+003;4.0284614258e+003;4.0400000000e+003;4.0497436523e+003;4.0500000000e+003;4.0798718262e+003;4.0684614258e+003;4.0789743652e+003;4.0498718262e+003;3.9894870605e+003;
1.9296875000e+000;4.0753845215e+003;4.0693588867e+003;4.0384614258e+003;4.0366667480e+003;4.0276923828e+003;4.0315385742e+003;4.0387180176e+003;4.0483332520e+003;4.0415385742e+003;4.0784614258e+003;4.0556411133e+003;4.0701281738e+003;4.0439743652e+003;3.9847436523e+003;
1.9375000000e+000;4.0561538086e+003;4.0498718262e+003;4.0202563477e+003;4.0165385742e+003;4.0101281738e+003;4.0175642090e+003;4.0220512695e+003;4.0324357910e+003;4.0189743652e+003;4.0587180176e+003;4.0333332520e+003;4.0480769043e+003;4.0234614258e+003;3.9648718262e+003;
1.9453125000e+000;4.0426923828e+003;4.0380769043e+003;4.0103845215e+003;4.0016667480e+003;4.0015385742e+003;4.0105129395e+003;4.0141025391e+003;4.0243588867e+003;4.0079487305e+003;4.0471794434e+003;4.0224357910e+003;4.0338461914e+003;4.0108974609e+003;3.9519230957e+003;
1.9531250000e+000;3.9906411133e+003;3.9757692871e+003;3.9687180176e+003;3.9543588867e+003;3.9653845215e+003;3.9780769043e+003;3.9864101563e+003;3.9932050781e+003;3.9953845215e+003;4.0182050781e+003;3.9893588867e+003;3.9988461914e+003;3.9650000000e+003;3.9075642090e+003;
1.9609375000e+000;3.9705129395e+003;3.9576923828e+003;3.9452563477e+003;3.9347436523e+003;3.9442307129e+003;3.9578205566e+003;3.9620512695e+003;3.9696154785e+003;3.9710256348e+003;3.9982050781e+003;3.9674357910e+003;3.9767949219e+003;3.9488461914e+003;3.8875642090e+003;
1.9687500000e+000;3.9230769043e+003;3.9183332520e+003;3.8880769043e+003;3.8930769043e+003;3.8912819824e+003;3.9044870605e+003;3.9065385742e+003;3.9096154785e+003;3.9091025391e+003;3.9443588867e+003;3.9248718262e+003;3.9256411133e+003;3.9112819824e+003;3.8475642090e+003;
1.9765625000e+000;3.9762819824e+003;3.9632050781e+003;3.9394870605e+003;3.9403845215e+003;3.9360256348e+003;3.9408974609e+003;3.9452563477e+003;3.9521794434e+003;3.9482050781e+003;3.9862819824e+003;3.9669230957e+003;3.9710256348e+003;3.9497436523e+003;3.8969230957e+003;
1.9843750000e+000;3.9810256348e+003;3.9679487305e+003;3.9425642090e+003;3.9428205566e+003;3.9367949219e+003;3.9389743652e+003;3.9429487305e+003;3.9501281738e+003;3.9452563477e+003;3.9869230957e+003;3.9648718262e+003;3.9724357910e+003;3.9498718262e+003;3.8979487305e+003;
1.9921875000e+000;4.0028205566e+003;3.9969230957e+003;3.9555129395e+003;3.9621794434e+003;3.9519230957e+003;3.9442307129e+003;3.9551281738e+003;3.9611538086e+003;3.9576923828e+003;4.0010256348e+003;3.9869230957e+003;3.9919230957e+003;3.9735898438e+003;3.9226923828e+003;
2.0000000000e+000;3.9423076172e+003;3.9343588867e+003;3.9148718262e+003;3.9092307129e+003;3.8951281738e+003;3.8974357910e+003;3.9101281738e+003;3.9339743652e+003;3.9321794434e+003;3.9592307129e+003;3.9451281738e+003;3.9492307129e+003;3.9223076172e+003;3.8750000000e+003;
2.0078125000e+000;3.9139743652e+003;3.9008974609e+003;3.8882050781e+003;3.8811538086e+003;3.8655129395e+003;3.8724357910e+003;3.8847436523e+003;3.9074357910e+003;3.9041025391e+003;3.9315385742e+003;3.9153845215e+003;3.9233332520e+003;3.8915385742e+003;3.8469230957e+003;
2.0156250000e+000;3.9096154785e+003;3.8920512695e+003;3.8810256348e+003;3.8751281738e+003;3.8587180176e+003;3.8685898438e+003;3.8814101563e+003;3.9000000000e+003;3.8948718262e+003;3.9256411133e+003;3.9084614258e+003;3.9180769043e+003;3.8846154785e+003;3.8424357910e+003;
2.0234375000e+000;3.9364101563e+003;3.9158974609e+003;3.9016667480e+003;3.8982050781e+003;3.8821794434e+003;3.8948718262e+003;3.9114101563e+003;3.9216667480e+003;3.9157692871e+003;3.9485898438e+003;3.9335898438e+003;3.9397436523e+003;3.9103845215e+003;3.8700000000e+003;
2.0312500000e+000;3.9451281738e+003;3.9250000000e+003;3.9103845215e+003;3.9051281738e+003;3.8912819824e+003;3.9039743652e+003;3.9233332520e+003;3.9294870605e+003;3.9253845215e+003;3.9530769043e+003;3.9408974609e+003;3.9451281738e+003;3.9192307129e+003;3.8761538086e+003;
2.0390625000e+000;3.9735898438e+003;3.9566667480e+003;3.9411538086e+003;3.9316667480e+003;3.9260256348e+003;3.9342307129e+003;3.9564101563e+003;3.9573076172e+003;3.9561538086e+003;3.9762819824e+003;3.9660256348e+003;3.9679487305e+003;3.9476923828e+003;3.8955129395e+003;
2.0468750000e+000;3.9935898438e+003;3.9797436523e+003;3.9621794434e+003;3.9537180176e+003;3.9501281738e+003;3.9576923828e+003;3.9776923828e+003;3.9793588867e+003;3.9767949219e+003;4.0000000000e+003;3.9878205566e+003;3.9896154785e+003;3.9689743652e+003;3.9153845215e+003;
2.0546875000e+000;4.0070512695e+003;4.0020512695e+003;3.9800000000e+003;3.9780769043e+003;3.9701281738e+003;3.9869230957e+003;3.9967949219e+003;3.9988461914e+003;3.9935898438e+003;4.0271794434e+003;4.0073076172e+003;4.0124357910e+003;3.9897436523e+003;3.9401281738e+003;
2.0625000000e+000;4.0214101563e+003;4.0183332520e+003;3.9939743652e+003;3.9915385742e+003;3.9874357910e+003;4.0019230957e+003;4.0124357910e+003;4.0105129395e+003;4.0075642090e+003;4.0408974609e+003;4.0178205566e+003;4.0226923828e+003;4.0035898438e+003;3.9523076172e+003;
2.0703125000e+000;4.0456411133e+003;4.0434614258e+003;4.0167949219e+003;4.0124357910e+003;4.0144870605e+003;4.0235898438e+003;4.0353845215e+003;4.0305129395e+003;4.0294870605e+003;4.0630769043e+003;4.0375642090e+003;4.0426923828e+003;4.0239743652e+003;3.9726923828e+003;
2.0781250000e+000;4.0696154785e+003;4.0743588867e+003;4.0426923828e+003;4.0352563477e+003;4.0337180176e+003;4.0335898438e+003;4.0380769043e+003;4.0474357910e+003;4.0439743652e+003;4.0888461914e+003;4.0670512695e+003;4.0687180176e+003;4.0510256348e+003;4.0065385742e+003;
2.0859375000e+000;4.0650000000e+003;4.0729487305e+003;4.0424357910e+003;4.0324357910e+003;4.0317949219e+003;4.0287180176e+003;4.0347436523e+003;4.0432050781e+003;4.0420512695e+003;4.0866667480e+003;4.0626923828e+003;4.0647436523e+003;4.0520512695e+003;4.0017949219e+003;
2.0937500000e+000;4.1315385742e+003;4.1344873047e+003;4.1102563477e+003;4.0893588867e+003;4.0919230957e+003;4.0750000000e+003;4.0879487305e+003;4.0991025391e+003;4.1033334961e+003;4.1425639648e+003;4.1253847656e+003;4.1329487305e+003;4.1053847656e+003;4.0667949219e+003;
2.1015625000e+000;4.0520512695e+003;4.0564101563e+003;4.0356411133e+003;4.0178205566e+003;4.0137180176e+003;4.0046154785e+003;4.0165385742e+003;4.0401281738e+003;4.0405129395e+003;4.0850000000e+003;4.0658974609e+003;4.0743588867e+003;4.0460256348e+003;4.0052563477e+003;
2.1093750000e+000;3.9780769043e+003;3.9806411133e+003;3.9669230957e+003;3.9475642090e+003;3.9423076172e+003;3.9388461914e+003;3.9520512695e+003;3.9693588867e+003;3.9703845215e+003;4.0126923828e+003;3.9930769043e+003;4.0023076172e+003;3.9757692871e+003;3.9310256348e+003;
2.1171875000e+000;3.8869230957e+003;3.8771794434e+003;3.8730769043e+003;3.8557692871e+003;3.8515385742e+003;3.8533332520e+003;3.8721794434e+003;3.8782050781e+003;3.8832050781e+003;3.9010256348e+003;3.8880769043e+003;3.9037180176e+003;3.8633332520e+003;3.8280769043e+003;
2.1250000000e+000;3.8692307129e+003;3.8585898438e+003;3.8517949219e+003;3.8398718262e+003;3.8332050781e+003;3.8393588867e+003;3.8574357910e+003;3.8651281738e+003;3.8675642090e+003;3.8798718262e+003;3.8679487305e+003;3.8880769043e+003;3.8417949219e+003;3.8100000000e+003;
2.1328125000e+000;3.8147436523e+003;3.8052563477e+003;3.7912819824e+003;3.7898718262e+003;3.7800000000e+003;3.7958974609e+003;3.8123076172e+003;3.8207692871e+003;3.8157692871e+003;3.8315385742e+003;3.8143588867e+003;3.8352563477e+003;3.7916667480e+003;3.7529487305e+003;
2.1406250000e+000;3.7829487305e+003;3.7698718262e+003;3.7557692871e+003;3.7566667480e+003;3.7482050781e+003;3.7662819824e+003;3.7830769043e+003;3.7903845215e+003;3.7832050781e+003;3.8016667480e+003;3.7815385742e+003;3.7993588867e+003;3.7605129395e+003;3.7164101563e+003;
2.1484375000e+000;3.6857692871e+003;3.6508974609e+003;3.6471794434e+003;3.6525642090e+003;3.6439743652e+003;3.6683332520e+003;3.6787180176e+003;3.6788461914e+003;3.6726923828e+003;3.6743588867e+003;3.6623076172e+003;3.6811538086e+003;3.6446154785e+003;3.6029487305e+003;
2.1562500000e+000;3.6785898438e+003;3.6429487305e+003;3.6388461914e+003;3.6475642090e+003;3.6358974609e+003;3.6619230957e+003;3.6669230957e+003;3.6669230957e+003;3.6638461914e+003;3.6600000000e+003;3.6512819824e+003;3.6697436523e+003;3.6337180176e+003;3.5916667480e+003;
2.1640625000e+000;3.6688461914e+003;3.6358974609e+003;3.6301281738e+003;3.6461538086e+003;3.6276923828e+003;3.6555129395e+003;3.6532050781e+003;3.6556411133e+003;3.6589743652e+003;3.6556411133e+003;3.6447436523e+003;3.6597436523e+003;3.6241025391e+003;3.5750000000e+003;
2.1718750000e+000;3.6492307129e+003;3.6125642090e+003;3.6085898438e+003;3.6274357910e+003;3.6076923828e+003;3.6348718262e+003;3.6338461914e+003;3.6329487305e+003;3.6391025391e+003;3.6360256348e+003;3.6241025391e+003;3.6400000000e+003;3.6023076172e+003;3.5514101563e+003;
2.1796875000e+000;3.6739743652e+003;3.6220512695e+003;3.6178205566e+003;3.6347436523e+003;3.6228205566e+003;3.6423076172e+003;3.6458974609e+003;3.6323076172e+003;3.6443588867e+003;3.6358974609e+003;3.6343588867e+003;3.6538461914e+003;3.6114101563e+003;3.5674357910e+003;
2.1875000000e+000;3.6996154785e+003;3.6484614258e+003;3.6419230957e+003;3.6584614258e+003;3.6433332520e+003;3.6637180176e+003;3.6643588867e+003;3.6530769043e+003;3.6646154785e+003;3.6603845215e+003;3.6588461914e+003;3.6782050781e+003;3.6362819824e+003;3.5929487305e+003;
2.1953125000e+000;3.7069230957e+003;3.6566667480e+003;3.6494870605e+003;3.6674357910e+003;3.6458974609e+003;3.6673076172e+003;3.6658974609e+003;3.6575642090e+003;3.6678205566e+003;3.6706411133e+003;3.6653845215e+003;3.6857692871e+003;3.6444870605e+003;3.6003845215e+003;
2.2031250000e+000;3.7015385742e+003;3.6276923828e+003;3.6279487305e+003;3.6473076172e+003;3.6205129395e+003;3.6225642090e+003;3.6298718262e+003;3.6301281738e+003;3.6378205566e+003;3.6482050781e+003;3.6478205566e+003;3.6697436523e+003;3.6256411133e+003;3.5870512695e+003;
2.2109375000e+000;3.6921794434e+003;3.6166667480e+003;3.6189743652e+003;3.6374357910e+003;3.6058974609e+003;3.6125642090e+003;3.6208974609e+003;3.6216667480e+003;3.6262819824e+003;3.6358974609e+003;3.6376923828e+003;3.6596154785e+003;3.6152563477e+003;3.5771794434e+003;
2.2187500000e+000;3.6651281738e+003;3.5921794434e+003;3.5930769043e+003;3.6124357910e+003;3.5746154785e+003;3.5901281738e+003;3.6088461914e+003;3.6103845215e+003;3.6108974609e+003;3.6193588867e+003;3.6128205566e+003;3.6350000000e+003;3.5951281738e+003;3.5517949219e+003;
2.2265625000e+000;3.6441025391e+003;3.5684614258e+003;3.5717949219e+003;3.5923076172e+003;3.5550000000e+003;3.5698718262e+003;3.5898718262e+003;3.5920512695e+003;3.5942307129e+003;3.5984614258e+003;3.5932050781e+003;3.6160256348e+003;3.5732050781e+003;3.5321794434e+003;
2.2343750000e+000;3.6260256348e+003;3.5421794434e+003;3.5491025391e+003;3.5730769043e+003;3.5379487305e+003;3.5539743652e+003;3.5721794434e+003;3.5703845215e+003;3.5757692871e+003;3.5689743652e+003;3.5719230957e+003;3.5942307129e+003;3.5433332520e+003;3.5102563477e+003;
2.2421875000e+000;3.6679487305e+003;3.5820512695e+003;3.5830769043e+003;3.6071794434e+003;3.5802563477e+003;3.6064101563e+003;3.6256411133e+003;3.6252563477e+003;3.6221794434e+003;3.6166667480e+003;3.6033332520e+003;3.6319230957e+003;3.5810256348e+003;3.5425642090e+003;
2.2500000000e+000;3.6742307129e+003;3.5866667480e+003;3.5878205566e+003;3.6115385742e+003;3.5894870605e+003;3.6108974609e+003;3.6303845215e+003;3.6283332520e+003;3.6255129395e+003;3.6200000000e+003;3.6071794434e+003;3.6343588867e+003;3.5878205566e+003;3.5460256348e+003;
2.2578125000e+000;3.7235898438e+003;3.6360256348e+003;3.6356411133e+003;3.6576923828e+003;3.6429487305e+003;3.6561538086e+003;3.6708974609e+003;3.6620512695e+003;3.6662819824e+003;3.6597436523e+003;3.6488461914e+003;3.6721794434e+003;3.6303845215e+003;3.5873076172e+003;
2.2656250000e+000;3.7425642090e+003;3.6571794434e+003;3.6564101563e+003;3.6760256348e+003;3.6614101563e+003;3.6758974609e+003;3.6866667480e+003;3.6761538086e+003;3.6828205566e+003;3.6769230957e+003;3.6650000000e+003;3.6903845215e+003;3.6437180176e+003;3.6055129395e+003;
2.2734375000e+000;3.7189743652e+003;3.6406411133e+003;3.6366667480e+003;3.6561538086e+003;3.6397436523e+003;3.6539743652e+003;3.6558974609e+003;3.6438461914e+003;3.6508974609e+003;3.6578205566e+003;3.6443588867e+003;3.6747436523e+003;3.6205129395e+003;3.5888461914e+003;
2.2812500000e+000;3.7015385742e+003;3.6235898438e+003;3.6183332520e+003;3.6415385742e+003;3.6248718262e+003;3.6346154785e+003;3.6347436523e+003;3.6187180176e+003;3.6297436523e+003;3.6406411133e+003;3.6260256348e+003;3.6548718262e+003;3.6058974609e+003;3.5705129395e+003;
2.2890625000e+000;3.6862819824e+003;3.6066667480e+003;3.6021794434e+003;3.6283332520e+003;3.6091025391e+003;3.6173076172e+003;3.6158974609e+003;3.5937180176e+003;3.6097436523e+003;3.6221794434e+003;3.6060256348e+003;3.6341025391e+003;3.5887180176e+003;3.5516667480e+003;
2.2968750000e+000;3.6815385742e+003;3.5994870605e+003;3.5967949219e+003;3.6237180176e+003;3.6005129395e+003;3.6110256348e+003;3.6080769043e+003;3.5800000000e+003;3.5993588867e+003;3.6114101563e+003;3.5952563477e+003;3.6230769043e+003;3.5775642090e+003;3.5421794434e+003;
2.3046875000e+000;3.7747436523e+003;3.6962819824e+003;3.6920512695e+003;3.7135898438e+003;3.6898718262e+003;3.6944870605e+003;3.6919230957e+003;3.6707692871e+003;3.6801281738e+003;3.7079487305e+003;3.6979487305e+003;3.7225642090e+003;3.6751281738e+003;3.6423076172e+003;
2.3125000000e+000;3.7883332520e+003;3.7114101563e+003;3.7062819824e+003;3.7269230957e+003;3.7038461914e+003;3.7033332520e+003;3.7048718262e+003;3.6842307129e+003;3.6933332520e+003;3.7253845215e+003;3.7161538086e+003;3.7380769043e+003;3.6970512695e+003;3.6591025391e+003;
2.3203125000e+000;3.8587180176e+003;3.7871794434e+003;3.7771794434e+003;3.7950000000e+003;3.7687180176e+003;3.7650000000e+003;3.7835898438e+003;3.7733332520e+003;3.7783332520e+003;3.8101281738e+003;3.7928205566e+003;3.8088461914e+003;3.7743588867e+003;3.7350000000e+003;
2.3281250000e+000;3.8819230957e+003;3.8144870605e+003;3.8069230957e+003;3.8260256348e+003;3.8000000000e+003;3.8014101563e+003;3.8233332520e+003;3.8279487305e+003;3.8237180176e+003;3.8494870605e+003;3.8247436523e+003;3.8467949219e+003;3.8056411133e+003;3.7646154785e+003;
2.3359375000e+000;3.8985898438e+003;3.8343588867e+003;3.8241025391e+003;3.8428205566e+003;3.8230769043e+003;3.8221794434e+003;3.8428205566e+003;3.8476923828e+003;3.8456411133e+003;3.8687180176e+003;3.8425642090e+003;3.8624357910e+003;3.8285898438e+003;3.7824357910e+003;
2.3437500000e+000;3.8858974609e+003;3.8296154785e+003;3.8189743652e+003;3.8342307129e+003;3.8178205566e+003;3.8217949219e+003;3.8391025391e+003;3.8438461914e+003;3.8484614258e+003;3.8589743652e+003;3.8394870605e+003;3.8603845215e+003;3.8169230957e+003;3.7817949219e+003;
2.3515625000e+000;3.8387180176e+003;3.7878205566e+003;3.7728205566e+003;3.7998718262e+003;3.7766667480e+003;3.7819230957e+003;3.7983332520e+003;3.7933332520e+003;3.8038461914e+003;3.8066667480e+003;3.7926923828e+003;3.8121794434e+003;3.7702563477e+003;3.7283332520e+003;
2.3593750000e+000;3.8452563477e+003;3.7957692871e+003;3.7778205566e+003;3.8057692871e+003;3.7873076172e+003;3.7907692871e+003;3.8043588867e+003;3.7956411133e+003;3.8075642090e+003;3.8146154785e+003;3.7962819824e+003;3.8141025391e+003;3.7815385742e+003;3.7338461914e+003;
2.3671875000e+000;3.8665385742e+003;3.8152563477e+003;3.8026923828e+003;3.8224357910e+003;3.8085898438e+003;3.8111538086e+003;3.8143588867e+003;3.8008974609e+003;3.8143588867e+003;3.8339743652e+003;3.8097436523e+003;3.8343588867e+003;3.8017949219e+003;3.7643588867e+003;
2.3750000000e+000;3.8762819824e+003;3.8257692871e+003;3.8142307129e+003;3.8347436523e+003;3.8160256348e+003;3.8179487305e+003;3.8203845215e+003;3.8066667480e+003;3.8219230957e+003;3.8426923828e+003;3.8200000000e+003;3.8452563477e+003;3.8078205566e+003;3.7737180176e+003;
2.3828125000e+000;3.8714101563e+003;3.8238461914e+003;3.8126923828e+003;3.8383332520e+003;3.8098718262e+003;3.8105129395e+003;3.8165385742e+003;3.7962819824e+003;3.8128205566e+003;3.8365385742e+003;3.8171794434e+003;3.8432050781e+003;3.8023076172e+003;3.7652563477e+003;
2.3906250000e+000;3.8687180176e+003;3.8215385742e+003;3.8114101563e+003;3.8375642090e+003;3.8078205566e+003;3.8062819824e+003;3.8150000000e+003;3.7905129395e+003;3.8050000000e+003;3.8326923828e+003;3.8150000000e+003;3.8402563477e+003;3.8024357910e+003;3.7623076172e+003;
2.3984375000e+000;3.9066667480e+003;3.8583332520e+003;3.8507692871e+003;3.8700000000e+003;3.8411538086e+003;3.8314101563e+003;3.8419230957e+003;3.8258974609e+003;3.8339743652e+003;3.8705129395e+003;3.8594870605e+003;3.8771794434e+003;3.8456411133e+003;3.8057692871e+003;
2.4062500000e+000;3.9073076172e+003;3.8598718262e+003;3.8519230957e+003;3.8705129395e+003;3.8378205566e+003;3.8291025391e+003;3.8400000000e+003;3.8291025391e+003;3.8366667480e+003;3.8720512695e+003;3.8624357910e+003;3.8810256348e+003;3.8469230957e+003;3.8092307129e+003;
2.4140625000e+000;3.9050000000e+003;3.8597436523e+003;3.8505129395e+003;3.8700000000e+003;3.8335898438e+003;3.8262819824e+003;3.8388461914e+003;3.8301281738e+003;3.8376923828e+003;3.8723076172e+003;3.8621794434e+003;3.8832050781e+003;3.8469230957e+003;3.8102563477e+003;
2.4218750000e+000;3.9083332520e+003;3.8660256348e+003;3.8548718262e+003;3.8758974609e+003;3.8384614258e+003;3.8310256348e+003;3.8464101563e+003;3.8385898438e+003;3.8456411133e+003;3.8811538086e+003;3.8687180176e+003;3.8916667480e+003;3.8546154785e+003;3.8171794434e+003;
2.4296875000e+000;3.8871794434e+003;3.8433332520e+003;3.8324357910e+003;3.8542307129e+003;3.8264101563e+003;3.8184614258e+003;3.8392307129e+003;3.8438461914e+003;3.8484614258e+003;3.8716667480e+003;3.8560256348e+003;3.8767949219e+003;3.8347436523e+003;3.8002563477e+003;
2.4375000000e+000;3.8870512695e+003;3.8428205566e+003;3.8296154785e+003;3.8532050781e+003;3.8251281738e+003;3.8200000000e+003;3.8394870605e+003;3.8458974609e+003;3.8507692871e+003;3.8680769043e+003;3.8520512695e+003;3.8708974609e+003;3.8296154785e+003;3.7957692871e+003;
2.4453125000e+000;3.8744870605e+003;3.8407692871e+003;3.8230769043e+003;3.8501281738e+003;3.8164101563e+003;3.8221794434e+003;3.8412819824e+003;3.8487180176e+003;3.8515385742e+003;3.8644870605e+003;3.8437180176e+003;3.8610256348e+003;3.8237180176e+003;3.7853845215e+003;
2.4531250000e+000;3.8473076172e+003;3.8082050781e+003;3.7882050781e+003;3.8169230957e+003;3.7853845215e+003;3.7903845215e+003;3.8042307129e+003;3.8061538086e+003;3.8158974609e+003;3.8258974609e+003;3.8101281738e+003;3.8297436523e+003;3.7957692871e+003;3.7593588867e+003;
2.4609375000e+000;3.8448718262e+003;3.8052563477e+003;3.7841025391e+003;3.8138461914e+003;3.7823076172e+003;3.7889743652e+003;3.7998718262e+003;3.8012819824e+003;3.8112819824e+003;3.8220512695e+003;3.8043588867e+003;3.8266667480e+003;3.7935898438e+003;3.7571794434e+003;
2.4687500000e+000;3.7997436523e+003;3.7585898438e+003;3.7408974609e+003;3.7746154785e+003;3.7371794434e+003;3.7582050781e+003;3.7641025391e+003;3.7569230957e+003;3.7652563477e+003;3.7778205566e+003;3.7530769043e+003;3.7819230957e+003;3.7456411133e+003;3.7102563477e+003;
2.4765625000e+000;3.7965385742e+003;3.7523076172e+003;3.7351281738e+003;3.7702563477e+003;3.7346154785e+003;3.7535898438e+003;3.7587180176e+003;3.7469230957e+003;3.7597436523e+003;3.7724357910e+003;3.7470512695e+003;3.7733332520e+003;3.7383332520e+003;3.7017949219e+003;
2.4843750000e+000;3.7685898438e+003;3.7207692871e+003;3.7058974609e+003;3.7401281738e+003;3.7089743652e+003;3.7197436523e+003;3.7228205566e+003;3.7016667480e+003;3.7246154785e+003;3.7388461914e+003;3.7161538086e+003;3.7385898438e+003;3.7056411133e+003;3.6693588867e+003;
2.4921875000e+000;3.7465385742e+003;3.6989743652e+003;3.6847436523e+003;3.7176923828e+003;3.6862819824e+003;3.6955129395e+003;3.6984614258e+003;3.6728205566e+003;3.6958974609e+003;3.7121794434e+003;3.6934614258e+003;3.7169230957e+003;3.6821794434e+003;3.6488461914e+003;
2.5000000000e+000;3.7950000000e+003;3.7503845215e+003;3.7274357910e+003;3.7651281738e+003;3.7258974609e+003;3.7296154785e+003;3.7358974609e+003;3.7143588867e+003;3.7233332520e+003;3.7498718262e+003;3.7412819824e+003;3.7637180176e+003;3.7252563477e+003;3.6960256348e+003;
2.5078125000e+000;3.8241025391e+003;3.7732050781e+003;3.7569230957e+003;3.7896154785e+003;3.7487180176e+003;3.7426923828e+003;3.7575642090e+003;3.7442307129e+003;3.7524357910e+003;3.7797436523e+003;3.7656411133e+003;3.7867949219e+003;3.7579487305e+003;3.7197436523e+003;
2.5156250000e+000;3.8155129395e+003;3.7639743652e+003;3.7491025391e+003;3.7779487305e+003;3.7378205566e+003;3.7308974609e+003;3.7496154785e+003;3.7401281738e+003;3.7467949219e+003;3.7753845215e+003;3.7571794434e+003;3.7779487305e+003;3.7521794434e+003;3.7116667480e+003;
2.5234375000e+000;3.8057692871e+003;3.7558974609e+003;3.7396154785e+003;3.7670512695e+003;3.7261538086e+003;3.7210256348e+003;3.7416667480e+003;3.7373076172e+003;3.7412819824e+003;3.7716667480e+003;3.7497436523e+003;3.7706411133e+003;3.7443588867e+003;3.7039743652e+003;
2.5312500000e+000;3.7912819824e+003;3.7461538086e+003;3.7242307129e+003;3.7570512695e+003;3.7098718262e+003;3.7126923828e+003;3.7333332520e+003;3.7365385742e+003;3.7388461914e+003;3.7653845215e+003;3.7433332520e+003;3.7664101563e+003;3.7305129395e+003;3.6952563477e+003;
2.5390625000e+000;3.7916667480e+003;3.7471794434e+003;3.7242307129e+003;3.7597436523e+003;3.7120512695e+003;3.7166667480e+003;3.7371794434e+003;3.7416667480e+003;3.7465385742e+003;3.7673076172e+003;3.7480769043e+003;3.7710256348e+003;3.7317949219e+003;3.6979487305e+003;
2.5468750000e+000;3.7907692871e+003;3.7461538086e+003;3.7242307129e+003;3.7593588867e+003;3.7148718262e+003;3.7193588867e+003;3.7398718262e+003;3.7455129395e+003;3.7535898438e+003;3.7685898438e+003;3.7510256348e+003;3.7726923828e+003;3.7332050781e+003;3.6989743652e+003;
2.5546875000e+000;3.7182050781e+003;3.6682050781e+003;3.6594870605e+003;3.6925642090e+003;3.6583332520e+003;3.6756411133e+003;3.6903845215e+003;3.6965385742e+003;3.7019230957e+003;3.7043588867e+003;3.6761538086e+003;3.6987180176e+003;3.6570512695e+003;3.6253845215e+003;
2.5625000000e+000;3.7241025391e+003;3.6757692871e+003;3.6664101563e+003;3.7020512695e+003;3.6680769043e+003;3.6873076172e+003;3.7001281738e+003;3.7047436523e+003;3.7146154785e+003;3.7147436523e+003;3.6858974609e+003;3.7056411133e+003;3.6666667480e+003;3.6314101563e+003;
2.5703125000e+000;3.7297436523e+003;3.6798718262e+003;3.6635898438e+003;3.7021794434e+003;3.6716667480e+003;3.6889743652e+003;3.6951281738e+003;3.6891025391e+003;3.7088461914e+003;3.7110256348e+003;3.6866667480e+003;3.6991025391e+003;3.6723076172e+003;3.6274357910e+003;
2.5781250000e+000;3.7656411133e+003;3.7229487305e+003;3.6992307129e+003;3.7410256348e+003;3.7029487305e+003;3.7153845215e+003;3.7233332520e+003;3.7135898438e+003;3.7329487305e+003;3.7526923828e+003;3.7215385742e+003;3.7388461914e+003;3.7128205566e+003;3.6717949219e+003;
2.5859375000e+000;3.7453845215e+003;3.7005129395e+003;3.6803845215e+003;3.7212819824e+003;3.6808974609e+003;3.6934614258e+003;3.7016667480e+003;3.6906411133e+003;3.7088461914e+003;3.7320512695e+003;3.7002563477e+003;3.7219230957e+003;3.6923076172e+003;3.6535898438e+003;
2.5937500000e+000;3.7362819824e+003;3.6801281738e+003;3.6646154785e+003;3.7051281738e+003;3.6689743652e+003;3.6719230957e+003;3.6785898438e+003;3.6578205566e+003;3.6771794434e+003;3.6991025391e+003;3.6787180176e+003;3.6957692871e+003;3.6679487305e+003;3.6317949219e+003;
2.6015625000e+000;3.7480769043e+003;3.6923076172e+003;3.6761538086e+003;3.7174357910e+003;3.6794870605e+003;3.6794870605e+003;3.6894870605e+003;3.6685898438e+003;3.6853845215e+003;3.7078205566e+003;3.6878205566e+003;3.7067949219e+003;3.6756411133e+003;3.6416667480e+003;
2.6093750000e+000;3.7664101563e+003;3.7170512695e+003;3.7000000000e+003;3.7402563477e+003;3.6939743652e+003;3.6901281738e+003;3.7119230957e+003;3.6978205566e+003;3.7038461914e+003;3.7294870605e+003;3.7088461914e+003;3.7383332520e+003;3.6941025391e+003;3.6628205566e+003;
2.6171875000e+000;3.7876923828e+003;3.7420512695e+003;3.7238461914e+003;3.7614101563e+003;3.7139743652e+003;3.7066667480e+003;3.7332050781e+003;3.7250000000e+003;3.7269230957e+003;3.7534614258e+003;3.7351281738e+003;3.7647436523e+003;3.7185898438e+003;3.6866667480e+003;
2.6250000000e+000;3.8220512695e+003;3.7733332520e+003;3.7625642090e+003;3.7897436523e+003;3.7475642090e+003;3.7356411133e+003;3.7629487305e+003;3.7667949219e+003;3.7692307129e+003;3.7856411133e+003;3.7734614258e+003;3.7948718262e+003;3.7592307129e+003;3.7273076172e+003;
2.6328125000e+000;3.8175642090e+003;3.7671794434e+003;3.7588461914e+003;3.7844870605e+003;3.7447436523e+003;3.7362819824e+003;3.7617949219e+003;3.7635898438e+003;3.7684614258e+003;3.7816667480e+003;3.7660256348e+003;3.7889743652e+003;3.7562819824e+003;3.7235898438e+003;
2.6406250000e+000;3.8473076172e+003;3.8062819824e+003;3.7884614258e+003;3.8142307129e+003;3.7825642090e+003;3.7788461914e+003;3.8019230957e+003;3.8034614258e+003;3.8085898438e+003;3.8264101563e+003;3.7982050781e+003;3.8221794434e+003;3.7937180176e+003;3.7543588867e+003;
2.6484375000e+000;3.8684614258e+003;3.8339743652e+003;3.8101281738e+003;3.8365385742e+003;3.8082050781e+003;3.8043588867e+003;3.8267949219e+003;3.8314101563e+003;3.8350000000e+003;3.8562819824e+003;3.8248718262e+003;3.8476923828e+003;3.8184614258e+003;3.7775642090e+003;
2.6562500000e+000;3.8771794434e+003;3.8439743652e+003;3.8192307129e+003;3.8482050781e+003;3.8239743652e+003;3.8180769043e+003;3.8378205566e+003;3.8444870605e+003;3.8532050781e+003;3.8698718262e+003;3.8447436523e+003;3.8612819824e+003;3.8311538086e+003;3.7965385742e+003;
2.6640625000e+000;3.8696154785e+003;3.8376923828e+003;3.8112819824e+003;3.8407692871e+003;3.8188461914e+003;3.8147436523e+003;3.8317949219e+003;3.8378205566e+003;3.8493588867e+003;3.8665385742e+003;3.8392307129e+003;3.8557692871e+003;3.8257692871e+003;3.7924357910e+003;
2.6718750000e+000;3.8539743652e+003;3.8248718262e+003;3.7957692871e+003;3.8256411133e+003;3.8050000000e+003;3.8051281738e+003;3.8184614258e+003;3.8238461914e+003;3.8362819824e+003;3.8570512695e+003;3.8252563477e+003;3.8447436523e+003;3.8117949219e+003;3.7792307129e+003;
2.6796875000e+000;3.8348718262e+003;3.8078205566e+003;3.7771794434e+003;3.8066667480e+003;3.7856411133e+003;3.7908974609e+003;3.8005129395e+003;3.8042307129e+003;3.8164101563e+003;3.8415385742e+003;3.8060256348e+003;3.8300000000e+003;3.7928205566e+003;3.7601281738e+003;
2.6875000000e+000;3.8835898438e+003;3.8500000000e+003;3.8265385742e+003;3.8552563477e+003;3.8330769043e+003;3.8314101563e+003;3.8419230957e+003;3.8338461914e+003;3.8528205566e+003;3.8796154785e+003;3.8501281738e+003;3.8651281738e+003;3.8429487305e+003;3.7983332520e+003;
2.6953125000e+000;3.9569230957e+003;3.9389743652e+003;3.9065385742e+003;3.9344870605e+003;3.9178205566e+003;3.9057692871e+003;3.9189743652e+003;3.9038461914e+003;3.9211538086e+003;3.9538461914e+003;3.9262819824e+003;3.9429487305e+003;3.9164101563e+003;3.8761538086e+003;
2.7031250000e+000;3.9885898438e+003;3.9744870605e+003;3.9382050781e+003;3.9662819824e+003;3.9503845215e+003;3.9352563477e+003;3.9488461914e+003;3.9338461914e+003;3.9491025391e+003;3.9867949219e+003;3.9546154785e+003;3.9750000000e+003;3.9502563477e+003;3.9088461914e+003;
2.7109375000e+000;4.0212819824e+003;4.0101281738e+003;3.9735898438e+003;3.9996154785e+003;3.9838461914e+003;3.9610256348e+003;3.9810256348e+003;3.9670512695e+003;3.9770512695e+003;4.0182050781e+003;3.9839743652e+003;4.0088461914e+003;3.9841025391e+003;3.9464101563e+003;
2.7187500000e+000;4.0507692871e+003;4.0412819824e+003;4.0184614258e+003;4.0280769043e+003;4.0133332520e+003;3.9864101563e+003;4.0130769043e+003;4.0301281738e+003;4.0176923828e+003;4.0615385742e+003;4.0365385742e+003;4.0610256348e+003;4.0175642090e+003;3.9912819824e+003;
2.7265625000e+000;4.0371794434e+003;4.0253845215e+003;4.0065385742e+003;4.0158974609e+003;3.9985898438e+003;3.9735898438e+003;4.0030769043e+003;4.0203845215e+003;4.0079487305e+003;4.0523076172e+003;4.0251281738e+003;4.0516667480e+003;4.0071794434e+003;3.9803845215e+003;
2.7343750000e+000;4.0165385742e+003;4.0061538086e+003;3.9870512695e+003;3.9973076172e+003;3.9846154785e+003;3.9579487305e+003;3.9952563477e+003;4.0030769043e+003;4.0050000000e+003;4.0396154785e+003;4.0089743652e+003;4.0308974609e+003;3.9939743652e+003;3.9600000000e+003;
2.7421875000e+000;4.0069230957e+003;3.9989743652e+003;3.9793588867e+003;3.9885898438e+003;3.9800000000e+003;3.9551281738e+003;3.9919230957e+003;3.9979487305e+003;4.0079487305e+003;4.0347436523e+003;4.0050000000e+003;4.0221794434e+003;3.9885898438e+003;3.9510256348e+003;
2.7500000000e+000;3.9855129395e+003;3.9779487305e+003;3.9584614258e+003;3.9676923828e+003;3.9635898438e+003;3.9524357910e+003;3.9725642090e+003;3.9828205566e+003;3.9941025391e+003;4.0175642090e+003;3.9887180176e+003;4.0056411133e+003;3.9725642090e+003;3.9321794434e+003;
2.7578125000e+000;3.9919230957e+003;3.9847436523e+003;3.9608974609e+003;3.9729487305e+003;3.9710256348e+003;3.9603845215e+003;3.9779487305e+003;3.9867949219e+003;3.9948718262e+003;4.0226923828e+003;3.9911538086e+003;4.0096154785e+003;3.9776923828e+003;3.9366667480e+003;
2.7656250000e+000;3.9815385742e+003;3.9744870605e+003;3.9467949219e+003;3.9611538086e+003;3.9656411133e+003;3.9539743652e+003;3.9732050781e+003;3.9741025391e+003;3.9828205566e+003;4.0082050781e+003;3.9778205566e+003;3.9928205566e+003;3.9638461914e+003;3.9216667480e+003;
2.7734375000e+000;3.9664101563e+003;3.9583332520e+003;3.9326923828e+003;3.9456411133e+003;3.9533332520e+003;3.9416667480e+003;3.9620512695e+003;3.9597436523e+003;3.9723076172e+003;3.9908974609e+003;3.9642307129e+003;3.9762819824e+003;3.9484614258e+003;3.9048718262e+003;
2.7812500000e+000;3.9050000000e+003;3.8998718262e+003;3.8729487305e+003;3.8866667480e+003;3.8944870605e+003;3.8878205566e+003;3.9025642090e+003;3.9020512695e+003;3.9223076172e+003;3.9343588867e+003;3.9035898438e+003;3.9234614258e+003;3.8891025391e+003;3.8434614258e+003;
2.7890625000e+000;3.8576923828e+003;3.8535898438e+003;3.8267949219e+003;3.8423076172e+003;3.8453845215e+003;3.8452563477e+003;3.8551281738e+003;3.8521794434e+003;3.8733332520e+003;3.8864101563e+003;3.8539743652e+003;3.8785898438e+003;3.8396154785e+003;3.7964101563e+003;
2.7968750000e+000;3.8192307129e+003;3.8137180176e+003;3.7885898438e+003;3.8057692871e+003;3.8047436523e+003;3.8097436523e+003;3.8160256348e+003;3.8061538086e+003;3.8296154785e+003;3.8424357910e+003;3.8135898438e+003;3.8374357910e+003;3.7974357910e+003;3.7561538086e+003;
2.8046875000e+000;3.8144870605e+003;3.8060256348e+003;3.7819230957e+003;3.8008974609e+003;3.7983332520e+003;3.8035898438e+003;3.8085898438e+003;3.7911538086e+003;3.8183332520e+003;3.8298718262e+003;3.8079487305e+003;3.8253845215e+003;3.7894870605e+003;3.7474357910e+003;
2.8125000000e+000;3.8188461914e+003;3.8047436523e+003;3.7707692871e+003;3.8035898438e+003;3.7882050781e+003;3.7839743652e+003;3.7958974609e+003;3.7876923828e+003;3.8043588867e+003;3.8170512695e+003;3.7950000000e+003;3.8160256348e+003;3.7838461914e+003;3.7398718262e+003;
2.8203125000e+000;3.7285898438e+003;3.6971794434e+003;3.6748718262e+003;3.7042307129e+003;3.6753845215e+003;3.6674357910e+003;3.6911538086e+003;3.6844870605e+003;3.6851281738e+003;3.7026923828e+003;3.7005129395e+003;3.7138461914e+003;3.6835898438e+003;3.6400000000e+003;
2.8281250000e+000;3.7437180176e+003;3.7085898438e+003;3.6885898438e+003;3.7157692871e+003;3.6861538086e+003;3.6753845215e+003;3.7012819824e+003;3.6979487305e+003;3.6958974609e+003;3.7142307129e+003;3.7128205566e+003;3.7271794434e+003;3.7001281738e+003;3.6532050781e+003;
2.8359375000e+000;3.7787180176e+003;3.7448718262e+003;3.7200000000e+003;3.7497436523e+003;3.7144870605e+003;3.7046154785e+003;3.7297436523e+003;3.7341025391e+003;3.7287180176e+003;3.7467949219e+003;3.7371794434e+003;3.7625642090e+003;3.7353845215e+003;3.6878205566e+003;
2.8437500000e+000;3.7034614258e+003;3.6614101563e+003;3.6479487305e+003;3.6764101563e+003;3.6451281738e+003;3.6432050781e+003;3.6651281738e+003;3.6673076172e+003;3.6778205566e+003;3.6828205566e+003;3.6762819824e+003;3.6906411133e+003;3.6551281738e+003;3.6235898438e+003;
2.8515625000e+000;3.6689743652e+003;3.6244870605e+003;3.6124357910e+003;3.6429487305e+003;3.6093588867e+003;3.6126923828e+003;3.6329487305e+003;3.6328205566e+003;3.6493588867e+003;3.6471794434e+003;3.6385898438e+003;3.6526923828e+003;3.6220512695e+003;3.5905129395e+003;
2.8593750000e+000;3.6257692871e+003;3.5805129395e+003;3.5652563477e+003;3.6042307129e+003;3.5637180176e+003;3.5801281738e+003;3.5914101563e+003;3.5894870605e+003;3.6129487305e+003;3.6033332520e+003;3.5842307129e+003;3.6076923828e+003;3.5823076172e+003;3.5474357910e+003;
2.8671875000e+000;3.6133332520e+003;3.5680769043e+003;3.5510256348e+003;3.5938461914e+003;3.5538461914e+003;3.5733332520e+003;3.5798718262e+003;3.5755129395e+003;3.5992307129e+003;3.5914101563e+003;3.5721794434e+003;3.5971794434e+003;3.5683332520e+003;3.5337180176e+003;
2.8750000000e+000;3.6001281738e+003;3.5525642090e+003;3.5337180176e+003;3.5787180176e+003;3.5493588867e+003;3.5610256348e+003;3.5628205566e+003;3.5461538086e+003;3.5785898438e+003;3.5729487305e+003;3.5673076172e+003;3.5784614258e+003;3.5426923828e+003;3.5107692871e+003;
2.8828125000e+000;3.5850000000e+003;3.5334614258e+003;3.5166667480e+003;3.5625642090e+003;3.5289743652e+003;3.5438461914e+003;3.5437180176e+003;3.5233332520e+003;3.5615385742e+003;3.5519230957e+003;3.5444870605e+003;3.5580769043e+003;3.5247436523e+003;3.4932050781e+003;
2.8906250000e+000;3.5635898438e+003;3.5047436523e+003;3.4910256348e+003;3.5412819824e+003;3.4982050781e+003;3.5221794434e+003;3.5174357910e+003;3.4921794434e+003;3.5352563477e+003;3.5216667480e+003;3.5052563477e+003;3.5292307129e+003;3.5021794434e+003;3.4717949219e+003;
2.8984375000e+000;3.5770512695e+003;3.5182050781e+003;3.5023076172e+003;3.5555129395e+003;3.5135898438e+003;3.5366667480e+003;3.5314101563e+003;3.5069230957e+003;3.5482050781e+003;3.5379487305e+003;3.5192307129e+003;3.5426923828e+003;3.5176923828e+003;3.4865385742e+003;
2.9062500000e+000;3.5961538086e+003;3.5382050781e+003;3.5211538086e+003;3.5761538086e+003;3.5360256348e+003;3.5492307129e+003;3.5507692871e+003;3.5298718262e+003;3.5614101563e+003;3.5639743652e+003;3.5556411133e+003;3.5748718262e+003;3.5364101563e+003;3.5071794434e+003;
2.9140625000e+000;3.5885898438e+003;3.5266667480e+003;3.5138461914e+003;3.5662819824e+003;3.5216667480e+003;3.5329487305e+003;3.5376923828e+003;3.5155129395e+003;3.5439743652e+003;3.5470512695e+003;3.5435898438e+003;3.5667949219e+003;3.5234614258e+003;3.4966667480e+003;
2.9218750000e+000;3.5946154785e+003;3.5279487305e+003;3.5184614258e+003;3.5684614258e+003;3.5198718262e+003;3.5293588867e+003;3.5365385742e+003;3.5152563477e+003;3.5392307129e+003;3.5435898438e+003;3.5416667480e+003;3.5687180176e+003;3.5251281738e+003;3.4988461914e+003;
2.9296875000e+000;3.6116667480e+003;3.5419230957e+003;3.5338461914e+003;3.5821794434e+003;3.5307692871e+003;3.5396154785e+003;3.5482050781e+003;3.5312819824e+003;3.5492307129e+003;3.5570512695e+003;3.5529487305e+003;3.5830769043e+003;3.5415385742e+003;3.5142307129e+003;
2.9375000000e+000;3.6514101563e+003;3.5814101563e+003;3.5712819824e+003;3.6156411133e+003;3.5606411133e+003;3.5591025391e+003;3.5814101563e+003;3.5823076172e+003;3.5838461914e+003;3.6016667480e+003;3.5992307129e+003;3.6317949219e+003;3.5864101563e+003;3.5612819824e+003;
2.9453125000e+000;3.6989743652e+003;3.6196154785e+003;3.6130769043e+003;3.6561538086e+003;3.5946154785e+003;3.5975642090e+003;3.6235898438e+003;3.6193588867e+003;3.6319230957e+003;3.6485898438e+003;3.6391025391e+003;3.6707692871e+003;3.6289743652e+003;3.6037180176e+003;
2.9531250000e+000;3.7085898438e+003;3.6335898438e+003;3.6261538086e+003;3.6691025391e+003;3.6098718262e+003;3.6142307129e+003;3.6394870605e+003;3.6346154785e+003;3.6488461914e+003;3.6641025391e+003;3.6519230957e+003;3.6828205566e+003;3.6435898438e+003;3.6170512695e+003;
2.9609375000e+000;3.7296154785e+003;3.6655129395e+003;3.6528205566e+003;3.6950000000e+003;3.6482050781e+003;3.6494870605e+003;3.6707692871e+003;3.6642307129e+003;3.6844870605e+003;3.6974357910e+003;3.6816667480e+003;3.7069230957e+003;3.6692307129e+003;3.6437180176e+003;
2.9687500000e+000;3.7262819824e+003;3.6630769043e+003;3.6508974609e+003;3.6920512695e+003;3.6505129395e+003;3.6514101563e+003;3.6688461914e+003;3.6592307129e+003;3.6838461914e+003;3.6960256348e+003;3.6785898438e+003;3.7037180176e+003;3.6634614258e+003;3.6408974609e+003;
2.9765625000e+000;3.7538461914e+003;3.6910256348e+003;3.6791025391e+003;3.7220512695e+003;3.6866667480e+003;3.6917949219e+003;3.6966667480e+003;3.6767949219e+003;3.7098718262e+003;3.7261538086e+003;3.7032050781e+003;3.7311538086e+003;3.6951281738e+003;3.6692307129e+003;
2.9843750000e+000;3.8030769043e+003;3.7479487305e+003;3.7270512695e+003;3.7703845215e+003;3.7438461914e+003;3.7506411133e+003;3.7547436523e+003;3.7292307129e+003;3.7648718262e+003;3.7839743652e+003;3.7608974609e+003;3.7810256348e+003;3.7515385742e+003;3.7191025391e+003;
2.9921875000e+000;3.8129487305e+003;3.7555129395e+003;3.7347436523e+003;3.7758974609e+003;3.7542307129e+003;3.7593588867e+003;3.7641025391e+003;3.7364101563e+003;3.7714101563e+003;3.7920512695e+003;3.7669230957e+003;3.7860256348e+003;3.7564101563e+003;3.7256411133e+003;
3.0000000000e+000;3.8123076172e+003;3.7555129395e+003;3.7410256348e+003;3.7829487305e+003;3.7556411133e+003;3.7593588867e+003;3.7619230957e+003;3.7420512695e+003;3.7678205566e+003;3.7897436523e+003;3.7582050781e+003;3.7873076172e+003;3.7523076172e+003;3.7233332520e+003;
3.0078125000e+000;3.8029487305e+003;3.7493588867e+003;3.7355129395e+003;3.7793588867e+003;3.7452563477e+003;3.7494870605e+003;3.7537180176e+003;3.7364101563e+003;3.7589743652e+003;3.7791025391e+003;3.7505129395e+003;3.7834614258e+003;3.7450000000e+003;3.7156411133e+003;
3.0156250000e+000;3.8044870605e+003;3.7553845215e+003;3.7380769043e+003;3.7800000000e+003;3.7421794434e+003;3.7425642090e+003;3.7529487305e+003;3.7417949219e+003;3.7617949219e+003;3.7801281738e+003;3.7579487305e+003;3.7906411133e+003;3.7485898438e+003;3.7188461914e+003;
3.0234375000e+000;3.7961538086e+003;3.7462819824e+003;3.7292307129e+003;3.7679487305e+003;3.7308974609e+003;3.7292307129e+003;3.7425642090e+003;3.7351281738e+003;3.7543588867e+003;3.7723076172e+003;3.7512819824e+003;3.7835898438e+003;3.7398718262e+003;3.7114101563e+003;
3.0312500000e+000;3.7376923828e+003;3.6779487305e+003;3.6723076172e+003;3.7078205566e+003;3.6638461914e+003;3.6569230957e+003;3.6773076172e+003;3.6753845215e+003;3.6770512695e+003;3.7025642090e+003;3.6806411133e+003;3.7228205566e+003;3.6748718262e+003;3.6501281738e+003;
3.0390625000e+000;3.7485898438e+003;3.6884614258e+003;3.6832050781e+003;3.7191025391e+003;3.6738461914e+003;3.6623076172e+003;3.6851281738e+003;3.6850000000e+003;3.6797436523e+003;3.7100000000e+003;3.6883332520e+003;3.7305129395e+003;3.6864101563e+003;3.6589743652e+003;
3.0468750000e+000;3.7652563477e+003;3.7057692871e+003;3.7000000000e+003;3.7352563477e+003;3.6896154785e+003;3.6748718262e+003;3.6997436523e+003;3.7012819824e+003;3.6932050781e+003;3.7265385742e+003;3.7053845215e+003;3.7452563477e+003;3.7056411133e+003;3.6748718262e+003;
3.0546875000e+000;3.7729487305e+003;3.7134614258e+003;3.7080769043e+003;3.7416667480e+003;3.6960256348e+003;3.6810256348e+003;3.7069230957e+003;3.7084614258e+003;3.7026923828e+003;3.7362819824e+003;3.7157692871e+003;3.7532050781e+003;3.7155129395e+003;3.6833332520e+003;
3.0625000000e+000;3.7885898438e+003;3.7346154785e+003;3.7265385742e+003;3.7551281738e+003;3.7137180176e+003;3.7094870605e+003;3.7233332520e+003;3.7267949219e+003;3.7378205566e+003;3.7700000000e+003;3.7437180176e+003;3.7765385742e+003;3.7366667480e+003;3.7066667480e+003;
3.0703125000e+000;3.7919230957e+003;3.7417949219e+003;3.7306411133e+003;3.7612819824e+003;3.7200000000e+003;3.7169230957e+003;3.7287180176e+003;3.7319230957e+003;3.7448718262e+003;3.7758974609e+003;3.7482050781e+003;3.7810256348e+003;3.7435898438e+003;3.7120512695e+003;
3.0781250000e+000;3.8338461914e+003;3.7814101563e+003;3.7644870605e+003;3.7980769043e+003;3.7702563477e+003;3.7632050781e+003;3.7733332520e+003;3.7610256348e+003;3.7889743652e+003;3.8141025391e+003;3.7855129395e+003;3.8141025391e+003;3.7829487305e+003;3.7480769043e+003;
3.0859375000e+000;3.8483332520e+003;3.8092307129e+003;3.7884614258e+003;3.8220512695e+003;3.7997436523e+003;3.7984614258e+003;3.8035898438e+003;3.7874357910e+003;3.8121794434e+003;3.8450000000e+003;3.8112819824e+003;3.8317949219e+003;3.8053845215e+003;3.7725642090e+003;
3.0937500000e+000;3.8458974609e+003;3.8128205566e+003;3.7884614258e+003;3.8261538086e+003;3.8001281738e+003;3.8002563477e+003;3.8053845215e+003;3.7841025391e+003;3.8107692871e+003;3.8438461914e+003;3.8101281738e+003;3.8298718262e+003;3.8060256348e+003;3.7712819824e+003;
3.1015625000e+000;3.8767949219e+003;3.8479487305e+003;3.8203845215e+003;3.8628205566e+003;3.8370512695e+003;3.8384614258e+003;3.8396154785e+003;3.8060256348e+003;3.8410256348e+003;3.8750000000e+003;3.8379487305e+003;3.8588461914e+003;3.8305129395e+003;3.7926923828e+003;
3.1093750000e+000;3.8525642090e+003;3.8196154785e+003;3.8015385742e+003;3.8364101563e+003;3.8166667480e+003;3.8194870605e+003;3.8214101563e+003;3.7876923828e+003;3.8157692871e+003;3.8447436523e+003;3.8106411133e+003;3.8350000000e+003;3.8060256348e+003;3.7735898438e+003;
3.1171875000e+000;3.8641025391e+003;3.8325642090e+003;3.8132050781e+003;3.8494870605e+003;3.8282050781e+003;3.8273076172e+003;3.8308974609e+003;3.8000000000e+003;3.8267949219e+003;3.8556411133e+003;3.8252563477e+003;3.8488461914e+003;3.8224357910e+003;3.7874357910e+003;
3.1250000000e+000;3.8762819824e+003;3.8476923828e+003;3.8248718262e+003;3.8610256348e+003;3.8341025391e+003;3.8243588867e+003;3.8357692871e+003;3.8133332520e+003;3.8334614258e+003;3.8661538086e+003;3.8465385742e+003;3.8691025391e+003;3.8347436523e+003;3.8037180176e+003;
3.1328125000e+000;3.8760256348e+003;3.8482050781e+003;3.8239743652e+003;3.8580769043e+003;3.8305129395e+003;3.8178205566e+003;3.8320512695e+003;3.8137180176e+003;3.8317949219e+003;3.8656411133e+003;3.8443588867e+003;3.8673076172e+003;3.8320512695e+003;3.8039743652e+003;
3.1406250000e+000;3.8678205566e+003;3.8383332520e+003;3.8176923828e+003;3.8471794434e+003;3.8141025391e+003;3.7993588867e+003;3.8133332520e+003;3.8043588867e+003;3.8239743652e+003;3.8601281738e+003;3.8291025391e+003;3.8569230957e+003;3.8241025391e+003;3.7946154785e+003;
3.1484375000e+000;3.8591025391e+003;3.8265385742e+003;3.8101281738e+003;3.8371794434e+003;3.8012819824e+003;3.7873076172e+003;3.7993588867e+003;3.7923076172e+003;3.8152563477e+003;3.8515385742e+003;3.8188461914e+003;3.8470512695e+003;3.8171794434e+003;3.7848718262e+003;
3.1562500000e+000;3.8728205566e+003;3.8375642090e+003;3.8176923828e+003;3.8406411133e+003;3.8171794434e+003;3.7962819824e+003;3.8083332520e+003;3.7971794434e+003;3.8371794434e+003;3.8707692871e+003;3.8432050781e+003;3.8515385742e+003;3.8384614258e+003;3.8002563477e+003;
3.1640625000e+000;3.8707692871e+003;3.8387180176e+003;3.8151281738e+003;3.8391025391e+003;3.8193588867e+003;3.7991025391e+003;3.8111538086e+003;3.7971794434e+003;3.8417949219e+003;3.8743588867e+003;3.8446154785e+003;3.8530769043e+003;3.8385898438e+003;3.8016667480e+003;
3.1718750000e+000;3.8619230957e+003;3.8338461914e+003;3.8082050781e+003;3.8347436523e+003;3.8144870605e+003;3.7994870605e+003;3.8102563477e+003;3.7930769043e+003;3.8394870605e+003;3.8706411133e+003;3.8373076172e+003;3.8511538086e+003;3.8317949219e+003;3.7960256348e+003;
3.1796875000e+000;3.8583332520e+003;3.8341025391e+003;3.8074357910e+003;3.8379487305e+003;3.8153845215e+003;3.8070512695e+003;3.8161538086e+003;3.7965385742e+003;3.8423076172e+003;3.8720512695e+003;3.8348718262e+003;3.8534614258e+003;3.8311538086e+003;3.7941025391e+003;
3.1875000000e+000;3.8178205566e+003;3.7965385742e+003;3.7705129395e+003;3.8085898438e+003;3.7911538086e+003;3.7964101563e+003;3.7970512695e+003;3.7796154785e+003;3.8283332520e+003;3.8455129395e+003;3.8030769043e+003;3.8111538086e+003;3.8003845215e+003;3.7605129395e+003;
3.1953125000e+000;3.7914101563e+003;3.7688461914e+003;3.7441025391e+003;3.7823076172e+003;3.7617949219e+003;3.7721794434e+003;3.7680769043e+003;3.7500000000e+003;3.7994870605e+003;3.8144870605e+003;3.7723076172e+003;3.7832050781e+003;3.7706411133e+003;3.7350000000e+003;
3.2031250000e+000;3.8329487305e+003;3.8144870605e+003;3.7867949219e+003;3.8296154785e+003;3.8012819824e+003;3.8106411133e+003;3.8093588867e+003;3.7844870605e+003;3.8261538086e+003;3.8503845215e+003;3.8067949219e+003;3.8229487305e+003;3.8000000000e+003;3.7688461914e+003;
3.2109375000e+000;3.8367949219e+003;3.8206411133e+003;3.7878205566e+003;3.8303845215e+003;3.8033332520e+003;3.8038461914e+003;3.8069230957e+003;3.7793588867e+003;3.8143588867e+003;3.8421794434e+003;3.8053845215e+003;3.8188461914e+003;3.8094870605e+003;3.7673076172e+003;
3.2187500000e+000;3.8310256348e+003;3.8152563477e+003;3.7800000000e+003;3.8237180176e+003;3.7933332520e+003;3.7957692871e+003;3.7952563477e+003;3.7728205566e+003;3.8032050781e+003;3.8328205566e+003;3.7966667480e+003;3.8110256348e+003;3.8062819824e+003;3.7621794434e+003;
3.2265625000e+000;3.7951281738e+003;3.7747436523e+003;3.7461538086e+003;3.7932050781e+003;3.7506411133e+003;3.7539743652e+003;3.7558974609e+003;3.7417949219e+003;3.7553845215e+003;3.7914101563e+003;3.7632050781e+003;3.7826923828e+003;3.7651281738e+003;3.7333332520e+003;
3.2343750000e+000;3.8165385742e+003;3.7905129395e+003;3.7667949219e+003;3.8043588867e+003;3.7589743652e+003;3.7550000000e+003;3.7644870605e+003;3.7484614258e+003;3.7725642090e+003;3.8052563477e+003;3.7869230957e+003;3.8048718262e+003;3.7789743652e+003;3.7547436523e+003;
3.2421875000e+000;3.8198718262e+003;3.7925642090e+003;3.7689743652e+003;3.8034614258e+003;3.7542307129e+003;3.7515385742e+003;3.7596154785e+003;3.7480769043e+003;3.7746154785e+003;3.8088461914e+003;3.7885898438e+003;3.8088461914e+003;3.7816667480e+003;3.7588461914e+003;
3.2500000000e+000;3.8230769043e+003;3.7956411133e+003;3.7710256348e+003;3.8041025391e+003;3.7524357910e+003;3.7480769043e+003;3.7564101563e+003;3.7488461914e+003;3.7756411133e+003;3.8133332520e+003;3.7903845215e+003;3.8121794434e+003;3.7855129395e+003;3.7628205566e+003;
3.2578125000e+000;3.8588461914e+003;3.8353845215e+003;3.8035898438e+003;3.8380769043e+003;3.7902563477e+003;3.7720512695e+003;3.7867949219e+003;3.7823076172e+003;3.8096154785e+003;3.8539743652e+003;3.8296154785e+003;3.8469230957e+003;3.8261538086e+003;3.7970512695e+003;
3.2656250000e+000;3.9100000000e+003;3.8906411133e+003;3.8553845215e+003;3.8924357910e+003;3.8432050781e+003;3.8233332520e+003;3.8388461914e+003;3.8275642090e+003;3.8661538086e+003;3.9078205566e+003;3.8841025391e+003;3.8998718262e+003;3.8826923828e+003;3.8439743652e+003;
3.2734375000e+000;3.9282050781e+003;3.9101281738e+003;3.8750000000e+003;3.9130769043e+003;3.8629487305e+003;3.8452563477e+003;3.8585898438e+003;3.8438461914e+003;3.8862819824e+003;3.9275642090e+003;3.8993588867e+003;3.9189743652e+003;3.9001281738e+003;3.8612819824e+003;
3.2812500000e+000;3.9493588867e+003;3.9343588867e+003;3.8987180176e+003;3.9373076172e+003;3.8896154785e+003;3.8724357910e+003;3.8834614258e+003;3.8670512695e+003;3.9116667480e+003;3.9535898438e+003;3.9196154785e+003;3.9424357910e+003;3.9211538086e+003;3.8833332520e+003;
3.2890625000e+000;3.9642307129e+003;3.9575642090e+003;3.9214101563e+003;3.9579487305e+003;3.9216667480e+003;3.9067949219e+003;3.9158974609e+003;3.8969230957e+003;3.9388461914e+003;3.9807692871e+003;3.9430769043e+003;3.9657692871e+003;3.9398718262e+003;3.9062819824e+003;
3.2968750000e+000;3.9643588867e+003;3.9603845215e+003;3.9237180176e+003;3.9584614258e+003;3.9285898438e+003;3.9169230957e+003;3.9267949219e+003;3.9043588867e+003;3.9430769043e+003;3.9821794434e+003;3.9479487305e+003;3.9674357910e+003;3.9434614258e+003;3.9105129395e+003;
3.3046875000e+000;3.9783332520e+003;3.9760256348e+003;3.9376923828e+003;3.9720512695e+003;3.9471794434e+003;3.9382050781e+003;3.9487180176e+003;3.9226923828e+003;3.9596154785e+003;3.9952563477e+003;3.9638461914e+003;3.9796154785e+003;3.9620512695e+003;3.9267949219e+003;
3.3125000000e+000;4.1193588867e+003;4.1470512695e+003;4.0924357910e+003;4.1424360352e+003;4.1185898438e+003;4.1080771484e+003;4.1100000000e+003;4.0842307129e+003;4.1152563477e+003;4.1582050781e+003;4.1175639648e+003;4.1276923828e+003;4.1165385742e+003;4.0746154785e+003;
3.3203125000e+000;4.1619228516e+003;4.1943588867e+003;4.1370512695e+003;4.1833334961e+003;4.1662822266e+003;4.1512822266e+003;4.1538461914e+003;4.1302563477e+003;4.1566665039e+003;4.2028203125e+003;4.1653847656e+003;4.1729487305e+003;4.1596152344e+003;4.1191025391e+003;
3.3281250000e+000;4.2320512695e+003;4.2705126953e+003;4.2239741211e+003;4.2478203125e+003;4.2411538086e+003;4.2148715820e+003;4.2217949219e+003;4.2067949219e+003;4.2246152344e+003;4.2748715820e+003;4.2408974609e+003;4.2562822266e+003;4.2383334961e+003;4.2051284180e+003;
3.3359375000e+000;4.2769228516e+003;4.3339741211e+003;4.2800000000e+003;4.3028203125e+003;4.2928203125e+003;4.2529487305e+003;4.2666665039e+003;4.2582050781e+003;4.2702563477e+003;4.3374360352e+003;4.3002563477e+003;4.3079487305e+003;4.3005126953e+003;4.2608974609e+003;
3.3437500000e+000;4.2764101563e+003;4.3360258789e+003;4.2829487305e+003;4.3048715820e+003;4.2942309570e+003;4.2514101563e+003;4.2689741211e+003;4.2606411133e+003;4.2734614258e+003;4.3432050781e+003;4.3071796875e+003;4.3142309570e+003;4.3067949219e+003;4.2653847656e+003;
3.3515625000e+000;4.2405126953e+003;4.2991025391e+003;4.2610258789e+003;4.2774360352e+003;4.2633334961e+003;4.2170512695e+003;4.2353847656e+003;4.2288461914e+003;4.2473076172e+003;4.3073076172e+003;4.2798715820e+003;4.2987177734e+003;4.2785898438e+003;4.2426923828e+003;
3.3593750000e+000;4.2419228516e+003;4.3033334961e+003;4.2647436523e+003;4.2829487305e+003;4.2664101563e+003;4.2192309570e+003;4.2350000000e+003;4.2339741211e+003;4.2529487305e+003;4.3120512695e+003;4.2833334961e+003;4.3008974609e+003;4.2810258789e+003;4.2462822266e+003;
3.3671875000e+000;4.2344873047e+003;4.2989741211e+003;4.2593588867e+003;4.2810258789e+003;4.2602563477e+003;4.2151284180e+003;4.2293588867e+003;4.2334614258e+003;4.2555126953e+003;4.3158974609e+003;4.2796152344e+003;4.2917949219e+003;4.2746152344e+003;4.2401284180e+003;
3.3750000000e+000;4.2315385742e+003;4.2951284180e+003;4.2566665039e+003;4.2773076172e+003;4.2598715820e+003;4.2158974609e+003;4.2303847656e+003;4.2319228516e+003;4.2578203125e+003;4.3167949219e+003;4.2776923828e+003;4.2889741211e+003;4.2724360352e+003;4.2369228516e+003;
3.3828125000e+000;4.2402563477e+003;4.3106411133e+003;4.2694873047e+003;4.2871796875e+003;4.2878203125e+003;4.2488461914e+003;4.2573076172e+003;4.2473076172e+003;4.2821796875e+003;4.3291025391e+003;4.2926923828e+003;4.3034614258e+003;4.2908974609e+003;4.2460258789e+003;
3.3906250000e+000;4.2411538086e+003;4.3175639648e+003;4.2726923828e+003;4.2921796875e+003;4.2926923828e+003;4.2578203125e+003;4.2617949219e+003;4.2491025391e+003;4.2843588867e+003;4.3282050781e+003;4.2946152344e+003;4.3039741211e+003;4.2917949219e+003;4.2455126953e+003;
3.3984375000e+000;4.2685898438e+003;4.3564101563e+003;4.3039741211e+003;4.3252563477e+003;4.3266665039e+003;4.2956411133e+003;4.2934614258e+003;4.2783334961e+003;4.3128203125e+003;4.3579487305e+003;4.3234614258e+003;4.3300000000e+003;4.3164101563e+003;4.2689741211e+003;
3.4062500000e+000;4.2800000000e+003;4.3696152344e+003;4.3179487305e+003;4.3378203125e+003;4.3421796875e+003;4.3115385742e+003;4.3080771484e+003;4.2952563477e+003;4.3273076172e+003;4.3744873047e+003;4.3369228516e+003;4.3450000000e+003;4.3294873047e+003;4.2812822266e+003;
3.4140625000e+000;4.2371796875e+003;4.3179487305e+003;4.2794873047e+003;4.2934614258e+003;4.3015385742e+003;4.2774360352e+003;4.2720512695e+003;4.2620512695e+003;4.2852563477e+003;4.3300000000e+003;4.2926923828e+003;4.3093588867e+003;4.2925639648e+003;4.2488461914e+003;
3.4218750000e+000;4.2375639648e+003;4.3201284180e+003;4.2788461914e+003;4.2928203125e+003;4.3017949219e+003;4.2787177734e+003;4.2734614258e+003;4.2597436523e+003;4.2835898438e+003;4.3275639648e+003;4.2912822266e+003;4.3060258789e+003;4.2937177734e+003;4.2496152344e+003;
3.4296875000e+000;4.2447436523e+003;4.3324360352e+003;4.2858974609e+003;4.3006411133e+003;4.3110258789e+003;4.2876923828e+003;4.2832050781e+003;4.2662822266e+003;4.2914101563e+003;4.3353847656e+003;4.2988461914e+003;4.3111538086e+003;4.3024360352e+003;4.2557690430e+003;
