Time (s);AF3;F7;F3;FC5;T7;P7;O1;O2;P8;T8;FC6;F4;F8;AF4;Sampling Rate
0.0000000000e+000;3.9361538086e+003;3.7969230957e+003;3.8258974609e+003;3.8703845215e+003;3.8030769043e+003;3.8550000000e+003;3.8364101563e+003;3.8261538086e+003;3.8264101563e+003;3.7912819824e+003;3.8005129395e+003;3.8143588867e+003;3.8148718262e+003;3.8305129395e+003;128
7.8125000000e-003;3.9908974609e+003;3.8442307129e+003;3.8730769043e+003;3.9071794434e+003;3.8444870605e+003;3.8861538086e+003;3.8694870605e+003;3.8507692871e+003;3.8585898438e+003;3.8410256348e+003;3.8457692871e+003;3.8576923828e+003;3.8689743652e+003;3.8730769043e+003;
1.5625000000e-002;3.9974357910e+003;3.8552563477e+003;3.8789743652e+003;3.9132050781e+003;3.8494870605e+003;3.8897436523e+003;3.8739743652e+003;3.8605129395e+003;3.8664101563e+003;3.8501281738e+003;3.8642307129e+003;3.8671794434e+003;3.8724357910e+003;3.8842307129e+003;
2.3437500000e-002;4.0024357910e+003;3.8689743652e+003;3.8867949219e+003;3.9165385742e+003;3.8620512695e+003;3.8965385742e+003;3.8835898438e+003;3.8767949219e+003;3.8679487305e+003;3.8614101563e+003;3.8826923828e+003;3.8828205566e+003;3.8871794434e+003;3.9016667480e+003;
3.1250000000e-002;4.0060256348e+003;3.8610256348e+003;3.8938461914e+003;3.9170512695e+003;3.8525642090e+003;3.9016667480e+003;3.8950000000e+003;3.8837180176e+003;3.8651281738e+003;3.8653845215e+003;3.8770512695e+003;3.8815385742e+003;3.8930769043e+003;3.9025642090e+003;
3.9062500000e-002;3.9896154785e+003;3.8474357910e+003;3.8771794434e+003;3.9058974609e+003;3.8400000000e+003;3.8926923828e+003;3.8879487305e+003;3.8730769043e+003;3.8524357910e+003;3.8450000000e+003;3.8596154785e+003;3.8638461914e+003;3.8746154785e+003;3.8848718262e+003;
4.6875000000e-002;4.0234614258e+003;3.8935898438e+003;3.9102563477e+003;3.9446154785e+003;3.8882050781e+003;3.9452563477e+003;3.9344870605e+003;3.9265385742e+003;3.9052563477e+003;3.8920512695e+003;3.8946154785e+003;3.9056411133e+003;3.9151281738e+003;3.9269230957e+003;
5.4687500000e-002;4.0201281738e+003;3.8820512695e+003;3.9091025391e+003;3.9353845215e+003;3.8860256348e+003;3.9421794434e+003;3.9385898438e+003;3.9130769043e+003;3.8946154785e+003;3.8850000000e+003;3.9102563477e+003;3.9107692871e+003;3.9001281738e+003;3.9307692871e+003;
6.2500000000e-002;4.0732050781e+003;3.9370512695e+003;3.9616667480e+003;3.9870512695e+003;3.9393588867e+003;3.9928205566e+003;3.9911538086e+003;3.9685898438e+003;3.9542307129e+003;3.9442307129e+003;3.9693588867e+003;3.9658974609e+003;3.9538461914e+003;3.9828205566e+003;
7.0312500000e-002;4.1025639648e+003;3.9687180176e+003;3.9917949219e+003;4.0170512695e+003;3.9670512695e+003;4.0220512695e+003;4.0183332520e+003;4.0034614258e+003;3.9946154785e+003;3.9825642090e+003;3.9976923828e+003;3.9970512695e+003;3.9862819824e+003;4.0094870605e+003;
7.8125000000e-002;4.0589743652e+003;3.9252563477e+003;3.9500000000e+003;3.9771794434e+003;3.9206411133e+003;3.9773076172e+003;3.9657692871e+003;3.9584614258e+003;3.9606411133e+003;3.9428205566e+003;3.9378205566e+003;3.9488461914e+003;3.9441025391e+003;3.9574357910e+003;
8.5937500000e-002;3.9775642090e+003;3.8423076172e+003;3.8692307129e+003;3.8943588867e+003;3.8382050781e+003;3.8819230957e+003;3.8656411133e+003;3.8566667480e+003;3.8615385742e+003;3.8484614258e+003;3.8544870605e+003;3.8634614258e+003;3.8539743652e+003;3.8758974609e+003;
9.3750000000e-002;3.9397436523e+003;3.8003845215e+003;3.8317949219e+003;3.8556411133e+003;3.7951281738e+003;3.8434614258e+003;3.8257692871e+003;3.8141025391e+003;3.8153845215e+003;3.8035898438e+003;3.8105129395e+003;3.8232050781e+003;3.8146154785e+003;3.8338461914e+003;
1.0156250000e-001;4.0232050781e+003;3.8796154785e+003;3.9116667480e+003;3.9347436523e+003;3.8739743652e+003;3.9164101563e+003;3.9035898438e+003;3.8978205566e+003;3.8933332520e+003;3.8891025391e+003;3.8844870605e+003;3.8978205566e+003;3.9033332520e+003;3.9098718262e+003;
1.0937500000e-001;4.0316667480e+003;3.8911538086e+003;3.9225642090e+003;3.9462819824e+003;3.8851281738e+003;3.9244870605e+003;3.9135898438e+003;3.9150000000e+003;3.9107692871e+003;3.9088461914e+003;3.9053845215e+003;3.9134614258e+003;3.9147436523e+003;3.9257692871e+003;
1.1718750000e-001;3.9446154785e+003;3.8008974609e+003;3.8376923828e+003;3.8643588867e+003;3.7929487305e+003;3.8384614258e+003;3.8333332520e+003;3.8307692871e+003;3.8223076172e+003;3.8184614258e+003;3.8297436523e+003;3.8329487305e+003;3.8219230957e+003;3.8417949219e+003;
1.2500000000e-001;3.9443588867e+003;3.7965385742e+003;3.8342307129e+003;3.8608974609e+003;3.7861538086e+003;3.8324357910e+003;3.8317949219e+003;3.8229487305e+003;3.8102563477e+003;3.8075642090e+003;3.8228205566e+003;3.8287180176e+003;3.8167949219e+003;3.8358974609e+003;
1.3281250000e-001;4.0238461914e+003;3.8778205566e+003;3.9150000000e+003;3.9303845215e+003;3.8596154785e+003;3.9046154785e+003;3.9105129395e+003;3.9024357910e+003;3.8796154785e+003;3.8903845215e+003;3.8882050781e+003;3.9179487305e+003;3.8989743652e+003;3.9207692871e+003;
1.4062500000e-001;4.0029487305e+003;3.8589743652e+003;3.8969230957e+003;3.9084614258e+003;3.8408974609e+003;3.8892307129e+003;3.8960256348e+003;3.8851281738e+003;3.8602563477e+003;3.8707692871e+003;3.8697436523e+003;3.9010256348e+003;3.8794870605e+003;3.9050000000e+003;
1.4843750000e-001;3.9924357910e+003;3.8489743652e+003;3.8884614258e+003;3.8989743652e+003;3.8382050781e+003;3.8885898438e+003;3.8925642090e+003;3.8779487305e+003;3.8503845215e+003;3.8617949219e+003;3.8803845215e+003;3.8861538086e+003;3.8793588867e+003;3.8982050781e+003;
1.5625000000e-001;3.9546154785e+003;3.8070512695e+003;3.8451281738e+003;3.8579487305e+003;3.7978205566e+003;3.8567949219e+003;3.8525642090e+003;3.8316667480e+003;3.8119230957e+003;3.8144870605e+003;3.8210256348e+003;3.8441025391e+003;3.8338461914e+003;3.8578205566e+003;
1.6406250000e-001;3.9764101563e+003;3.8283332520e+003;3.8638461914e+003;3.8776923828e+003;3.8203845215e+003;3.8769230957e+003;3.8742307129e+003;3.8530769043e+003;3.8358974609e+003;3.8348718262e+003;3.8387180176e+003;3.8615385742e+003;3.8514101563e+003;3.8775642090e+003;
1.7187500000e-001;3.9417949219e+003;3.7935898438e+003;3.8319230957e+003;3.8597436523e+003;3.7947436523e+003;3.8450000000e+003;3.8410256348e+003;3.8155129395e+003;3.8051281738e+003;3.7983332520e+003;3.8100000000e+003;3.8153845215e+003;3.8151281738e+003;3.8366667480e+003;
1.7968750000e-001;3.9703845215e+003;3.8310256348e+003;3.8592307129e+003;3.8819230957e+003;3.8264101563e+003;3.8732050781e+003;3.8643588867e+003;3.8483332520e+003;3.8476923828e+003;3.8367949219e+003;3.8497436523e+003;3.8546154785e+003;3.8447436523e+003;3.8683332520e+003;
1.8750000000e-001;3.9419230957e+003;3.7980769043e+003;3.8305129395e+003;3.8498718262e+003;3.7989743652e+003;3.8485898438e+003;3.8361538086e+003;3.8284614258e+003;3.8258974609e+003;3.8133332520e+003;3.8292307129e+003;3.8308974609e+003;3.8137180176e+003;3.8412819824e+003;
1.9531250000e-001;3.8973076172e+003;3.7512819824e+003;3.7866667480e+003;3.8065385742e+003;3.7606411133e+003;3.8101281738e+003;3.7943588867e+003;3.7875642090e+003;3.7825642090e+003;3.7653845215e+003;3.7710256348e+003;3.7780769043e+003;3.7826923828e+003;3.7970512695e+003;
2.0312500000e-001;3.9156411133e+003;3.7725642090e+003;3.8046154785e+003;3.8239743652e+003;3.7692307129e+003;3.8224357910e+003;3.8103845215e+003;3.8050000000e+003;3.8016667480e+003;3.7852563477e+003;3.7826923828e+003;3.7969230957e+003;3.8093588867e+003;3.8179487305e+003;
2.1093750000e-001;3.8934614258e+003;3.7441025391e+003;3.7769230957e+003;3.7946154785e+003;3.7187180176e+003;3.7824357910e+003;3.7807692871e+003;3.7783332520e+003;3.7723076172e+003;3.7594870605e+003;3.7600000000e+003;3.7826923828e+003;3.7785898438e+003;3.7958974609e+003;
2.1875000000e-001;3.8866667480e+003;3.7320512695e+003;3.7646154785e+003;3.7834614258e+003;3.7074357910e+003;3.7661538086e+003;3.7680769043e+003;3.7674357910e+003;3.7582050781e+003;3.7484614258e+003;3.7564101563e+003;3.7773076172e+003;3.7608974609e+003;3.7862819824e+003;
2.2656250000e-001;3.8198718262e+003;3.6624357910e+003;3.6984614258e+003;3.7203845215e+003;3.6528205566e+003;3.6926923828e+003;3.6920512695e+003;3.7038461914e+003;3.6861538086e+003;3.6826923828e+003;3.6889743652e+003;3.7078205566e+003;3.6984614258e+003;3.7215385742e+003;
2.3437500000e-001;3.7566667480e+003;3.5970512695e+003;3.6373076172e+003;3.6583332520e+003;3.5848718262e+003;3.6325642090e+003;3.6326923828e+003;3.6378205566e+003;3.6184614258e+003;3.6126923828e+003;3.6232050781e+003;3.6401281738e+003;3.6384614258e+003;3.6569230957e+003;
2.4218750000e-001;3.7341025391e+003;3.5721794434e+003;3.6117949219e+003;3.6320512695e+003;3.5552563477e+003;3.6101281738e+003;3.6130769043e+003;3.6070512695e+003;3.5870512695e+003;3.5793588867e+003;3.5993588867e+003;3.6107692871e+003;3.6135898438e+003;3.6298718262e+003;
2.5000000000e-001;3.7665385742e+003;3.6050000000e+003;3.6383332520e+003;3.6593588867e+003;3.5844870605e+003;3.6411538086e+003;3.6461538086e+003;3.6317949219e+003;3.6115385742e+003;3.6037180176e+003;3.6307692871e+003;3.6380769043e+003;3.6398718262e+003;3.6575642090e+003;
2.5781250000e-001;3.8342307129e+003;3.6889743652e+003;3.7151281738e+003;3.7414101563e+003;3.6739743652e+003;3.7276923828e+003;3.7285898438e+003;3.6957692871e+003;3.6769230957e+003;3.6698718262e+003;3.6805129395e+003;3.7083332520e+003;3.6879487305e+003;3.7191025391e+003;
2.6562500000e-001;3.8562819824e+003;3.7102563477e+003;3.7406411133e+003;3.7591025391e+003;3.6984614258e+003;3.7500000000e+003;3.7505129395e+003;3.7141025391e+003;3.6982050781e+003;3.6908974609e+003;3.7032050781e+003;3.7261538086e+003;3.7117949219e+003;3.7397436523e+003;
2.7343750000e-001;3.8476923828e+003;3.6989743652e+003;3.7291025391e+003;3.7514101563e+003;3.7019230957e+003;3.7602563477e+003;3.7475642090e+003;3.7214101563e+003;3.7051281738e+003;3.6919230957e+003;3.6955129395e+003;3.7191025391e+003;3.7164101563e+003;3.7342307129e+003;
2.8125000000e-001;3.8860256348e+003;3.7575642090e+003;3.7647436523e+003;3.8123076172e+003;3.7639743652e+003;3.8155129395e+003;3.8070512695e+003;3.7820512695e+003;3.7789743652e+003;3.7598718262e+003;3.7644870605e+003;3.7701281738e+003;3.7680769043e+003;3.7757692871e+003;
2.8906250000e-001;3.8844870605e+003;3.7576923828e+003;3.7657692871e+003;3.8091025391e+003;3.7650000000e+003;3.8157692871e+003;3.8056411133e+003;3.7867949219e+003;3.7888461914e+003;3.7700000000e+003;3.7743588867e+003;3.7688461914e+003;3.7710256348e+003;3.7757692871e+003;
2.9687500000e-001;3.7953845215e+003;3.6587180176e+003;3.6730769043e+003;3.7046154785e+003;3.6658974609e+003;3.7289743652e+003;3.7092307129e+003;3.7052563477e+003;3.7030769043e+003;3.6773076172e+003;3.6711538086e+003;3.6673076172e+003;3.6844870605e+003;3.6783332520e+003;
3.0468750000e-001;3.7414101563e+003;3.6015385742e+003;3.6206411133e+003;3.6484614258e+003;3.5966667480e+003;3.6646154785e+003;3.6497436523e+003;3.6483332520e+003;3.6503845215e+003;3.6170512695e+003;3.6351281738e+003;3.6271794434e+003;3.6265385742e+003;3.6324357910e+003;
3.1250000000e-001;3.7552563477e+003;3.6096154785e+003;3.6311538086e+003;3.6562819824e+003;3.6017949219e+003;3.6675642090e+003;3.6569230957e+003;3.6512819824e+003;3.6556411133e+003;3.6215385742e+003;3.6421794434e+003;3.6364101563e+003;3.6370512695e+003;3.6428205566e+003;
3.2031250000e-001;3.8178205566e+003;3.6660256348e+003;3.6884614258e+003;3.7088461914e+003;3.6553845215e+003;3.7146154785e+003;3.7091025391e+003;3.7033332520e+003;3.7078205566e+003;3.6767949219e+003;3.6889743652e+003;3.6908974609e+003;3.6979487305e+003;3.6993588867e+003;
3.2812500000e-001;3.9343588867e+003;3.7739743652e+003;3.8041025391e+003;3.8112819824e+003;3.7562819824e+003;3.8065385742e+003;3.8087180176e+003;3.8147436523e+003;3.8130769043e+003;3.7932050781e+003;3.7828205566e+003;3.8038461914e+003;3.8153845215e+003;3.8089743652e+003;
3.3593750000e-001;3.9311538086e+003;3.7679487305e+003;3.8055129395e+003;3.8079487305e+003;3.7474357910e+003;3.7985898438e+003;3.8034614258e+003;3.8106411133e+003;3.8055129395e+003;3.7875642090e+003;3.7814101563e+003;3.8035898438e+003;3.8088461914e+003;3.8047436523e+003;
3.4375000000e-001;3.9310256348e+003;3.7696154785e+003;3.8097436523e+003;3.8124357910e+003;3.7470512695e+003;3.7912819824e+003;3.8015385742e+003;3.8001281738e+003;3.7923076172e+003;3.7730769043e+003;3.7970512695e+003;3.8034614258e+003;3.7947436523e+003;3.8029487305e+003;
3.5156250000e-001;3.9529487305e+003;3.7976923828e+003;3.8321794434e+003;3.8374357910e+003;3.7750000000e+003;3.8124357910e+003;3.8232050781e+003;3.8201281738e+003;3.8110256348e+003;3.7943588867e+003;3.8244870605e+003;3.8267949219e+003;3.8139743652e+003;3.8269230957e+003;
3.5937500000e-001;3.8928205566e+003;3.7539743652e+003;3.7796154785e+003;3.7882050781e+003;3.7366667480e+003;3.7779487305e+003;3.7829487305e+003;3.7635898438e+003;3.7480769043e+003;3.7442307129e+003;3.7524357910e+003;3.7784614258e+003;3.7614101563e+003;3.7724357910e+003;
3.6718750000e-001;3.8934614258e+003;3.7565385742e+003;3.7793588867e+003;3.7888461914e+003;3.7430769043e+003;3.7853845215e+003;3.7900000000e+003;3.7624357910e+003;3.7485898438e+003;3.7444870605e+003;3.7505129395e+003;3.7765385742e+003;3.7629487305e+003;3.7698718262e+003;
3.7500000000e-001;3.9110256348e+003;3.7760256348e+003;3.7953845215e+003;3.8074357910e+003;3.7666667480e+003;3.8091025391e+003;3.8123076172e+003;3.7824357910e+003;3.7714101563e+003;3.7644870605e+003;3.7724357910e+003;3.7911538086e+003;3.7817949219e+003;3.7851281738e+003;
3.8281250000e-001;3.9119230957e+003;3.7785898438e+003;3.7964101563e+003;3.8128205566e+003;3.7741025391e+003;3.8185898438e+003;3.8191025391e+003;3.7914101563e+003;3.7820512695e+003;3.7705129395e+003;3.7808974609e+003;3.7916667480e+003;3.7858974609e+003;3.7860256348e+003;
3.9062500000e-001;3.9344870605e+003;3.8064101563e+003;3.8171794434e+003;3.8369230957e+003;3.8138461914e+003;3.8621794434e+003;3.8569230957e+003;3.8364101563e+003;3.8267949219e+003;3.8080769043e+003;3.8133332520e+003;3.8211538086e+003;3.8219230957e+003;3.8137180176e+003;
3.9843750000e-001;3.9023076172e+003;3.7751281738e+003;3.7841025391e+003;3.8087180176e+003;3.7750000000e+003;3.8312819824e+003;3.8189743652e+003;3.8101281738e+003;3.8150000000e+003;3.7889743652e+003;3.7969230957e+003;3.8030769043e+003;3.8042307129e+003;3.8051281738e+003;
4.0625000000e-001;3.8334614258e+003;3.6889743652e+003;3.7178205566e+003;3.7235898438e+003;3.6842307129e+003;3.7435898438e+003;3.7378205566e+003;3.7415385742e+003;3.7480769043e+003;3.7192307129e+003;3.7212819824e+003;3.7396154785e+003;3.7220512695e+003;3.7384614258e+003;
4.1406250000e-001;3.8070512695e+003;3.6541025391e+003;3.6885898438e+003;3.6928205566e+003;3.6458974609e+003;3.7065385742e+003;3.7020512695e+003;3.7058974609e+003;3.7102563477e+003;3.6789743652e+003;3.6864101563e+003;3.7098718262e+003;3.6847436523e+003;3.7047436523e+003;
4.2187500000e-001;3.7915385742e+003;3.6269230957e+003;3.6639743652e+003;3.6778205566e+003;3.6078205566e+003;3.6653845215e+003;3.6635898438e+003;3.6747436523e+003;3.6866667480e+003;3.6532050781e+003;3.6644870605e+003;3.6861538086e+003;3.6764101563e+003;3.6788461914e+003;
4.2968750000e-001;3.7484614258e+003;3.5832050781e+003;3.6212819824e+003;3.6355129395e+003;3.5630769043e+003;3.6246154785e+003;3.6248718262e+003;3.6324357910e+003;3.6465385742e+003;3.6123076172e+003;3.6201281738e+003;3.6451281738e+003;3.6344870605e+003;3.6367949219e+003;
4.3750000000e-001;3.8547436523e+003;3.6967949219e+003;3.7243588867e+003;3.7341025391e+003;3.6776923828e+003;3.7287180176e+003;3.7428205566e+003;3.7294870605e+003;3.7382050781e+003;3.7085898438e+003;3.7173076172e+003;3.7458974609e+003;3.7298718262e+003;3.7366667480e+003;
4.4531250000e-001;4.0455129395e+003;3.8965385742e+003;3.9138461914e+003;3.9202563477e+003;3.8779487305e+003;3.9105129395e+003;3.9324357910e+003;3.9160256348e+003;3.9191025391e+003;3.9000000000e+003;3.9093588867e+003;3.9323076172e+003;3.9197436523e+003;3.9232050781e+003;
4.5312500000e-001;4.4848715820e+003;4.3606411133e+003;4.3705126953e+003;4.3655126953e+003;4.3475639648e+003;4.3434614258e+003;4.3707690430e+003;4.3621796875e+003;4.3510258789e+003;4.3705126953e+003;4.3743588867e+003;4.3765385742e+003;4.3787177734e+003;4.3664101563e+003;
4.6093750000e-001;4.5560258789e+003;4.4447436523e+003;4.4505126953e+003;4.4391025391e+003;4.4329487305e+003;4.4243588867e+003;4.4515385742e+003;4.4394873047e+003;4.4262822266e+003;4.4535898438e+003;4.4558974609e+003;4.4555126953e+003;4.4582050781e+003;4.4452563477e+003;
4.6875000000e-001;4.6752563477e+003;4.6037177734e+003;4.5875639648e+003;4.5678203125e+003;4.5894873047e+003;4.5729487305e+003;4.5997436523e+003;4.5882050781e+003;4.5733334961e+003;4.6096152344e+003;4.6035898438e+003;4.5993588867e+003;4.6029487305e+003;4.5875639648e+003;
4.7656250000e-001;4.6951284180e+003;4.6417949219e+003;4.6167949219e+003;4.5970512695e+003;4.6269228516e+003;4.6092309570e+003;4.6355126953e+003;4.6257690430e+003;4.6105126953e+003;4.6480771484e+003;4.6364101563e+003;4.6297436523e+003;4.6358974609e+003;4.6169228516e+003;
4.8437500000e-001;4.7561538086e+003;4.7321796875e+003;4.7000000000e+003;4.6771796875e+003;4.7207690430e+003;4.6971796875e+003;4.7200000000e+003;4.7182050781e+003;4.7055126953e+003;4.7433334961e+003;4.7173076172e+003;4.7069228516e+003;4.7185898438e+003;4.6916665039e+003;
4.9218750000e-001;4.7562822266e+003;4.7396152344e+003;4.7083334961e+003;4.6830771484e+003;4.7262822266e+003;4.7053847656e+003;4.7241025391e+003;4.7328203125e+003;4.7203847656e+003;4.7574360352e+003;4.7252563477e+003;4.7192309570e+003;4.7273076172e+003;4.7007690430e+003;
5.0000000000e-001;4.7123076172e+003;4.7019228516e+003;4.6728203125e+003;4.6474360352e+003;4.6848715820e+003;4.6724360352e+003;4.6876923828e+003;4.7032050781e+003;4.6910258789e+003;4.7244873047e+003;4.6901284180e+003;4.6883334961e+003;4.6920512695e+003;4.6671796875e+003;
5.0781250000e-001;4.6593588867e+003;4.6542309570e+003;4.6262822266e+003;4.6019228516e+003;4.6324360352e+003;4.6280771484e+003;4.6434614258e+003;4.6579487305e+003;4.6473076172e+003;4.6752563477e+003;4.6444873047e+003;4.6428203125e+003;4.6453847656e+003;4.6223076172e+003;
5.1562500000e-001;4.7175639648e+003;4.7179487305e+003;4.7016665039e+003;4.6480771484e+003;4.6857690430e+003;4.6697436523e+003;4.6889741211e+003;4.7060258789e+003;4.7005126953e+003;4.7311538086e+003;4.7006411133e+003;4.6975639648e+003;4.6993588867e+003;4.6891025391e+003;
5.2343750000e-001;4.7642309570e+003;4.7802563477e+003;4.7571796875e+003;4.7158974609e+003;4.7439741211e+003;4.7243588867e+003;4.7488461914e+003;4.7538461914e+003;4.7573076172e+003;4.7897436523e+003;4.7588461914e+003;4.7555126953e+003;4.7665385742e+003;4.7523076172e+003;
5.3125000000e-001;4.7997436523e+003;4.8210258789e+003;4.7982050781e+003;4.7544873047e+003;4.7819228516e+003;4.7598715820e+003;4.7864101563e+003;4.7923076172e+003;4.7964101563e+003;4.8321796875e+003;4.7998715820e+003;4.7944873047e+003;4.8082050781e+003;4.7914101563e+003;
5.3906250000e-001;4.7952563477e+003;4.8278203125e+003;4.8121796875e+003;4.7523076172e+003;4.7876923828e+003;4.7646152344e+003;4.7889741211e+003;4.7974360352e+003;4.7978203125e+003;4.8366665039e+003;4.8057690430e+003;4.8035898438e+003;4.8071796875e+003;4.7951284180e+003;
5.4687500000e-001;4.6598715820e+003;4.7103847656e+003;4.6919228516e+003;4.6437177734e+003;4.6591025391e+003;4.6474360352e+003;4.6682050781e+003;4.6811538086e+003;4.6776923828e+003;4.7246152344e+003;4.6956411133e+003;4.6934614258e+003;4.6944873047e+003;4.6824360352e+003;
5.5468750000e-001;4.6257690430e+003;4.6712822266e+003;4.6576923828e+003;4.6128203125e+003;4.6211538086e+003;4.6111538086e+003;4.6338461914e+003;4.6429487305e+003;4.6346152344e+003;4.6825639648e+003;4.6534614258e+003;4.6533334961e+003;4.6652563477e+003;4.6450000000e+003;
5.6250000000e-001;4.6296152344e+003;4.6753847656e+003;4.6661538086e+003;4.6108974609e+003;4.6355126953e+003;4.6097436523e+003;4.6346152344e+003;4.6482050781e+003;4.6300000000e+003;4.6797436523e+003;4.6557690430e+003;4.6543588867e+003;4.6711538086e+003;4.6502563477e+003;
5.7031250000e-001;4.6082050781e+003;4.6584614258e+003;4.6483334961e+003;4.5892309570e+003;4.6223076172e+003;4.5908974609e+003;4.6151284180e+003;4.6324360352e+003;4.6102563477e+003;4.6605126953e+003;4.6447436523e+003;4.6401284180e+003;4.6435898438e+003;4.6346152344e+003;
5.7812500000e-001;4.5393588867e+003;4.5924360352e+003;4.5703847656e+003;4.5375639648e+003;4.5516665039e+003;4.5321796875e+003;4.5538461914e+003;4.5616665039e+003;4.5383334961e+003;4.5852563477e+003;4.5715385742e+003;4.5730771484e+003;4.5632050781e+003;4.5662822266e+003;
5.8593750000e-001;4.5517949219e+003;4.6047436523e+003;4.5811538086e+003;4.5552563477e+003;4.5634614258e+003;4.5498715820e+003;4.5688461914e+003;4.5771796875e+003;4.5602563477e+003;4.6023076172e+003;4.5769228516e+003;4.5835898438e+003;4.5858974609e+003;4.5784614258e+003;
5.9375000000e-001;4.5291025391e+003;4.5830771484e+003;4.5635898438e+003;4.5332050781e+003;4.5471796875e+003;4.5446152344e+003;4.5587177734e+003;4.5678203125e+003;4.5625639648e+003;4.5896152344e+003;4.5621796875e+003;4.5630771484e+003;4.5796152344e+003;4.5588461914e+003;
6.0156250000e-001;4.5388461914e+003;4.5942309570e+003;4.5743588867e+003;4.5380771484e+003;4.5611538086e+003;4.5587177734e+003;4.5739741211e+003;4.5796152344e+003;4.5751284180e+003;4.5982050781e+003;4.5807690430e+003;4.5720512695e+003;4.5884614258e+003;4.5693588867e+003;
6.0937500000e-001;4.7034614258e+003;4.7643588867e+003;4.7374360352e+003;4.7002563477e+003;4.7291025391e+003;4.7173076172e+003;4.7362822266e+003;4.7479487305e+003;4.7408974609e+003;4.7735898438e+003;4.7497436523e+003;4.7402563477e+003;4.7474360352e+003;4.7400000000e+003;
6.1718750000e-001;4.6984614258e+003;4.7600000000e+003;4.7362822266e+003;4.6998715820e+003;4.7253847656e+003;4.7153847656e+003;4.7338461914e+003;4.7471796875e+003;4.7433334961e+003;4.7755126953e+003;4.7435898438e+003;4.7401284180e+003;4.7458974609e+003;4.7374360352e+003;
6.2500000000e-001;4.6875639648e+003;4.7510258789e+003;4.7298715820e+003;4.6915385742e+003;4.7179487305e+003;4.7094873047e+003;4.7280771484e+003;4.7391025391e+003;4.7398715820e+003;4.7696152344e+003;4.7364101563e+003;4.7328203125e+003;4.7400000000e+003;4.7283334961e+003;
6.3281250000e-001;4.7058974609e+003;4.7742309570e+003;4.7521796875e+003;4.7102563477e+003;4.7417949219e+003;4.7320512695e+003;4.7515385742e+003;4.7605126953e+003;4.7651284180e+003;4.7933334961e+003;4.7642309570e+003;4.7542309570e+003;4.7644873047e+003;4.7493588867e+003;
6.4062500000e-001;4.7235898438e+003;4.8105126953e+003;4.7855126953e+003;4.7344873047e+003;4.7728203125e+003;4.7607690430e+003;4.7783334961e+003;4.7885898438e+003;4.7933334961e+003;4.8255126953e+003;4.7882050781e+003;4.7807690430e+003;4.7888461914e+003;4.7753847656e+003;
6.4843750000e-001;4.7330771484e+003;4.8205126953e+003;4.8043588867e+003;4.7529487305e+003;4.7816665039e+003;4.7615385742e+003;4.7762822266e+003;4.7908974609e+003;4.7939741211e+003;4.8374360352e+003;4.8048715820e+003;4.7911538086e+003;4.8019228516e+003;4.7889741211e+003;
6.5625000000e-001;4.7062822266e+003;4.7966665039e+003;4.7832050781e+003;4.7311538086e+003;4.7567949219e+003;4.7391025391e+003;4.7530771484e+003;4.7655126953e+003;4.7642309570e+003;4.8080771484e+003;4.7765385742e+003;4.7697436523e+003;4.7787177734e+003;4.7652563477e+003;
6.6406250000e-001;4.7144873047e+003;4.8075639648e+003;4.7944873047e+003;4.7364101563e+003;4.7669228516e+003;4.7439741211e+003;4.7608974609e+003;4.7698715820e+003;4.7619228516e+003;4.8071796875e+003;4.7801284180e+003;4.7843588867e+003;4.7869228516e+003;4.7737177734e+003;
6.7187500000e-001;4.6985898438e+003;4.7834614258e+003;4.7770512695e+003;4.7207690430e+003;4.7383334961e+003;4.7191025391e+003;4.7443588867e+003;4.7484614258e+003;4.7326923828e+003;4.7728203125e+003;4.7662822266e+003;4.7614101563e+003;4.7580771484e+003;4.7556411133e+003;
6.7968750000e-001;4.7301284180e+003;4.8160258789e+003;4.8106411133e+003;4.7515385742e+003;4.7678203125e+003;4.7476923828e+003;4.7758974609e+003;4.7830771484e+003;4.7676923828e+003;4.8071796875e+003;4.8006411133e+003;4.7932050781e+003;4.7908974609e+003;4.7884614258e+003;
6.8750000000e-001;4.7193588867e+003;4.8071796875e+003;4.8141025391e+003;4.7396152344e+003;4.7588461914e+003;4.7446152344e+003;4.7737177734e+003;4.7887177734e+003;4.7735898438e+003;4.8106411133e+003;4.7948715820e+003;4.7965385742e+003;4.7920512695e+003;4.7861538086e+003;
6.9531250000e-001;4.6858974609e+003;4.7734614258e+003;4.7853847656e+003;4.7078203125e+003;4.7285898438e+003;4.7194873047e+003;4.7476923828e+003;4.7594873047e+003;4.7458974609e+003;4.7787177734e+003;4.7611538086e+003;4.7687177734e+003;4.7623076172e+003;4.7547436523e+003;
7.0312500000e-001;4.6873076172e+003;4.7789741211e+003;4.7791025391e+003;4.7191025391e+003;4.7398715820e+003;4.7314101563e+003;4.7567949219e+003;4.7650000000e+003;4.7619228516e+003;4.7839741211e+003;4.7779487305e+003;4.7715385742e+003;4.7608974609e+003;4.7591025391e+003;
7.1093750000e-001;4.6600000000e+003;4.7526923828e+003;4.7523076172e+003;4.6956411133e+003;4.7144873047e+003;4.7092309570e+003;4.7303847656e+003;4.7403847656e+003;4.7376923828e+003;4.7576923828e+003;4.7516665039e+003;4.7433334961e+003;4.7321796875e+003;4.7344873047e+003;
7.1875000000e-001;4.6239741211e+003;4.7198715820e+003;4.7205126953e+003;4.6657690430e+003;4.6855126953e+003;4.6852563477e+003;4.6983334961e+003;4.7016665039e+003;4.6997436523e+003;4.7178203125e+003;4.6976923828e+003;4.6994873047e+003;4.7003847656e+003;4.6973076172e+003;
7.2656250000e-001;4.6480771484e+003;4.7476923828e+003;4.7458974609e+003;4.6926923828e+003;4.7148715820e+003;4.7130771484e+003;4.7237177734e+003;4.7252563477e+003;4.7262822266e+003;4.7458974609e+003;4.7175639648e+003;4.7224360352e+003;4.7311538086e+003;4.7198715820e+003;
7.3437500000e-001;4.6055126953e+003;4.7060258789e+003;4.7066665039e+003;4.6571796875e+003;4.6753847656e+003;4.6753847656e+003;4.6848715820e+003;4.6870512695e+003;4.6962822266e+003;4.7166665039e+003;4.7043588867e+003;4.6907690430e+003;4.6971796875e+003;4.6842309570e+003;
7.4218750000e-001;4.5967949219e+003;4.6960258789e+003;4.6971796875e+003;4.6451284180e+003;4.6647436523e+003;4.6624360352e+003;4.6746152344e+003;4.6741025391e+003;4.6847436523e+003;4.7032050781e+003;4.6965385742e+003;4.6792309570e+003;4.6871796875e+003;4.6766665039e+003;
7.5000000000e-001;4.6293588867e+003;4.7292309570e+003;4.7289741211e+003;4.6729487305e+003;4.6960258789e+003;4.6889741211e+003;4.7037177734e+003;4.7032050781e+003;4.7150000000e+003;4.7334614258e+003;4.7221796875e+003;4.7078203125e+003;4.7205126953e+003;4.7087177734e+003;
7.5781250000e-001;4.6715385742e+003;4.7728203125e+003;4.7716665039e+003;4.7119228516e+003;4.7376923828e+003;4.7265385742e+003;4.7426923828e+003;4.7456411133e+003;4.7576923828e+003;4.7779487305e+003;4.7557690430e+003;4.7489741211e+003;4.7643588867e+003;4.7492309570e+003;
7.6562500000e-001;4.6241025391e+003;4.7202563477e+003;4.7291025391e+003;4.6666665039e+003;4.6797436523e+003;4.6705126953e+003;4.6908974609e+003;4.7001284180e+003;4.7048715820e+003;4.7284614258e+003;4.7152563477e+003;4.7103847656e+003;4.7088461914e+003;4.7038461914e+003;
7.7343750000e-001;4.6039741211e+003;4.6974360352e+003;4.7089741211e+003;4.6483334961e+003;4.6511538086e+003;4.6475639648e+003;4.6687177734e+003;4.6816665039e+003;4.6832050781e+003;4.7082050781e+003;4.6966665039e+003;4.6920512695e+003;4.6894873047e+003;4.6883334961e+003;
7.8125000000e-001;4.5302563477e+003;4.6129487305e+003;4.6273076172e+003;4.5762822266e+003;4.5710258789e+003;4.5712822266e+003;4.5946152344e+003;4.6032050781e+003;4.5950000000e+003;4.6208974609e+003;4.6134614258e+003;4.6147436523e+003;4.6183334961e+003;4.6132050781e+003;
7.8906250000e-001;4.5580771484e+003;4.6488461914e+003;4.6552563477e+003;4.5956411133e+003;4.6233334961e+003;4.6028203125e+003;4.6230771484e+003;4.6351284180e+003;4.6257690430e+003;4.6475639648e+003;4.6457690430e+003;4.6430771484e+003;4.6510258789e+003;4.6441025391e+003;
7.9687500000e-001;4.5194873047e+003;4.6108974609e+003;4.6178203125e+003;4.5628203125e+003;4.5858974609e+003;4.5737177734e+003;4.5915385742e+003;4.6010258789e+003;4.5920512695e+003;4.6107690430e+003;4.6041025391e+003;4.6050000000e+003;4.6101284180e+003;4.6065385742e+003;
8.0468750000e-001;4.5011538086e+003;4.5956411133e+003;4.5958974609e+003;4.5544873047e+003;4.5726923828e+003;4.5760258789e+003;4.5930771484e+003;4.5932050781e+003;4.5911538086e+003;4.6055126953e+003;4.5919228516e+003;4.5851284180e+003;4.5957690430e+003;4.5870512695e+003;
8.1250000000e-001;4.4535898438e+003;4.5439741211e+003;4.5547436523e+003;4.5079487305e+003;4.5315385742e+003;4.5474360352e+003;4.5589741211e+003;4.5558974609e+003;4.5642309570e+003;4.5561538086e+003;4.5469228516e+003;4.5415385742e+003;4.5497436523e+003;4.5412822266e+003;
8.2031250000e-001;4.4732050781e+003;4.5592309570e+003;4.5710258789e+003;4.5251284180e+003;4.5506411133e+003;4.5648715820e+003;4.5766665039e+003;4.5750000000e+003;4.5853847656e+003;4.5760258789e+003;4.5644873047e+003;4.5601284180e+003;4.5670512695e+003;4.5602563477e+003;
8.2812500000e-001;4.4230771484e+003;4.5065385742e+003;4.5075639648e+003;4.4778203125e+003;4.4866665039e+003;4.5061538086e+003;4.5137177734e+003;4.5198715820e+003;4.5357690430e+003;4.5350000000e+003;4.5161538086e+003;4.5062822266e+003;4.5179487305e+003;4.5091025391e+003;
8.3593750000e-001;4.3829487305e+003;4.4679487305e+003;4.4655126953e+003;4.4392309570e+003;4.4408974609e+003;4.4621796875e+003;4.4710258789e+003;4.4733334961e+003;4.4903847656e+003;4.4873076172e+003;4.4696152344e+003;4.4588461914e+003;4.4769228516e+003;4.4652563477e+003;
8.4375000000e-001;4.4102563477e+003;4.4947436523e+003;4.4923076172e+003;4.4612822266e+003;4.4644873047e+003;4.4761538086e+003;4.4883334961e+003;4.4932050781e+003;4.5088461914e+003;4.5052563477e+003;4.4875639648e+003;4.4779487305e+003;4.5001284180e+003;4.4896152344e+003;
8.5156250000e-001;4.4300000000e+003;4.5096152344e+003;4.5130771484e+003;4.4779487305e+003;4.4829487305e+003;4.4915385742e+003;4.5025639648e+003;4.5128203125e+003;4.5260258789e+003;4.5256411133e+003;4.5088461914e+003;4.5012822266e+003;4.5162822266e+003;4.5119228516e+003;
8.5937500000e-001;4.4441025391e+003;4.5123076172e+003;4.5226923828e+003;4.4848715820e+003;4.4862822266e+003;4.4938461914e+003;4.5050000000e+003;4.5129487305e+003;4.5174360352e+003;4.5244873047e+003;4.5201284180e+003;4.5120512695e+003;4.5215385742e+003;4.5242309570e+003;
8.6718750000e-001;4.4523076172e+003;4.5216665039e+003;4.5293588867e+003;4.4919228516e+003;4.4917949219e+003;4.4962822266e+003;4.5084614258e+003;4.5174360352e+003;4.5184614258e+003;4.5278203125e+003;4.5230771484e+003;4.5152563477e+003;4.5289741211e+003;4.5301284180e+003;
8.7500000000e-001;4.4300000000e+003;4.4992309570e+003;4.5078203125e+003;4.4714101563e+003;4.4678203125e+003;4.4710258789e+003;4.4829487305e+003;4.4939741211e+003;4.4908974609e+003;4.5017949219e+003;4.4967949219e+003;4.4920512695e+003;4.5034614258e+003;4.5067949219e+003;
8.8281250000e-001;4.3839741211e+003;4.4498715820e+003;4.4632050781e+003;4.4293588867e+003;4.4205126953e+003;4.4246152344e+003;4.4369228516e+003;4.4464101563e+003;4.4396152344e+003;4.4496152344e+003;4.4492309570e+003;4.4482050781e+003;4.4507690430e+003;4.4600000000e+003;
8.9062500000e-001;4.3969228516e+003;4.4525639648e+003;4.4712822266e+003;4.4393588867e+003;4.4223076172e+003;4.4292309570e+003;4.4480771484e+003;4.4498715820e+003;4.4437177734e+003;4.4497436523e+003;4.4579487305e+003;4.4582050781e+003;4.4543588867e+003;4.4644873047e+003;
8.9843750000e-001;4.3684614258e+003;4.4260258789e+003;4.4439741211e+003;4.4116665039e+003;4.3928203125e+003;4.4057690430e+003;4.4223076172e+003;4.4205126953e+003;4.4141025391e+003;4.4211538086e+003;4.4250000000e+003;4.4267949219e+003;4.4270512695e+003;4.4343588867e+003;
9.0625000000e-001;4.3784614258e+003;4.4376923828e+003;4.4496152344e+003;4.4270512695e+003;4.4157690430e+003;4.4262822266e+003;4.4429487305e+003;4.4242309570e+003;4.4192309570e+003;4.4252563477e+003;4.4357690430e+003;4.4282050781e+003;4.4307690430e+003;4.4374360352e+003;
9.1406250000e-001;4.3880771484e+003;4.4432050781e+003;4.4591025391e+003;4.4360258789e+003;4.4271796875e+003;4.4452563477e+003;4.4608974609e+003;4.4498715820e+003;4.4423076172e+003;4.4444873047e+003;4.4410258789e+003;4.4407690430e+003;4.4360258789e+003;4.4442309570e+003;
9.2187500000e-001;4.4174360352e+003;4.4741025391e+003;4.4862822266e+003;4.4643588867e+003;4.4597436523e+003;4.4757690430e+003;4.4906411133e+003;4.4770512695e+003;4.4733334961e+003;4.4748715820e+003;4.4684614258e+003;4.4669228516e+003;4.4648715820e+003;4.4705126953e+003;
9.2968750000e-001;4.4924360352e+003;4.5608974609e+003;4.5534614258e+003;4.5410258789e+003;4.5521796875e+003;4.5588461914e+003;4.5691025391e+003;4.5628203125e+003;4.5712822266e+003;4.5712822266e+003;4.5620512695e+003;4.5389741211e+003;4.5546152344e+003;4.5473076172e+003;
9.3750000000e-001;4.5535898438e+003;4.6321796875e+003;4.6125639648e+003;4.5991025391e+003;4.6139741211e+003;4.6167949219e+003;4.6239741211e+003;4.6291025391e+003;4.6329487305e+003;4.6350000000e+003;4.6173076172e+003;4.5982050781e+003;4.6212822266e+003;4.6066665039e+003;
9.4531250000e-001;4.5951284180e+003;4.6735898438e+003;4.6582050781e+003;4.6410258789e+003;4.6535898438e+003;4.6534614258e+003;4.6612822266e+003;4.6705126953e+003;4.6765385742e+003;4.6783334961e+003;4.6579487305e+003;4.6430771484e+003;4.6616665039e+003;4.6505126953e+003;
9.5312500000e-001;4.6621796875e+003;4.7416665039e+003;4.7352563477e+003;4.7069228516e+003;4.7187177734e+003;4.7120512695e+003;4.7305126953e+003;4.7364101563e+003;4.7456411133e+003;4.7452563477e+003;4.7342309570e+003;4.7160258789e+003;4.7255126953e+003;4.7252563477e+003;
9.6093750000e-001;4.7010258789e+003;4.7860258789e+003;4.7742309570e+003;4.7430771484e+003;4.7607690430e+003;4.7461538086e+003;4.7669228516e+003;4.7787177734e+003;4.7839741211e+003;4.7896152344e+003;4.7812822266e+003;4.7596152344e+003;4.7680771484e+003;4.7678203125e+003;
9.6875000000e-001;4.6691025391e+003;4.7539741211e+003;4.7462822266e+003;4.7148715820e+003;4.7298715820e+003;4.7101284180e+003;4.7326923828e+003;4.7532050781e+003;4.7466665039e+003;4.7611538086e+003;4.7551284180e+003;4.7406411133e+003;4.7423076172e+003;4.7421796875e+003;
9.7656250000e-001;4.6225639648e+003;4.7025639648e+003;4.7020512695e+003;4.6720512695e+003;4.6800000000e+003;4.6638461914e+003;4.6884614258e+003;4.7015385742e+003;4.6912822266e+003;4.7048715820e+003;4.7024360352e+003;4.6943588867e+003;4.6944873047e+003;4.6943588867e+003;
9.8437500000e-001;4.6100000000e+003;4.6888461914e+003;4.6908974609e+003;4.6612822266e+003;4.6646152344e+003;4.6510258789e+003;4.6780771484e+003;4.6814101563e+003;4.6696152344e+003;4.6823076172e+003;4.6833334961e+003;4.6782050781e+003;4.6807690430e+003;4.6798715820e+003;
9.9218750000e-001;4.6366665039e+003;4.7283334961e+003;4.7221796875e+003;4.6896152344e+003;4.6946152344e+003;4.6815385742e+003;4.7069228516e+003;4.7075639648e+003;4.6925639648e+003;4.7114101563e+003;4.7123076172e+003;4.7038461914e+003;4.7152563477e+003;4.7097436523e+003;
1.0000000000e+000;4.6035898438e+003;4.6985898438e+003;4.6926923828e+003;4.6596152344e+003;4.6647436523e+003;4.6543588867e+003;4.6762822266e+003;4.6791025391e+003;4.6614101563e+003;4.6823076172e+003;4.6832050781e+003;4.6739741211e+003;4.6867949219e+003;4.6788461914e+003;
1.0078125000e+000;4.5542309570e+003;4.6458974609e+003;4.6443588867e+003;4.6125639648e+003;4.6164101563e+003;4.6096152344e+003;4.6291025391e+003;4.6297436523e+003;4.6103847656e+003;4.6293588867e+003;4.6338461914e+003;4.6252563477e+003;4.6370512695e+003;4.6282050781e+003;
1.0156250000e+000;4.5958974609e+003;4.6866665039e+003;4.6888461914e+003;4.6552563477e+003;4.6642309570e+003;4.6567949219e+003;4.6780771484e+003;4.6671796875e+003;4.6566665039e+003;4.6682050781e+003;4.6789741211e+003;4.6714101563e+003;4.6712822266e+003;4.6682050781e+003;
1.0234375000e+000;4.5838461914e+003;4.6755126953e+003;4.6782050781e+003;4.6462822266e+003;4.6556411133e+003;4.6496152344e+003;4.6703847656e+003;4.6594873047e+003;4.6520512695e+003;4.6597436523e+003;4.6682050781e+003;4.6587177734e+003;4.6639741211e+003;4.6542309570e+003;
1.0312500000e+000;4.5971796875e+003;4.6897436523e+003;4.6889741211e+003;4.6632050781e+003;4.6752563477e+003;4.6762822266e+003;4.6896152344e+003;4.6898715820e+003;4.6923076172e+003;4.6870512695e+003;4.6914101563e+003;4.6714101563e+003;4.6826923828e+003;4.6639741211e+003;
1.0390625000e+000;4.5538461914e+003;4.6507690430e+003;4.6428203125e+003;4.6200000000e+003;4.6351284180e+003;4.6420512695e+003;4.6496152344e+003;4.6538461914e+003;4.6553847656e+003;4.6423076172e+003;4.6378203125e+003;4.6226923828e+003;4.6423076172e+003;4.6208974609e+003;
1.0468750000e+000;4.5844873047e+003;4.6797436523e+003;4.6723076172e+003;4.6479487305e+003;4.6664101563e+003;4.6698715820e+003;4.6788461914e+003;4.6874360352e+003;4.6917949219e+003;4.6784614258e+003;4.6705126953e+003;4.6538461914e+003;4.6742309570e+003;4.6546152344e+003;
1.0546875000e+000;4.4891025391e+003;4.5780771484e+003;4.5744873047e+003;4.5573076172e+003;4.5691025391e+003;4.5773076172e+003;4.5825639648e+003;4.6010258789e+003;4.6116665039e+003;4.5957690430e+003;4.5970512695e+003;4.5751284180e+003;4.5750000000e+003;4.5674360352e+003;
1.0625000000e+000;4.1815385742e+003;4.2511538086e+003;4.2633334961e+003;4.2561538086e+003;4.2246152344e+003;4.2641025391e+003;4.2642309570e+003;4.2806411133e+003;4.2880771484e+003;4.2596152344e+003;4.2580771484e+003;4.2538461914e+003;4.2702563477e+003;4.2519228516e+003;
1.0703125000e+000;4.0741025391e+003;4.1308974609e+003;4.1541025391e+003;4.1491025391e+003;4.1073076172e+003;4.1537177734e+003;4.1529487305e+003;4.1630771484e+003;4.1685898438e+003;4.1357690430e+003;4.1384614258e+003;4.1393588867e+003;4.1546152344e+003;4.1414101563e+003;
1.0781250000e+000;4.0120512695e+003;4.0573076172e+003;4.0867949219e+003;4.0847436523e+003;4.0419230957e+003;4.0857692871e+003;4.0858974609e+003;4.0875642090e+003;4.0903845215e+003;4.0567949219e+003;4.0705129395e+003;4.0712819824e+003;4.0798718262e+003;4.0751281738e+003;
1.0859375000e+000;4.0096154785e+003;4.0396154785e+003;4.0705129395e+003;4.0755129395e+003;4.0373076172e+003;4.0635898438e+003;4.0673076172e+003;4.0601281738e+003;4.0571794434e+003;4.0320512695e+003;4.0708974609e+003;4.0641025391e+003;4.0553845215e+003;4.0635898438e+003;
1.0937500000e+000;3.8832050781e+003;3.8820512695e+003;3.9334614258e+003;3.9391025391e+003;3.8700000000e+003;3.9124357910e+003;3.9161538086e+003;3.9016667480e+003;3.8875642090e+003;3.8633332520e+003;3.9119230957e+003;3.9230769043e+003;3.9034614258e+003;3.9180769043e+003;
1.1015625000e+000;3.8526923828e+003;3.8424357910e+003;3.8969230957e+003;3.9000000000e+003;3.8292307129e+003;3.8735898438e+003;3.8780769043e+003;3.8597436523e+003;3.8425642090e+003;3.8167949219e+003;3.8662819824e+003;3.8824357910e+003;3.8660256348e+003;3.8806411133e+003;
1.1093750000e+000;3.8382050781e+003;3.8212819824e+003;3.8750000000e+003;3.8782050781e+003;3.8103845215e+003;3.8534614258e+003;3.8575642090e+003;3.8380769043e+003;3.8184614258e+003;3.7920512695e+003;3.8432050781e+003;3.8603845215e+003;3.8455129395e+003;3.8603845215e+003;
1.1171875000e+000;3.7828205566e+003;3.7543588867e+003;3.8050000000e+003;3.8230769043e+003;3.7500000000e+003;3.7971794434e+003;3.8007692871e+003;3.7770512695e+003;3.7553845215e+003;3.7239743652e+003;3.7821794434e+003;3.7969230957e+003;3.7728205566e+003;3.7926923828e+003;
1.1250000000e+000;3.7680769043e+003;3.7338461914e+003;3.7832050781e+003;3.8114101563e+003;3.7307692871e+003;3.7807692871e+003;3.7867949219e+003;3.7584614258e+003;3.7387180176e+003;3.7032050781e+003;3.7633332520e+003;3.7770512695e+003;3.7497436523e+003;3.7715385742e+003;
1.1328125000e+000;3.7867949219e+003;3.7487180176e+003;3.7961538086e+003;3.8311538086e+003;3.7455129395e+003;3.7951281738e+003;3.8037180176e+003;3.7742307129e+003;3.7584614258e+003;3.7206411133e+003;3.7779487305e+003;3.7915385742e+003;3.7662819824e+003;3.7871794434e+003;
1.1406250000e+000;3.7903845215e+003;3.7379487305e+003;3.7771794434e+003;3.8157692871e+003;3.7351281738e+003;3.8032050781e+003;3.7985898438e+003;3.7800000000e+003;3.7858974609e+003;3.7261538086e+003;3.7696154785e+003;3.7714101563e+003;3.7703845215e+003;3.7769230957e+003;
1.1484375000e+000;3.8164101563e+003;3.7602563477e+003;3.7964101563e+003;3.8396154785e+003;3.7608974609e+003;3.8257692871e+003;3.8226923828e+003;3.8087180176e+003;3.8171794434e+003;3.7555129395e+003;3.7966667480e+003;3.7938461914e+003;3.7924357910e+003;3.7992307129e+003;
1.1562500000e+000;3.7553845215e+003;3.6870512695e+003;3.7284614258e+003;3.7752563477e+003;3.6856411133e+003;3.7585898438e+003;3.7546154785e+003;3.7524357910e+003;3.7598718262e+003;3.7025642090e+003;3.7315385742e+003;3.7382050781e+003;3.7255129395e+003;3.7360256348e+003;
1.1640625000e+000;3.7865385742e+003;3.7010256348e+003;3.7487180176e+003;3.7812819824e+003;3.7019230957e+003;3.7678205566e+003;3.7643588867e+003;3.7638461914e+003;3.7830769043e+003;3.7188461914e+003;3.7397436523e+003;3.7470512695e+003;3.7461538086e+003;3.7539743652e+003;
1.1718750000e+000;3.7671794434e+003;3.6771794434e+003;3.7270512695e+003;3.7614101563e+003;3.6791025391e+003;3.7446154785e+003;3.7396154785e+003;3.7387180176e+003;3.7608974609e+003;3.6956411133e+003;3.7134614258e+003;3.7235898438e+003;3.7219230957e+003;3.7311538086e+003;
1.1796875000e+000;3.7702563477e+003;3.6778205566e+003;3.7160256348e+003;3.7689743652e+003;3.6717949219e+003;3.7325642090e+003;3.7278205566e+003;3.7201281738e+003;3.7356411133e+003;3.6800000000e+003;3.7084614258e+003;3.7193588867e+003;3.7060256348e+003;3.7201281738e+003;
1.1875000000e+000;3.7751281738e+003;3.6782050781e+003;3.7175642090e+003;3.7696154785e+003;3.6708974609e+003;3.7319230957e+003;3.7267949219e+003;3.7223076172e+003;3.7339743652e+003;3.6815385742e+003;3.7133332520e+003;3.7247436523e+003;3.7073076172e+003;3.7232050781e+003;
1.1953125000e+000;3.7017949219e+003;3.5834614258e+003;3.6405129395e+003;3.6851281738e+003;3.5844870605e+003;3.6497436523e+003;3.6451281738e+003;3.6383332520e+003;3.6460256348e+003;3.5920512695e+003;3.6305129395e+003;3.6491025391e+003;3.6276923828e+003;3.6475642090e+003;
1.2031250000e+000;3.6851281738e+003;3.5591025391e+003;3.6205129395e+003;3.6638461914e+003;3.5647436523e+003;3.6262819824e+003;3.6238461914e+003;3.6125642090e+003;3.6194870605e+003;3.5644870605e+003;3.6085898438e+003;3.6279487305e+003;3.6078205566e+003;3.6285898438e+003;
1.2109375000e+000;3.6955129395e+003;3.5683332520e+003;3.6275642090e+003;3.6712819824e+003;3.5742307129e+003;3.6298718262e+003;3.6298718262e+003;3.6166667480e+003;3.6214101563e+003;3.5688461914e+003;3.6171794434e+003;3.6342307129e+003;3.6160256348e+003;3.6369230957e+003;
1.2187500000e+000;3.7011538086e+003;3.5764101563e+003;3.6310256348e+003;3.6757692871e+003;3.5789743652e+003;3.6324357910e+003;3.6335898438e+003;3.6206411133e+003;3.6205129395e+003;3.5732050781e+003;3.6221794434e+003;3.6373076172e+003;3.6203845215e+003;3.6407692871e+003;
1.2265625000e+000;3.6619230957e+003;3.5237180176e+003;3.5816667480e+003;3.6255129395e+003;3.5300000000e+003;3.5896154785e+003;3.5935898438e+003;3.5752563477e+003;3.5639743652e+003;3.5216667480e+003;3.5589743652e+003;3.5832050781e+003;3.5700000000e+003;3.5879487305e+003;
1.2343750000e+000;3.6117949219e+003;3.4619230957e+003;3.5225642090e+003;3.5783332520e+003;3.4615385742e+003;3.5478205566e+003;3.5519230957e+003;3.5291025391e+003;3.5252563477e+003;3.4662819824e+003;3.5030769043e+003;3.5179487305e+003;3.4982050781e+003;3.5175642090e+003;
1.2421875000e+000;3.6453845215e+003;3.4935898438e+003;3.5511538086e+003;3.6038461914e+003;3.4938461914e+003;3.5782050781e+003;3.5826923828e+003;3.5605129395e+003;3.5574357910e+003;3.5015385742e+003;3.5320512695e+003;3.5452563477e+003;3.5282050781e+003;3.5451281738e+003;
1.2500000000e+000;3.6587180176e+003;3.5035898438e+003;3.5614101563e+003;3.6106411133e+003;3.5188461914e+003;3.5908974609e+003;3.5884614258e+003;3.5770512695e+003;3.5771794434e+003;3.5225642090e+003;3.5480769043e+003;3.5571794434e+003;3.5416667480e+003;3.5600000000e+003;
1.2578125000e+000;3.6301281738e+003;3.4750000000e+003;3.5333332520e+003;3.5880769043e+003;3.5001281738e+003;3.5673076172e+003;3.5623076172e+003;3.5501281738e+003;3.5541025391e+003;3.4955129395e+003;3.5235898438e+003;3.5296154785e+003;3.5151281738e+003;3.5342307129e+003;
1.2656250000e+000;3.6797436523e+003;3.5260256348e+003;3.5750000000e+003;3.6442307129e+003;3.5535898438e+003;3.6182050781e+003;3.6146154785e+003;3.5974357910e+003;3.6148718262e+003;3.5551281738e+003;3.5626923828e+003;3.5689743652e+003;3.5667949219e+003;3.5753845215e+003;
1.2734375000e+000;3.6815385742e+003;3.5265385742e+003;3.5742307129e+003;3.6420512695e+003;3.5473076172e+003;3.6166667480e+003;3.6098718262e+003;3.5952563477e+003;3.6132050781e+003;3.5548718262e+003;3.5544870605e+003;3.5660256348e+003;3.5635898438e+003;3.5708974609e+003;
1.2812500000e+000;3.6880769043e+003;3.5337180176e+003;3.5687180176e+003;3.6342307129e+003;3.5420512695e+003;3.6037180176e+003;3.5930769043e+003;3.5769230957e+003;3.5957692871e+003;3.5344870605e+003;3.5543588867e+003;3.5635898438e+003;3.5597436523e+003;3.5687180176e+003;
1.2890625000e+000;3.6738461914e+003;3.5094870605e+003;3.5511538086e+003;3.6114101563e+003;3.5137180176e+003;3.5743588867e+003;3.5714101563e+003;3.5648718262e+003;3.5758974609e+003;3.5203845215e+003;3.5475642090e+003;3.5621794434e+003;3.5508974609e+003;3.5647436523e+003;
1.2968750000e+000;3.6766667480e+003;3.5048718262e+003;3.5511538086e+003;3.6093588867e+003;3.5088461914e+003;3.5700000000e+003;3.5685898438e+003;3.5601281738e+003;3.5660256348e+003;3.5141025391e+003;3.5460256348e+003;3.5600000000e+003;3.5469230957e+003;3.5635898438e+003;
1.3046875000e+000;3.7110256348e+003;3.5347436523e+003;3.5811538086e+003;3.6383332520e+003;3.5380769043e+003;3.5952563477e+003;3.5942307129e+003;3.5852563477e+003;3.5875642090e+003;3.5405129395e+003;3.5764101563e+003;3.5870512695e+003;3.5743588867e+003;3.5924357910e+003;
1.3125000000e+000;3.7444870605e+003;3.5696154785e+003;3.6124357910e+003;3.6743588867e+003;3.5710256348e+003;3.6221794434e+003;3.6225642090e+003;3.6151281738e+003;3.6133332520e+003;3.5732050781e+003;3.6069230957e+003;3.6173076172e+003;3.6051281738e+003;3.6230769043e+003;
1.3203125000e+000;3.7357692871e+003;3.5655129395e+003;3.6071794434e+003;3.6696154785e+003;3.5678205566e+003;3.6196154785e+003;3.6301281738e+003;3.6129487305e+003;3.6028205566e+003;3.5648718262e+003;3.6000000000e+003;3.6148718262e+003;3.5996154785e+003;3.6175642090e+003;
1.3281250000e+000;3.7550000000e+003;3.5842307129e+003;3.6271794434e+003;3.6820512695e+003;3.5842307129e+003;3.6389743652e+003;3.6493588867e+003;3.6351281738e+003;3.6234614258e+003;3.5896154785e+003;3.6247436523e+003;3.6364101563e+003;3.6189743652e+003;3.6382050781e+003;
1.3359375000e+000;3.7398718262e+003;3.5670512695e+003;3.6143588867e+003;3.6624357910e+003;3.5630769043e+003;3.6266667480e+003;3.6343588867e+003;3.6235898438e+003;3.6115385742e+003;3.5798718262e+003;3.6129487305e+003;3.6230769043e+003;3.6017949219e+003;3.6228205566e+003;
1.3437500000e+000;3.6984614258e+003;3.5228205566e+003;3.5747436523e+003;3.6214101563e+003;3.5156411133e+003;3.5898718262e+003;3.5943588867e+003;3.5835898438e+003;3.5726923828e+003;3.5385898438e+003;3.5685898438e+003;3.5797436523e+003;3.5557692871e+003;3.5776923828e+003;
1.3515625000e+000;3.7080769043e+003;3.5361538086e+003;3.5771794434e+003;3.6470512695e+003;3.5552563477e+003;3.6098718262e+003;3.6110256348e+003;3.6005129395e+003;3.6098718262e+003;3.5617949219e+003;3.5810256348e+003;3.5876923828e+003;3.5717949219e+003;3.5883332520e+003;
1.3593750000e+000;3.6866667480e+003;3.5147436523e+003;3.5552563477e+003;3.6219230957e+003;3.5415385742e+003;3.5928205566e+003;3.5932050781e+003;3.5821794434e+003;3.5970512695e+003;3.5483332520e+003;3.5682050781e+003;3.5697436523e+003;3.5567949219e+003;3.5705129395e+003;
1.3671875000e+000;3.7314101563e+003;3.5708974609e+003;3.5960256348e+003;3.6534614258e+003;3.5838461914e+003;3.6393588867e+003;3.6353845215e+003;3.6312819824e+003;3.6488461914e+003;3.6039743652e+003;3.6102563477e+003;3.6034614258e+003;3.6070512695e+003;3.6006411133e+003;
1.3750000000e+000;3.7255129395e+003;3.5658974609e+003;3.5888461914e+003;3.6655129395e+003;3.5889743652e+003;3.6448718262e+003;3.6356411133e+003;3.6341025391e+003;3.6555129395e+003;3.6093588867e+003;3.6030769043e+003;3.5964101563e+003;3.5994870605e+003;3.5851281738e+003;
1.3828125000e+000;3.7297436523e+003;3.5771794434e+003;3.5932050781e+003;3.6719230957e+003;3.6021794434e+003;3.6520512695e+003;3.6443588867e+003;3.6393588867e+003;3.6632050781e+003;3.6179487305e+003;3.6115385742e+003;3.6012819824e+003;3.6091025391e+003;3.5902563477e+003;
1.3906250000e+000;3.6973076172e+003;3.5723076172e+003;3.5730769043e+003;3.6542307129e+003;3.5882050781e+003;3.6369230957e+003;3.6253845215e+003;3.6230769043e+003;3.6347436523e+003;3.6035898438e+003;3.5939743652e+003;3.5820512695e+003;3.5869230957e+003;3.5614101563e+003;
1.3984375000e+000;3.6851281738e+003;3.5567949219e+003;3.5620512695e+003;3.6442307129e+003;3.5776923828e+003;3.6267949219e+003;3.6153845215e+003;3.6092307129e+003;3.6157692871e+003;3.5885898438e+003;3.5821794434e+003;3.5719230957e+003;3.5697436523e+003;3.5452563477e+003;
1.4062500000e+000;3.7374357910e+003;3.6023076172e+003;3.6165385742e+003;3.6896154785e+003;3.6357692871e+003;3.6734614258e+003;3.6717949219e+003;3.6588461914e+003;3.6637180176e+003;3.6444870605e+003;3.6441025391e+003;3.6324357910e+003;3.6296154785e+003;3.5929487305e+003;
1.4140625000e+000;3.7053845215e+003;3.5755129395e+003;3.5874357910e+003;3.6605129395e+003;3.6062819824e+003;3.6452563477e+003;3.6441025391e+003;3.6275642090e+003;3.6301281738e+003;3.6124357910e+003;3.6123076172e+003;3.6028205566e+003;3.6026923828e+003;3.5607692871e+003;
1.4218750000e+000;3.6892307129e+003;3.5698718262e+003;3.5738461914e+003;3.6523076172e+003;3.5941025391e+003;3.6287180176e+003;3.6294870605e+003;3.6041025391e+003;3.6010256348e+003;3.5900000000e+003;3.5902563477e+003;3.5842307129e+003;3.5894870605e+003;3.5415385742e+003;
1.4296875000e+000;3.7233332520e+003;3.6066667480e+003;3.6098718262e+003;3.6889743652e+003;3.6292307129e+003;3.6574357910e+003;3.6598718262e+003;3.6367949219e+003;3.6347436523e+003;3.6279487305e+003;3.6252563477e+003;3.6193588867e+003;3.6256411133e+003;3.5761538086e+003;
1.4375000000e+000;3.7385898438e+003;3.6219230957e+003;3.6283332520e+003;3.7064101563e+003;3.6443588867e+003;3.6689743652e+003;3.6716667480e+003;3.6543588867e+003;3.6560256348e+003;3.6507692871e+003;3.6435898438e+003;3.6389743652e+003;3.6433332520e+003;3.5928205566e+003;
1.4453125000e+000;3.7171794434e+003;3.5987180176e+003;3.6096154785e+003;3.6871794434e+003;3.6221794434e+003;3.6478205566e+003;3.6496154785e+003;3.6367949219e+003;3.6426923828e+003;3.6350000000e+003;3.6243588867e+003;3.6225642090e+003;3.6230769043e+003;3.5716667480e+003;
1.4531250000e+000;3.6934614258e+003;3.5857692871e+003;3.5942307129e+003;3.6730769043e+003;3.6226923828e+003;3.6585898438e+003;3.6529487305e+003;3.6483332520e+003;3.6632050781e+003;3.6408974609e+003;3.6275642090e+003;3.6180769043e+003;3.6110256348e+003;3.5574357910e+003;
1.4609375000e+000;3.6370512695e+003;3.5344870605e+003;3.5353845215e+003;3.6342307129e+003;3.5784614258e+003;3.6193588867e+003;3.6130769043e+003;3.6066667480e+003;3.6232050781e+003;3.5980769043e+003;3.5705129395e+003;3.5611538086e+003;3.5644870605e+003;3.4912819824e+003;
1.4687500000e+000;3.6467949219e+003;3.5398718262e+003;3.5420512695e+003;3.6410256348e+003;3.5873076172e+003;3.6278205566e+003;3.6193588867e+003;3.6174357910e+003;3.6333332520e+003;3.6076923828e+003;3.5766667480e+003;3.5683332520e+003;3.5702563477e+003;3.4957692871e+003;
1.4765625000e+000;3.6056411133e+003;3.4916667480e+003;3.5057692871e+003;3.5933332520e+003;3.5353845215e+003;3.5960256348e+003;3.5824357910e+003;3.5819230957e+003;3.5973076172e+003;3.5664101563e+003;3.5360256348e+003;3.5256411133e+003;3.5183332520e+003;3.4526923828e+003;
1.4843750000e+000;3.6044870605e+003;3.4916667480e+003;3.5075642090e+003;3.5887180176e+003;3.5298718262e+003;3.5974357910e+003;3.5856411133e+003;3.5824357910e+003;3.5984614258e+003;3.5662819824e+003;3.5360256348e+003;3.5217949219e+003;3.5158974609e+003;3.4516667480e+003;
1.4921875000e+000;3.6276923828e+003;3.5153845215e+003;3.5232050781e+003;3.6112819824e+003;3.5593588867e+003;3.6070512695e+003;3.6020512695e+003;3.6014101563e+003;3.6129487305e+003;3.5870512695e+003;3.5488461914e+003;3.5391025391e+003;3.5364101563e+003;3.4638461914e+003;
1.5000000000e+000;3.6542307129e+003;3.5346154785e+003;3.5335898438e+003;3.6301281738e+003;3.5837180176e+003;3.6148718262e+003;3.6135898438e+003;3.6026923828e+003;3.6076923828e+003;3.5871794434e+003;3.5626923828e+003;3.5506411133e+003;3.5464101563e+003;3.4770512695e+003;
1.5078125000e+000;3.6821794434e+003;3.5630769043e+003;3.5647436523e+003;3.6538461914e+003;3.6060256348e+003;3.6411538086e+003;3.6389743652e+003;3.6285898438e+003;3.6338461914e+003;3.6187180176e+003;3.5911538086e+003;3.5779487305e+003;3.5757692871e+003;3.5080769043e+003;
1.5156250000e+000;3.6412819824e+003;3.5164101563e+003;3.5384614258e+003;3.6143588867e+003;3.5592307129e+003;3.5992307129e+003;3.5971794434e+003;3.5767949219e+003;3.5823076172e+003;3.5726923828e+003;3.5417949219e+003;3.5415385742e+003;3.5378205566e+003;3.4705129395e+003;
1.5234375000e+000;3.6676923828e+003;3.5439743652e+003;3.5617949219e+003;3.6400000000e+003;3.5880769043e+003;3.6192307129e+003;3.6197436523e+003;3.5987180176e+003;3.6024357910e+003;3.5974357910e+003;3.5706411133e+003;3.5697436523e+003;3.5664101563e+003;3.4971794434e+003;
1.5312500000e+000;3.6982050781e+003;3.5774357910e+003;3.5891025391e+003;3.6700000000e+003;3.6193588867e+003;3.6438461914e+003;3.6462819824e+003;3.6292307129e+003;3.6300000000e+003;3.6320512695e+003;3.6083332520e+003;3.6034614258e+003;3.6007692871e+003;3.5307692871e+003;
1.5390625000e+000;3.6939743652e+003;3.5752563477e+003;3.5848718262e+003;3.6666667480e+003;3.6100000000e+003;3.6360256348e+003;3.6410256348e+003;3.6280769043e+003;3.6267949219e+003;3.6337180176e+003;3.6120512695e+003;3.6012819824e+003;3.5994870605e+003;3.5315385742e+003;
1.5468750000e+000;3.7283332520e+003;3.6089743652e+003;3.6214101563e+003;3.6973076172e+003;3.6483332520e+003;3.6737180176e+003;3.6769230957e+003;3.6705129395e+003;3.6794870605e+003;3.6714101563e+003;3.6467949219e+003;3.6382050781e+003;3.6297436523e+003;3.5643588867e+003;
1.5546875000e+000;3.7071794434e+003;3.5914101563e+003;3.6011538086e+003;3.6794870605e+003;3.6328205566e+003;3.6632050781e+003;3.6626923828e+003;3.6615385742e+003;3.6692307129e+003;3.6585898438e+003;3.6311538086e+003;3.6226923828e+003;3.6133332520e+003;3.5467949219e+003;
1.5625000000e+000;3.6675642090e+003;3.5558974609e+003;3.5620512695e+003;3.6450000000e+003;3.5998718262e+003;3.6378205566e+003;3.6341025391e+003;3.6335898438e+003;3.6383332520e+003;3.6252563477e+003;3.5947436523e+003;3.5850000000e+003;3.5798718262e+003;3.5101281738e+003;
1.5703125000e+000;3.6451281738e+003;3.5362819824e+003;3.5387180176e+003;3.6266667480e+003;3.5843588867e+003;3.6273076172e+003;3.6221794434e+003;3.6198718262e+003;3.6229487305e+003;3.6057692871e+003;3.5715385742e+003;3.5592307129e+003;3.5620512695e+003;3.4876923828e+003;
1.5781250000e+000;3.6075642090e+003;3.4926923828e+003;3.4997436523e+003;3.5973076172e+003;3.5570512695e+003;3.6110256348e+003;3.6125642090e+003;3.6112819824e+003;3.6166667480e+003;3.5839743652e+003;3.5374357910e+003;3.5242307129e+003;3.5228205566e+003;3.4469230957e+003;
1.5859375000e+000;3.6867949219e+003;3.5760256348e+003;3.5791025391e+003;3.6725642090e+003;3.6355129395e+003;3.6774357910e+003;3.6714101563e+003;3.6742307129e+003;3.6866667480e+003;3.6567949219e+003;3.6096154785e+003;3.5935898438e+003;3.5992307129e+003;3.5317949219e+003;
1.5937500000e+000;3.6537180176e+003;3.5439743652e+003;3.5455129395e+003;3.6393588867e+003;3.6026923828e+003;3.6420512695e+003;3.6350000000e+003;3.6353845215e+003;3.6507692871e+003;3.6187180176e+003;3.5738461914e+003;3.5579487305e+003;3.5634614258e+003;3.4970512695e+003;
1.6015625000e+000;3.6405129395e+003;3.5321794434e+003;3.5264101563e+003;3.6196154785e+003;3.5782050781e+003;3.6192307129e+003;3.6167949219e+003;3.6051281738e+003;3.6205129395e+003;3.5938461914e+003;3.5602563477e+003;3.5384614258e+003;3.5451281738e+003;3.4767949219e+003;
1.6093750000e+000;3.6680769043e+003;3.5591025391e+003;3.5525642090e+003;3.6428205566e+003;3.5943588867e+003;3.6400000000e+003;3.6375642090e+003;3.6265385742e+003;3.6406411133e+003;3.6197436523e+003;3.5882050781e+003;3.5653845215e+003;3.5730769043e+003;3.5042307129e+003;
1.6171875000e+000;3.6573076172e+003;3.5382050781e+003;3.5444870605e+003;3.6271794434e+003;3.5734614258e+003;3.6137180176e+003;3.6052563477e+003;3.5973076172e+003;3.6112819824e+003;3.5906411133e+003;3.5596154785e+003;3.5541025391e+003;3.5605129395e+003;3.4952563477e+003;
1.6250000000e+000;3.7094870605e+003;3.5898718262e+003;3.5919230957e+003;3.6785898438e+003;3.6408974609e+003;3.6561538086e+003;3.6561538086e+003;3.6480769043e+003;3.6532050781e+003;3.6419230957e+003;3.6092307129e+003;3.6070512695e+003;3.6089743652e+003;3.5491025391e+003;
1.6328125000e+000;3.6847436523e+003;3.5647436523e+003;3.5673076172e+003;3.6575642090e+003;3.6125642090e+003;3.6364101563e+003;3.6350000000e+003;3.6251281738e+003;3.6283332520e+003;3.6187180176e+003;3.5856411133e+003;3.5842307129e+003;3.5824357910e+003;3.5256411133e+003;
1.6406250000e+000;3.6684614258e+003;3.5496154785e+003;3.5500000000e+003;3.6432050781e+003;3.5932050781e+003;3.6238461914e+003;3.6205129395e+003;3.6066667480e+003;3.6121794434e+003;3.6012819824e+003;3.5703845215e+003;3.5682050781e+003;3.5656411133e+003;3.5097436523e+003;
1.6484375000e+000;3.7141025391e+003;3.6030769043e+003;3.5920512695e+003;3.6826923828e+003;3.6417949219e+003;3.6667949219e+003;3.6641025391e+003;3.6505129395e+003;3.6658974609e+003;3.6548718262e+003;3.6270512695e+003;3.6178205566e+003;3.6210256348e+003;3.5605129395e+003;
1.6562500000e+000;3.7202563477e+003;3.6094870605e+003;3.5987180176e+003;3.6847436523e+003;3.6488461914e+003;3.6717949219e+003;3.6703845215e+003;3.6615385742e+003;3.6780769043e+003;3.6682050781e+003;3.6397436523e+003;3.6283332520e+003;3.6310256348e+003;3.5697436523e+003;
1.6640625000e+000;3.6958974609e+003;3.5743588867e+003;3.5719230957e+003;3.6617949219e+003;3.6157692871e+003;3.6470512695e+003;3.6491025391e+003;3.6419230957e+003;3.6506411133e+003;3.6347436523e+003;3.6028205566e+003;3.5939743652e+003;3.5944870605e+003;3.5333332520e+003;
1.6718750000e+000;3.7284614258e+003;3.6119230957e+003;3.6037180176e+003;3.6984614258e+003;3.6505129395e+003;3.6792307129e+003;3.6815385742e+003;3.6753845215e+003;3.6856411133e+003;3.6685898438e+003;3.6341025391e+003;3.6250000000e+003;3.6292307129e+003;3.5655129395e+003;
1.6796875000e+000;3.7194870605e+003;3.6128205566e+003;3.5991025391e+003;3.6925642090e+003;3.6452563477e+003;3.6748718262e+003;3.6766667480e+003;3.6716667480e+003;3.6864101563e+003;3.6676923828e+003;3.6321794434e+003;3.6244870605e+003;3.6264101563e+003;3.5651281738e+003;
1.6875000000e+000;3.6955129395e+003;3.5874357910e+003;3.5765385742e+003;3.6635898438e+003;3.6183332520e+003;3.6508974609e+003;3.6529487305e+003;3.6462819824e+003;3.6610256348e+003;3.6412819824e+003;3.6069230957e+003;3.6012819824e+003;3.5993588867e+003;3.5412819824e+003;
1.6953125000e+000;3.6979487305e+003;3.5858974609e+003;3.5782050781e+003;3.6589743652e+003;3.6165385742e+003;3.6488461914e+003;3.6511538086e+003;3.6447436523e+003;3.6585898438e+003;3.6396154785e+003;3.6041025391e+003;3.6007692871e+003;3.5973076172e+003;3.5405129395e+003;
1.7031250000e+000;3.7238461914e+003;3.6011538086e+003;3.6015385742e+003;3.6824357910e+003;3.6314101563e+003;3.6608974609e+003;3.6650000000e+003;3.6506411133e+003;3.6691025391e+003;3.6561538086e+003;3.6210256348e+003;3.6224357910e+003;3.6171794434e+003;3.5569230957e+003;
1.7109375000e+000;3.7716667480e+003;3.6498718262e+003;3.6493588867e+003;3.7239743652e+003;3.6770512695e+003;3.7037180176e+003;3.7100000000e+003;3.6978205566e+003;3.7137180176e+003;3.7056411133e+003;3.6701281738e+003;3.6684614258e+003;3.6647436523e+003;3.6038461914e+003;
1.7187500000e+000;3.7978205566e+003;3.6801281738e+003;3.6860256348e+003;3.7488461914e+003;3.7037180176e+003;3.7256411133e+003;3.7335898438e+003;3.7266667480e+003;3.7338461914e+003;3.7358974609e+003;3.7001281738e+003;3.6985898438e+003;3.7005129395e+003;3.6388461914e+003;
1.7265625000e+000;3.8747436523e+003;3.7608974609e+003;3.7598718262e+003;3.8212819824e+003;3.7839743652e+003;3.7994870605e+003;3.8139743652e+003;3.8034614258e+003;3.8170512695e+003;3.8205129395e+003;3.7851281738e+003;3.7875642090e+003;3.7921794434e+003;3.7242307129e+003;
1.7343750000e+000;3.8617949219e+003;3.7493588867e+003;3.7496154785e+003;3.8061538086e+003;3.7646154785e+003;3.7888461914e+003;3.8021794434e+003;3.7955129395e+003;3.8069230957e+003;3.8108974609e+003;3.7751281738e+003;3.7832050781e+003;3.7766667480e+003;3.7120512695e+003;
1.7421875000e+000;3.8729487305e+003;3.7678205566e+003;3.7611538086e+003;3.8219230957e+003;3.7805129395e+003;3.8012819824e+003;3.8130769043e+003;3.8071794434e+003;3.8128205566e+003;3.8198718262e+003;3.7901281738e+003;3.7935898438e+003;3.7791025391e+003;3.7248718262e+003;
1.7500000000e+000;3.8846154785e+003;3.7866667480e+003;3.7741025391e+003;3.8457692871e+003;3.8232050781e+003;3.8305129395e+003;3.8366667480e+003;3.8302563477e+003;3.8378205566e+003;3.8425642090e+003;3.7970512695e+003;3.8055129395e+003;3.8080769043e+003;3.7415385742e+003;
1.7578125000e+000;3.8971794434e+003;3.8042307129e+003;3.7885898438e+003;3.8560256348e+003;3.8380769043e+003;3.8452563477e+003;3.8526923828e+003;3.8453845215e+003;3.8523076172e+003;3.8556411133e+003;3.8108974609e+003;3.8207692871e+003;3.8251281738e+003;3.7528205566e+003;
1.7656250000e+000;3.9311538086e+003;3.8426923828e+003;3.8244870605e+003;3.8858974609e+003;3.8707692871e+003;3.8761538086e+003;3.8855129395e+003;3.8808974609e+003;3.8878205566e+003;3.8915385742e+003;3.8511538086e+003;3.8583332520e+003;3.8608974609e+003;3.7861538086e+003;
1.7734375000e+000;3.9479487305e+003;3.8571794434e+003;3.8470512695e+003;3.9021794434e+003;3.8817949219e+003;3.8856411133e+003;3.8969230957e+003;3.8975642090e+003;3.9061538086e+003;3.9115385742e+003;3.8787180176e+003;3.8815385742e+003;3.8746154785e+003;3.8042307129e+003;
1.7812500000e+000;3.9315385742e+003;3.8369230957e+003;3.8332050781e+003;3.8892307129e+003;3.8655129395e+003;3.8685898438e+003;3.8811538086e+003;3.8782050781e+003;3.8878205566e+003;3.8932050781e+003;3.8602563477e+003;3.8652563477e+003;3.8569230957e+003;3.7883332520e+003;
1.7890625000e+000;3.9423076172e+003;3.8650000000e+003;3.8528205566e+003;3.9080769043e+003;3.8911538086e+003;3.8928205566e+003;3.9028205566e+003;3.9007692871e+003;3.9124357910e+003;3.9161538086e+003;3.8770512695e+003;3.8841025391e+003;3.8807692871e+003;3.8134614258e+003;
1.7968750000e+000;3.9466667480e+003;3.8688461914e+003;3.8570512695e+003;3.9026923828e+003;3.8919230957e+003;3.9028205566e+003;3.9139743652e+003;3.8976923828e+003;3.9033332520e+003;3.9091025391e+003;3.8792307129e+003;3.8783332520e+003;3.8744870605e+003;3.8103845215e+003;
1.8046875000e+000;4.0617949219e+003;3.9820512695e+003;3.9680769043e+003;4.0094870605e+003;4.0058974609e+003;4.0061538086e+003;4.0230769043e+003;4.0037180176e+003;4.0100000000e+003;4.0220512695e+003;3.9896154785e+003;3.9869230957e+003;3.9861538086e+003;3.9200000000e+003;
1.8125000000e+000;4.1800000000e+003;4.1041025391e+003;4.0861538086e+003;4.1260258789e+003;4.1267949219e+003;4.1153847656e+003;4.1365385742e+003;4.1214101563e+003;4.1289741211e+003;4.1480771484e+003;4.1096152344e+003;4.1066665039e+003;4.1071796875e+003;4.0400000000e+003;
1.8203125000e+000;4.2453847656e+003;4.1780771484e+003;4.1560258789e+003;4.1985898438e+003;4.1987177734e+003;4.1801284180e+003;4.2029487305e+003;4.1944873047e+003;4.2023076172e+003;4.2257690430e+003;4.1824360352e+003;4.1805126953e+003;4.1793588867e+003;4.1138461914e+003;
1.8281250000e+000;4.3633334961e+003;4.3335898438e+003;4.2952563477e+003;4.3342309570e+003;4.3503847656e+003;4.3201284180e+003;4.3448715820e+003;4.3435898438e+003;4.3532050781e+003;4.3782050781e+003;4.3317949219e+003;4.3262822266e+003;4.3276923828e+003;4.2616665039e+003;
1.8359375000e+000;4.3698715820e+003;4.3444873047e+003;4.3057690430e+003;4.3394873047e+003;4.3608974609e+003;4.3305126953e+003;4.3543588867e+003;4.3583334961e+003;4.3665385742e+003;4.3953847656e+003;4.3433334961e+003;4.3379487305e+003;4.3402563477e+003;4.2714101563e+003;
1.8437500000e+000;4.3628203125e+003;4.3465385742e+003;4.3076923828e+003;4.3398715820e+003;4.3611538086e+003;4.3314101563e+003;4.3567949219e+003;4.3523076172e+003;4.3562822266e+003;4.3876923828e+003;4.3373076172e+003;4.3360258789e+003;4.3334614258e+003;4.2683334961e+003;
1.8515625000e+000;4.4385898438e+003;4.4376923828e+003;4.4065385742e+003;4.4162822266e+003;4.4446152344e+003;4.4098715820e+003;4.4330771484e+003;4.4402563477e+003;4.4520512695e+003;4.4844873047e+003;4.4291025391e+003;4.4330771484e+003;4.4262822266e+003;4.3628203125e+003;
1.8593750000e+000;4.3594873047e+003;4.3588461914e+003;4.3297436523e+003;4.3401284180e+003;4.3597436523e+003;4.3353847656e+003;4.3551284180e+003;4.3680771484e+003;4.3811538086e+003;4.4089741211e+003;4.3548715820e+003;4.3574360352e+003;4.3553847656e+003;4.2866665039e+003;
1.8671875000e+000;4.0157692871e+003;4.0041025391e+003;3.9860256348e+003;4.0143588867e+003;4.0005129395e+003;4.0119230957e+003;4.0223076172e+003;4.0379487305e+003;4.0478205566e+003;4.0601281738e+003;4.0173076172e+003;4.0170512695e+003;4.0184614258e+003;3.9501281738e+003;
1.8750000000e+000;3.8910256348e+003;3.8678205566e+003;3.8606411133e+003;3.8930769043e+003;3.8967949219e+003;3.8932050781e+003;3.9050000000e+003;3.8978205566e+003;3.9084614258e+003;3.9087180176e+003;3.8785898438e+003;3.8842307129e+003;3.8811538086e+003;3.8251281738e+003;
1.8828125000e+000;3.8997436523e+003;3.8707692871e+003;3.8661538086e+003;3.9001281738e+003;3.9039743652e+003;3.8971794434e+003;3.9098718262e+003;3.9034614258e+003;3.9155129395e+003;3.9125642090e+003;3.8835898438e+003;3.8888461914e+003;3.8867949219e+003;3.8291025391e+003;
1.8906250000e+000;3.8816667480e+003;3.8453845215e+003;3.8462819824e+003;3.8821794434e+003;3.8774357910e+003;3.8771794434e+003;3.8880769043e+003;3.8850000000e+003;3.8975642090e+003;3.8908974609e+003;3.8628205566e+003;3.8685898438e+003;3.8642307129e+003;3.8065385742e+003;
1.8984375000e+000;3.8405129395e+003;3.7957692871e+003;3.8010256348e+003;3.8398718262e+003;3.8198718262e+003;3.8348718262e+003;3.8428205566e+003;3.8369230957e+003;3.8476923828e+003;3.8398718262e+003;3.8143588867e+003;3.8220512695e+003;3.8120512695e+003;3.7582050781e+003;
1.9062500000e+000;3.8798718262e+003;3.8365385742e+003;3.8357692871e+003;3.8743588867e+003;3.8579487305e+003;3.8684614258e+003;3.8787180176e+003;3.8698718262e+003;3.8791025391e+003;3.8767949219e+003;3.8514101563e+003;3.8570512695e+003;3.8494870605e+003;3.7955129395e+003;
1.9140625000e+000;3.9511538086e+003;3.9058974609e+003;3.9001281738e+003;3.9398718262e+003;3.9283332520e+003;3.9274357910e+003;3.9414101563e+003;3.9353845215e+003;3.9415385742e+003;3.9479487305e+003;3.9239743652e+003;3.9257692871e+003;3.9166667480e+003;3.8671794434e+003;
1.9218750000e+000;3.9456411133e+003;3.9047436523e+003;3.9017949219e+003;3.9339743652e+003;3.9211538086e+003;3.9260256348e+003;3.9384614258e+003;3.9352563477e+003;3.9441025391e+003;3.9491025391e+003;3.9207692871e+003;3.9276923828e+003;3.9108974609e+003;3.8700000000e+003;
1.9296875000e+000;3.9210256348e+003;3.8825642090e+003;3.8773076172e+003;3.9083332520e+003;3.8966667480e+003;3.9034614258e+003;3.9150000000e+003;3.9151281738e+003;3.9241025391e+003;3.9306411133e+003;3.8979487305e+003;3.9058974609e+003;3.8923076172e+003;3.8492307129e+003;
1.9375000000e+000;3.8678205566e+003;3.8275642090e+003;3.8223076172e+003;3.8571794434e+003;3.8424357910e+003;3.8534614258e+003;3.8643588867e+003;3.8628205566e+003;3.8712819824e+003;3.8764101563e+003;3.8424357910e+003;3.8506411133e+003;3.8423076172e+003;3.7958974609e+003;
1.9453125000e+000;3.8343588867e+003;3.7898718262e+003;3.7861538086e+003;3.8275642090e+003;3.8084614258e+003;3.8215385742e+003;3.8329487305e+003;3.8261538086e+003;3.8338461914e+003;3.8356411133e+003;3.8039743652e+003;3.8100000000e+003;3.8078205566e+003;3.7585898438e+003;
1.9531250000e+000;3.9375642090e+003;3.8920512695e+003;3.8937180176e+003;3.9316667480e+003;3.9146154785e+003;3.9179487305e+003;3.9289743652e+003;3.9311538086e+003;3.9380769043e+003;3.9400000000e+003;3.9084614258e+003;3.9187180176e+003;3.9046154785e+003;3.8610256348e+003;
1.9609375000e+000;3.9187180176e+003;3.8702563477e+003;3.8726923828e+003;3.9093588867e+003;3.8900000000e+003;3.8952563477e+003;3.9091025391e+003;3.9058974609e+003;3.9120512695e+003;3.9143588867e+003;3.8844870605e+003;3.8983332520e+003;3.8826923828e+003;3.8379487305e+003;
1.9687500000e+000;4.0788461914e+003;4.0366667480e+003;4.0314101563e+003;4.0598718262e+003;4.0483332520e+003;4.0420512695e+003;4.0641025391e+003;4.0553845215e+003;4.0582050781e+003;4.0756411133e+003;4.0471794434e+003;4.0479487305e+003;4.0493588867e+003;3.9975642090e+003;
1.9765625000e+000;4.1485898438e+003;4.1234614258e+003;4.1105126953e+003;4.1308974609e+003;4.1337177734e+003;4.1228203125e+003;4.1441025391e+003;4.1375639648e+003;4.1419228516e+003;4.1625639648e+003;4.1344873047e+003;4.1384614258e+003;4.1294873047e+003;4.0846154785e+003;
1.9843750000e+000;4.1746152344e+003;4.1521796875e+003;4.1353847656e+003;4.1562822266e+003;4.1628203125e+003;4.1488461914e+003;4.1728203125e+003;4.1667949219e+003;4.1716665039e+003;4.1919228516e+003;4.1606411133e+003;4.1653847656e+003;4.1591025391e+003;4.1111538086e+003;
1.9921875000e+000;4.1747436523e+003;4.1530771484e+003;4.1428203125e+003;4.1610258789e+003;4.1657690430e+003;4.1576923828e+003;4.1823076172e+003;4.1788461914e+003;4.1765385742e+003;4.2006411133e+003;4.1621796875e+003;4.1714101563e+003;4.1675639648e+003;4.1150000000e+003;
2.0000000000e+000;4.1882050781e+003;4.1688461914e+003;4.1597436523e+003;4.1743588867e+003;4.1808974609e+003;4.1720512695e+003;4.1952563477e+003;4.1914101563e+003;4.1887177734e+003;4.2142309570e+003;4.1779487305e+003;4.1879487305e+003;4.1825639648e+003;4.1319228516e+003;
2.0078125000e+000;4.2179487305e+003;4.2106411133e+003;4.1956411133e+003;4.2091025391e+003;4.2175639648e+003;4.2032050781e+003;4.2229487305e+003;4.2237177734e+003;4.2261538086e+003;4.2538461914e+003;4.2164101563e+003;4.2241025391e+003;4.2215385742e+003;4.1710258789e+003;
2.0156250000e+000;4.1939741211e+003;4.1917949219e+003;4.1744873047e+003;4.1917949219e+003;4.1960258789e+003;4.1826923828e+003;4.2021796875e+003;4.2025639648e+003;4.2069228516e+003;4.2343588867e+003;4.1948715820e+003;4.2019228516e+003;4.2019228516e+003;4.1488461914e+003;
2.0234375000e+000;4.2021796875e+003;4.2017949219e+003;4.1832050781e+003;4.1994873047e+003;4.2051284180e+003;4.1867949219e+003;4.2112822266e+003;4.2062822266e+003;4.2139741211e+003;4.2416665039e+003;4.2121796875e+003;4.2110258789e+003;4.2101284180e+003;4.1553847656e+003;
2.0312500000e+000;4.2241025391e+003;4.2220512695e+003;4.2062822266e+003;4.2194873047e+003;4.2264101563e+003;4.2069228516e+003;4.2305126953e+003;4.2292309570e+003;4.2376923828e+003;4.2665385742e+003;4.2408974609e+003;4.2357690430e+003;4.2320512695e+003;4.1812822266e+003;
2.0390625000e+000;4.2242309570e+003;4.2203847656e+003;4.2079487305e+003;4.2217949219e+003;4.2251284180e+003;4.2087177734e+003;4.2310258789e+003;4.2306411133e+003;4.2389741211e+003;4.2679487305e+003;4.2434614258e+003;4.2362822266e+003;4.2323076172e+003;4.1846152344e+003;
2.0468750000e+000;4.2224360352e+003;4.2185898438e+003;4.2070512695e+003;4.2239741211e+003;4.2225639648e+003;4.2096152344e+003;4.2321796875e+003;4.2284614258e+003;4.2364101563e+003;4.2647436523e+003;4.2382050781e+003;4.2310258789e+003;4.2314101563e+003;4.1833334961e+003;
2.0546875000e+000;4.2830771484e+003;4.2993588867e+003;4.2789741211e+003;4.2880771484e+003;4.3000000000e+003;4.2761538086e+003;4.3019228516e+003;4.3061538086e+003;4.3097436523e+003;4.3393588867e+003;4.3034614258e+003;4.3073076172e+003;4.3039741211e+003;4.2576923828e+003;
2.0625000000e+000;4.3414101563e+003;4.3705126953e+003;4.3474360352e+003;4.3533334961e+003;4.3625639648e+003;4.3367949219e+003;4.3652563477e+003;4.3678203125e+003;4.3732050781e+003;4.4057690430e+003;4.3688461914e+003;4.3675639648e+003;4.3693588867e+003;4.3261538086e+003;
2.0703125000e+000;4.3288461914e+003;4.3630771484e+003;4.3392309570e+003;4.3429487305e+003;4.3538461914e+003;4.3276923828e+003;4.3543588867e+003;4.3597436523e+003;4.3648715820e+003;4.3984614258e+003;4.3593588867e+003;4.3616665039e+003;4.3611538086e+003;4.3171796875e+003;
2.0781250000e+000;4.2756411133e+003;4.3142309570e+003;4.2901284180e+003;4.2935898438e+003;4.3117949219e+003;4.2833334961e+003;4.3087177734e+003;4.3079487305e+003;4.3102563477e+003;4.3417949219e+003;4.3125639648e+003;4.3161538086e+003;4.3079487305e+003;4.2667949219e+003;
2.0859375000e+000;4.2944873047e+003;4.3324360352e+003;4.3080771484e+003;4.3129487305e+003;4.3334614258e+003;4.3016665039e+003;4.3280771484e+003;4.3248715820e+003;4.3271796875e+003;4.3592309570e+003;4.3341025391e+003;4.3326923828e+003;4.3262822266e+003;4.2856411133e+003;
2.0937500000e+000;4.2814101563e+003;4.3217949219e+003;4.3061538086e+003;4.3030771484e+003;4.3058974609e+003;4.2941025391e+003;4.3176923828e+003;4.3174360352e+003;4.3230771484e+003;4.3548715820e+003;4.3194873047e+003;4.3196152344e+003;4.3161538086e+003;4.2791025391e+003;
2.1015625000e+000;4.2860258789e+003;4.3355126953e+003;4.3138461914e+003;4.3121796875e+003;4.3275639648e+003;4.3087177734e+003;4.3280771484e+003;4.3284614258e+003;4.3323076172e+003;4.3630771484e+003;4.3280771484e+003;4.3296152344e+003;4.3253847656e+003;4.2860258789e+003;
2.1093750000e+000;4.2774360352e+003;4.3239741211e+003;4.3066665039e+003;4.3057690430e+003;4.3271796875e+003;4.3012822266e+003;4.3194873047e+003;4.3237177734e+003;4.3243588867e+003;4.3573076172e+003;4.3246152344e+003;4.3224360352e+003;4.3187177734e+003;4.2785898438e+003;
2.1171875000e+000;4.1993588867e+003;4.2380771484e+003;4.2339741211e+003;4.2279487305e+003;4.2465385742e+003;4.2210258789e+003;4.2424360352e+003;4.2429487305e+003;4.2433334961e+003;4.2725639648e+003;4.2438461914e+003;4.2425639648e+003;4.2458974609e+003;4.2071796875e+003;
2.1250000000e+000;4.2015385742e+003;4.2416665039e+003;4.2350000000e+003;4.2311538086e+003;4.2448715820e+003;4.2226923828e+003;4.2442309570e+003;4.2467949219e+003;4.2493588867e+003;4.2752563477e+003;4.2437177734e+003;4.2461538086e+003;4.2508974609e+003;4.2124360352e+003;
2.1328125000e+000;4.1707690430e+003;4.2103847656e+003;4.1992309570e+003;4.2052563477e+003;4.2096152344e+003;4.1964101563e+003;4.2158974609e+003;4.2188461914e+003;4.2212822266e+003;4.2415385742e+003;4.2126923828e+003;4.2153847656e+003;4.2158974609e+003;4.1816665039e+003;
2.1406250000e+000;4.1741025391e+003;4.2123076172e+003;4.1998715820e+003;4.2075639648e+003;4.2128203125e+003;4.1987177734e+003;4.2198715820e+003;4.2184614258e+003;4.2196152344e+003;4.2401284180e+003;4.2165385742e+003;4.2142309570e+003;4.2155126953e+003;4.1814101563e+003;
2.1484375000e+000;4.2712822266e+003;4.3111538086e+003;4.3014101563e+003;4.2958974609e+003;4.3135898438e+003;4.2912822266e+003;4.3103847656e+003;4.3161538086e+003;4.3192309570e+003;4.3489741211e+003;4.3147436523e+003;4.3094873047e+003;4.3212822266e+003;4.2776923828e+003;
2.1562500000e+000;4.2423076172e+003;4.2812822266e+003;4.2750000000e+003;4.2693588867e+003;4.2839741211e+003;4.2670512695e+003;4.2815385742e+003;4.2908974609e+003;4.2925639648e+003;4.3215385742e+003;4.2832050781e+003;4.2826923828e+003;4.2914101563e+003;4.2496152344e+003;
2.1640625000e+000;4.2100000000e+003;4.2473076172e+003;4.2420512695e+003;4.2398715820e+003;4.2496152344e+003;4.2369228516e+003;4.2496152344e+003;4.2588461914e+003;4.2570512695e+003;4.2843588867e+003;4.2482050781e+003;4.2500000000e+003;4.2538461914e+003;4.2162822266e+003;
2.1718750000e+000;4.2051284180e+003;4.2414101563e+003;4.2343588867e+003;4.2358974609e+003;4.2419228516e+003;4.2294873047e+003;4.2438461914e+003;4.2520512695e+003;4.2469228516e+003;4.2734614258e+003;4.2432050781e+003;4.2438461914e+003;4.2437177734e+003;4.2100000000e+003;
2.1796875000e+000;4.1621796875e+003;4.2014101563e+003;4.1967949219e+003;4.2011538086e+003;4.2025639648e+003;4.1921796875e+003;4.2115385742e+003;4.2110258789e+003;4.2132050781e+003;4.2379487305e+003;4.2046152344e+003;4.2035898438e+003;4.2119228516e+003;4.1696152344e+003;
2.1875000000e+000;4.1885898438e+003;4.2360258789e+003;4.2250000000e+003;4.2337177734e+003;4.2378203125e+003;4.2239741211e+003;4.2382050781e+003;4.2394873047e+003;4.2387177734e+003;4.2580771484e+003;4.2282050781e+003;4.2355126953e+003;4.2256411133e+003;4.2029487305e+003;
2.1953125000e+000;4.2174360352e+003;4.2641025391e+003;4.2521796875e+003;4.2610258789e+003;4.2660258789e+003;4.2505126953e+003;4.2661538086e+003;4.2617949219e+003;4.2634614258e+003;4.2810258789e+003;4.2511538086e+003;4.2592309570e+003;4.2529487305e+003;4.2279487305e+003;
2.2031250000e+000;4.3805126953e+003;4.4344873047e+003;4.4108974609e+003;4.4114101563e+003;4.4312822266e+003;4.4010258789e+003;4.4206411133e+003;4.4146152344e+003;4.4225639648e+003;4.4480771484e+003;4.4151284180e+003;4.4105126953e+003;4.4220512695e+003;4.3866665039e+003;
2.2109375000e+000;4.4743588867e+003;4.5416665039e+003;4.5093588867e+003;4.5042309570e+003;4.5275639648e+003;4.4902563477e+003;4.5100000000e+003;4.5121796875e+003;4.5094873047e+003;4.5475639648e+003;4.5187177734e+003;4.5120512695e+003;4.5226923828e+003;4.4856411133e+003;
2.2187500000e+000;4.5052563477e+003;4.5746152344e+003;4.5407690430e+003;4.5370512695e+003;4.5628203125e+003;4.5206411133e+003;4.5398715820e+003;4.5437177734e+003;4.5432050781e+003;4.5811538086e+003;4.5450000000e+003;4.5434614258e+003;4.5562822266e+003;4.5166665039e+003;
2.2265625000e+000;4.5008974609e+003;4.5746152344e+003;4.5460258789e+003;4.5394873047e+003;4.5648715820e+003;4.5237177734e+003;4.5424360352e+003;4.5506411133e+003;4.5520512695e+003;4.5898715820e+003;4.5457690430e+003;4.5506411133e+003;4.5524360352e+003;4.5238461914e+003;
2.2343750000e+000;4.4852563477e+003;4.5608974609e+003;4.5358974609e+003;4.5256411133e+003;4.5507690430e+003;4.5126923828e+003;4.5335898438e+003;4.5393588867e+003;4.5389741211e+003;4.5765385742e+003;4.5376923828e+003;4.5410258789e+003;4.5339741211e+003;4.5146152344e+003;
2.2421875000e+000;4.5455126953e+003;4.6341025391e+003;4.6037177734e+003;4.5894873047e+003;4.6226923828e+003;4.5787177734e+003;4.6030771484e+003;4.6085898438e+003;4.6083334961e+003;4.6520512695e+003;4.6167949219e+003;4.6097436523e+003;4.6065385742e+003;4.5879487305e+003;
2.2500000000e+000;4.5200000000e+003;4.6112822266e+003;4.5824360352e+003;4.5705126953e+003;4.5983334961e+003;4.5584614258e+003;4.5800000000e+003;4.5852563477e+003;4.5864101563e+003;4.6305126953e+003;4.5900000000e+003;4.5861538086e+003;4.5878203125e+003;4.5656411133e+003;
2.2578125000e+000;4.4770512695e+003;4.5679487305e+003;4.5442309570e+003;4.5321796875e+003;4.5470512695e+003;4.5196152344e+003;4.5412822266e+003;4.5388461914e+003;4.5391025391e+003;4.5801284180e+003;4.5370512695e+003;4.5410258789e+003;4.5442309570e+003;4.5215385742e+003;
2.2656250000e+000;4.4901284180e+003;4.5821796875e+003;4.5579487305e+003;4.5437177734e+003;4.5578203125e+003;4.5320512695e+003;4.5564101563e+003;4.5544873047e+003;4.5524360352e+003;4.5932050781e+003;4.5515385742e+003;4.5555126953e+003;4.5553847656e+003;4.5344873047e+003;
2.2734375000e+000;4.4187177734e+003;4.5162822266e+003;4.4919228516e+003;4.4805126953e+003;4.5048715820e+003;4.4739741211e+003;4.4987177734e+003;4.4989741211e+003;4.4938461914e+003;4.5316665039e+003;4.4993588867e+003;4.5003847656e+003;4.4857690430e+003;4.4696152344e+003;
2.2812500000e+000;4.4253847656e+003;4.5221796875e+003;4.4985898438e+003;4.4871796875e+003;4.5170512695e+003;4.4801284180e+003;4.5048715820e+003;4.5011538086e+003;4.4984614258e+003;4.5361538086e+003;4.5066665039e+003;4.5066665039e+003;4.4938461914e+003;4.4769228516e+003;
2.2890625000e+000;4.4742309570e+003;4.5694873047e+003;4.5469228516e+003;4.5330771484e+003;4.5673076172e+003;4.5242309570e+003;4.5489741211e+003;4.5453847656e+003;4.5452563477e+003;4.5858974609e+003;4.5553847656e+003;4.5537177734e+003;4.5458974609e+003;4.5275639648e+003;
2.2968750000e+000;4.5228203125e+003;4.6167949219e+003;4.5960258789e+003;4.5794873047e+003;4.6139741211e+003;4.5691025391e+003;4.5929487305e+003;4.5939741211e+003;4.5942309570e+003;4.6394873047e+003;4.6048715820e+003;4.6020512695e+003;4.5987177734e+003;4.5797436523e+003;
2.3046875000e+000;4.6426923828e+003;4.7578203125e+003;4.7244873047e+003;4.7120512695e+003;4.7392309570e+003;4.6933334961e+003;4.7228203125e+003;4.7232050781e+003;4.7147436523e+003;4.7694873047e+003;4.7319228516e+003;4.7287177734e+003;4.7282050781e+003;4.7051284180e+003;
2.3125000000e+000;4.6998715820e+003;4.8208974609e+003;4.7851284180e+003;4.7705126953e+003;4.7998715820e+003;4.7482050781e+003;4.7773076172e+003;4.7835898438e+003;4.7748715820e+003;4.8335898438e+003;4.7934614258e+003;4.7891025391e+003;4.7897436523e+003;4.7638461914e+003;
2.3203125000e+000;4.6123076172e+003;4.7280771484e+003;4.7126923828e+003;4.6902563477e+003;4.7125639648e+003;4.6707690430e+003;4.6915385742e+003;4.7062822266e+003;4.6960258789e+003;4.7521796875e+003;4.7092309570e+003;4.7073076172e+003;4.7050000000e+003;4.6820512695e+003;
2.3281250000e+000;4.6343588867e+003;4.7656411133e+003;4.7443588867e+003;4.7284614258e+003;4.7471796875e+003;4.7052563477e+003;4.7333334961e+003;4.7410258789e+003;4.7305126953e+003;4.7857690430e+003;4.7456411133e+003;4.7465385742e+003;4.7400000000e+003;4.7208974609e+003;
2.3359375000e+000;4.6430771484e+003;4.7788461914e+003;4.7538461914e+003;4.7394873047e+003;4.7580771484e+003;4.7153847656e+003;4.7441025391e+003;4.7505126953e+003;4.7415385742e+003;4.7971796875e+003;4.7578203125e+003;4.7584614258e+003;4.7557690430e+003;4.7344873047e+003;
2.3437500000e+000;4.5821796875e+003;4.7193588867e+003;4.6974360352e+003;4.6865385742e+003;4.7117949219e+003;4.6661538086e+003;4.6888461914e+003;4.7037177734e+003;4.7020512695e+003;4.7547436523e+003;4.7116665039e+003;4.7062822266e+003;4.7126923828e+003;4.6829487305e+003;
2.3515625000e+000;4.4920512695e+003;4.6266665039e+003;4.6125639648e+003;4.6038461914e+003;4.6251284180e+003;4.5893588867e+003;4.6074360352e+003;4.6230771484e+003;4.6206411133e+003;4.6702563477e+003;4.6253847656e+003;4.6220512695e+003;4.6248715820e+003;4.5957690430e+003;
2.3593750000e+000;4.3361538086e+003;4.4632050781e+003;4.4589741211e+003;4.4547436523e+003;4.4664101563e+003;4.4501284180e+003;4.4642309570e+003;4.4669228516e+003;4.4638461914e+003;4.5028203125e+003;4.4634614258e+003;4.4666665039e+003;4.4642309570e+003;4.4384614258e+003;
2.3671875000e+000;4.3280771484e+003;4.4521796875e+003;4.4474360352e+003;4.4441025391e+003;4.4534614258e+003;4.4378203125e+003;4.4529487305e+003;4.4530771484e+003;4.4523076172e+003;4.4869228516e+003;4.4515385742e+003;4.4550000000e+003;4.4523076172e+003;4.4292309570e+003;
2.3750000000e+000;4.2797436523e+003;4.3906411133e+003;4.3938461914e+003;4.3925639648e+003;4.3858974609e+003;4.3742309570e+003;4.3876923828e+003;4.3988461914e+003;4.4028203125e+003;4.4306411133e+003;4.3992309570e+003;4.4035898438e+003;4.3984614258e+003;4.3821796875e+003;
2.3828125000e+000;4.2484614258e+003;4.3539741211e+003;4.3593588867e+003;4.3597436523e+003;4.3505126953e+003;4.3412822266e+003;4.3534614258e+003;4.3620512695e+003;4.3666665039e+003;4.3917949219e+003;4.3635898438e+003;4.3669228516e+003;4.3651284180e+003;4.3453847656e+003;
2.3906250000e+000;4.2448715820e+003;4.3469228516e+003;4.3505126953e+003;4.3534614258e+003;4.3441025391e+003;4.3342309570e+003;4.3457690430e+003;4.3516665039e+003;4.3574360352e+003;4.3806411133e+003;4.3556411133e+003;4.3560258789e+003;4.3578203125e+003;4.3348715820e+003;
2.3984375000e+000;4.1925639648e+003;4.2896152344e+003;4.2889741211e+003;4.3088461914e+003;4.2802563477e+003;4.2784614258e+003;4.2911538086e+003;4.2858974609e+003;4.2870512695e+003;4.3084614258e+003;4.2865385742e+003;4.2951284180e+003;4.2914101563e+003;4.2750000000e+003;
2.4062500000e+000;4.2166665039e+003;4.3098715820e+003;4.3085898438e+003;4.3276923828e+003;4.3039741211e+003;4.3008974609e+003;4.3115385742e+003;4.3088461914e+003;4.3093588867e+003;4.3315385742e+003;4.3106411133e+003;4.3146152344e+003;4.3169228516e+003;4.2946152344e+003;
2.4140625000e+000;4.1423076172e+003;4.2225639648e+003;4.2324360352e+003;4.2544873047e+003;4.2239741211e+003;4.2265385742e+003;4.2341025391e+003;4.2344873047e+003;4.2392309570e+003;4.2528203125e+003;4.2314101563e+003;4.2365385742e+003;4.2334614258e+003;4.2157690430e+003;
2.4218750000e+000;4.1243588867e+003;4.2053847656e+003;4.2153847656e+003;4.2385898438e+003;4.2044873047e+003;4.2061538086e+003;4.2161538086e+003;4.2152563477e+003;4.2206411133e+003;4.2339741211e+003;4.2108974609e+003;4.2180771484e+003;4.2153847656e+003;4.1989741211e+003;
2.4296875000e+000;4.0929487305e+003;4.1748715820e+003;4.1834614258e+003;4.2065385742e+003;4.1700000000e+003;4.1748715820e+003;4.1843588867e+003;4.1884614258e+003;4.1879487305e+003;4.2030771484e+003;4.1832050781e+003;4.1884614258e+003;4.1853847656e+003;4.1694873047e+003;
2.4375000000e+000;4.0326923828e+003;4.0926923828e+003;4.0966665039e+003;4.1323076172e+003;4.0884614258e+003;4.1037177734e+003;4.1111538086e+003;4.1103847656e+003;4.1030771484e+003;4.1117949219e+003;4.1047436523e+003;4.1066665039e+003;4.1016665039e+003;4.0898718262e+003;
2.4453125000e+000;4.0337180176e+003;4.0888461914e+003;4.0955129395e+003;4.1292309570e+003;4.0825642090e+003;4.0982050781e+003;4.1064101563e+003;4.1069228516e+003;4.1017949219e+003;4.1115385742e+003;4.0980771484e+003;4.1037177734e+003;4.1019228516e+003;4.0856411133e+003;
2.4531250000e+000;4.0035898438e+003;4.0480769043e+003;4.0619230957e+003;4.0943588867e+003;4.0469230957e+003;4.0612819824e+003;4.0706411133e+003;4.0673076172e+003;4.0648718262e+003;4.0723076172e+003;4.0566667480e+003;4.0647436523e+003;4.0637180176e+003;4.0456411133e+003;
2.4609375000e+000;4.0200000000e+003;4.0629487305e+003;4.0742307129e+003;4.1087177734e+003;4.0633332520e+003;4.0751281738e+003;4.0851281738e+003;4.0803845215e+003;4.0780769043e+003;4.0853845215e+003;4.0717949219e+003;4.0765385742e+003;4.0753845215e+003;4.0610256348e+003;
2.4687500000e+000;4.0125642090e+003;4.0555129395e+003;4.0647436523e+003;4.1016665039e+003;4.0397436523e+003;4.0721794434e+003;4.0800000000e+003;4.0802563477e+003;4.0764101563e+003;4.0839743652e+003;4.0661538086e+003;4.0687180176e+003;4.0665385742e+003;4.0570512695e+003;
2.4765625000e+000;3.9821794434e+003;4.0202563477e+003;4.0323076172e+003;4.0692307129e+003;4.0044870605e+003;4.0424357910e+003;4.0503845215e+003;4.0465385742e+003;4.0434614258e+003;4.0465385742e+003;4.0315385742e+003;4.0352563477e+003;4.0319230957e+003;4.0198718262e+003;
2.4843750000e+000;4.0212819824e+003;4.0525642090e+003;4.0591025391e+003;4.0974360352e+003;4.0505129395e+003;4.0694870605e+003;4.0783332520e+003;4.0748718262e+003;4.0757692871e+003;4.0746154785e+003;4.0650000000e+003;4.0679487305e+003;4.0629487305e+003;4.0500000000e+003;
2.4921875000e+000;4.0398718262e+003;4.0694870605e+003;4.0728205566e+003;4.1112822266e+003;4.0726923828e+003;4.0810256348e+003;4.0896154785e+003;4.0916667480e+003;4.0937180176e+003;4.0944870605e+003;4.0830769043e+003;4.0870512695e+003;4.0802563477e+003;4.0706411133e+003;
2.5000000000e+000;3.9706411133e+003;3.9843588867e+003;3.9964101563e+003;4.0334614258e+003;3.9844870605e+003;3.9980769043e+003;4.0094870605e+003;4.0107692871e+003;4.0126923828e+003;4.0115385742e+003;3.9974357910e+003;4.0058974609e+003;3.9969230957e+003;3.9930769043e+003;
2.5078125000e+000;3.9698718262e+003;3.9789743652e+003;3.9938461914e+003;4.0306411133e+003;3.9792307129e+003;3.9939743652e+003;4.0056411133e+003;4.0071794434e+003;4.0093588867e+003;4.0067949219e+003;3.9916667480e+003;4.0012819824e+003;3.9935898438e+003;3.9876923828e+003;
2.5156250000e+000;3.9574357910e+003;3.9642307129e+003;3.9811538086e+003;4.0191025391e+003;3.9662819824e+003;3.9821794434e+003;3.9920512695e+003;3.9956411133e+003;3.9975642090e+003;3.9953845215e+003;3.9776923828e+003;3.9907692871e+003;3.9821794434e+003;3.9755129395e+003;
2.5234375000e+000;3.9200000000e+003;3.9255129395e+003;3.9439743652e+003;3.9846154785e+003;3.9294870605e+003;3.9480769043e+003;3.9562819824e+003;3.9598718262e+003;3.9601281738e+003;3.9600000000e+003;3.9407692871e+003;3.9580769043e+003;3.9465385742e+003;3.9412819824e+003;
2.5312500000e+000;3.8969230957e+003;3.8910256348e+003;3.9092307129e+003;3.9538461914e+003;3.8951281738e+003;3.9158974609e+003;3.9250000000e+003;3.9279487305e+003;3.9287180176e+003;3.9194870605e+003;3.9150000000e+003;3.9271794434e+003;3.9128205566e+003;3.9139743652e+003;
2.5390625000e+000;3.8755129395e+003;3.8639743652e+003;3.8876923828e+003;3.9311538086e+003;3.8719230957e+003;3.8939743652e+003;3.8993588867e+003;3.9053845215e+003;3.9052563477e+003;3.8934614258e+003;3.8894870605e+003;3.9032050781e+003;3.8847436523e+003;3.8892307129e+003;
2.5468750000e+000;3.8675642090e+003;3.8494870605e+003;3.8753845215e+003;3.9188461914e+003;3.8593588867e+003;3.8792307129e+003;3.8875642090e+003;3.8857692871e+003;3.8789743652e+003;3.8734614258e+003;3.8803845215e+003;3.8924357910e+003;3.8689743652e+003;3.8737180176e+003;
2.5546875000e+000;3.9075642090e+003;3.8820512695e+003;3.9124357910e+003;3.9512819824e+003;3.8907692871e+003;3.9071794434e+003;3.9220512695e+003;3.9216667480e+003;3.9155129395e+003;3.8998718262e+003;3.9111538086e+003;3.9296154785e+003;3.9114101563e+003;3.9023076172e+003;
2.5625000000e+000;3.8903845215e+003;3.8516667480e+003;3.8893588867e+003;3.9241025391e+003;3.8603845215e+003;3.8866667480e+003;3.8893588867e+003;3.8878205566e+003;3.8835898438e+003;3.8766667480e+003;3.8778205566e+003;3.9017949219e+003;3.8776923828e+003;3.8747436523e+003;
2.5703125000e+000;3.8885898438e+003;3.8529487305e+003;3.8853845215e+003;3.9202563477e+003;3.8603845215e+003;3.8871794434e+003;3.8908974609e+003;3.8834614258e+003;3.8782050781e+003;3.8697436523e+003;3.8788461914e+003;3.9017949219e+003;3.8744870605e+003;3.8734614258e+003;
2.5781250000e+000;4.0343588867e+003;4.0067949219e+003;4.0275642090e+003;4.0580769043e+003;4.0121794434e+003;4.0233332520e+003;4.0367949219e+003;4.0292307129e+003;4.0228205566e+003;4.0164101563e+003;4.0303845215e+003;4.0467949219e+003;4.0264101563e+003;4.0207692871e+003;
2.5859375000e+000;4.0993588867e+003;4.0739743652e+003;4.0941025391e+003;4.1215385742e+003;4.0779487305e+003;4.0825642090e+003;4.0988461914e+003;4.1000000000e+003;4.0937180176e+003;4.0930769043e+003;4.1000000000e+003;4.1137177734e+003;4.0958974609e+003;4.0893588867e+003;
2.5937500000e+000;3.9483332520e+003;3.9201281738e+003;3.9466667480e+003;3.9785898438e+003;3.9270512695e+003;3.9400000000e+003;3.9508974609e+003;3.9532050781e+003;3.9455129395e+003;3.9425642090e+003;3.9467949219e+003;3.9585898438e+003;3.9387180176e+003;3.9370512695e+003;
2.6015625000e+000;3.9226923828e+003;3.8929487305e+003;3.9170512695e+003;3.9515385742e+003;3.8991025391e+003;3.9158974609e+003;3.9250000000e+003;3.9239743652e+003;3.9162819824e+003;3.9087180176e+003;3.9169230957e+003;3.9257692871e+003;3.9108974609e+003;3.9057692871e+003;
2.6093750000e+000;3.9016667480e+003;3.8632050781e+003;3.8883332520e+003;3.9269230957e+003;3.8638461914e+003;3.8948718262e+003;3.9012819824e+003;3.9048718262e+003;3.8987180176e+003;3.8882050781e+003;3.8939743652e+003;3.9002563477e+003;3.8900000000e+003;3.8791025391e+003;
2.6171875000e+000;3.8521794434e+003;3.8080769043e+003;3.8361538086e+003;3.8774357910e+003;3.8091025391e+003;3.8464101563e+003;3.8528205566e+003;3.8561538086e+003;3.8512819824e+003;3.8393588867e+003;3.8439743652e+003;3.8519230957e+003;3.8370512695e+003;3.8288461914e+003;
2.6250000000e+000;3.7507692871e+003;3.7028205566e+003;3.7257692871e+003;3.7725642090e+003;3.7202563477e+003;3.7406411133e+003;3.7448718262e+003;3.7432050781e+003;3.7384614258e+003;3.7256411133e+003;3.7362819824e+003;3.7447436523e+003;3.7208974609e+003;3.7261538086e+003;
2.6328125000e+000;3.7303845215e+003;3.6778205566e+003;3.7024357910e+003;3.7526923828e+003;3.6979487305e+003;3.7182050781e+003;3.7201281738e+003;3.7191025391e+003;3.7133332520e+003;3.7002563477e+003;3.7112819824e+003;3.7212819824e+003;3.6998718262e+003;3.7042307129e+003;
2.6406250000e+000;3.7087180176e+003;3.6488461914e+003;3.6764101563e+003;3.7315385742e+003;3.6671794434e+003;3.6944870605e+003;3.6960256348e+003;3.6929487305e+003;3.6871794434e+003;3.6715385742e+003;3.6832050781e+003;3.6960256348e+003;3.6776923828e+003;3.6787180176e+003;
2.6484375000e+000;3.7062819824e+003;3.6401281738e+003;3.6678205566e+003;3.7270512695e+003;3.6534614258e+003;3.6880769043e+003;3.6920512695e+003;3.6853845215e+003;3.6814101563e+003;3.6620512695e+003;3.6747436523e+003;3.6898718262e+003;3.6733332520e+003;3.6707692871e+003;
2.6562500000e+000;3.7296154785e+003;3.6544870605e+003;3.6802563477e+003;3.7324357910e+003;3.6646154785e+003;3.6950000000e+003;3.7008974609e+003;3.6979487305e+003;3.6950000000e+003;3.6767949219e+003;3.6888461914e+003;3.7044870605e+003;3.6783332520e+003;3.6817949219e+003;
2.6640625000e+000;3.7566667480e+003;3.6774357910e+003;3.7019230957e+003;3.7542307129e+003;3.6879487305e+003;3.7162819824e+003;3.7234614258e+003;3.7152563477e+003;3.7121794434e+003;3.6947436523e+003;3.7058974609e+003;3.7229487305e+003;3.6997436523e+003;3.7038461914e+003;
2.6718750000e+000;3.9347436523e+003;3.8594870605e+003;3.8737180176e+003;3.9202563477e+003;3.8606411133e+003;3.8796154785e+003;3.8923076172e+003;3.8912819824e+003;3.8952563477e+003;3.8816667480e+003;3.8825642090e+003;3.8983332520e+003;3.8785898438e+003;3.8785898438e+003;
2.6796875000e+000;3.7535898438e+003;3.6723076172e+003;3.7015385742e+003;3.7394870605e+003;3.6776923828e+003;3.7089743652e+003;3.7165385742e+003;3.7115385742e+003;3.7144870605e+003;3.6967949219e+003;3.7033332520e+003;3.7161538086e+003;3.7008974609e+003;3.6970512695e+003;
2.6875000000e+000;3.7598718262e+003;3.6758974609e+003;3.7033332520e+003;3.7434614258e+003;3.6811538086e+003;3.7112819824e+003;3.7192307129e+003;3.7103845215e+003;3.7106411133e+003;3.6941025391e+003;3.7034614258e+003;3.7164101563e+003;3.7056411133e+003;3.6996154785e+003;
2.6953125000e+000;3.8252563477e+003;3.7417949219e+003;3.7583332520e+003;3.8094870605e+003;3.7391025391e+003;3.7684614258e+003;3.7698718262e+003;3.7648718262e+003;3.7615385742e+003;3.7494870605e+003;3.7571794434e+003;3.7780769043e+003;3.7605129395e+003;3.7589743652e+003;
2.7031250000e+000;3.7425642090e+003;3.6566667480e+003;3.6773076172e+003;3.7310256348e+003;3.6567949219e+003;3.6833332520e+003;3.6837180176e+003;3.6843588867e+003;3.6879487305e+003;3.6796154785e+003;3.6829487305e+003;3.6971794434e+003;3.6837180176e+003;3.6832050781e+003;
2.7109375000e+000;3.6862819824e+003;3.5965385742e+003;3.6206411133e+003;3.6726923828e+003;3.5960256348e+003;3.6267949219e+003;3.6289743652e+003;3.6253845215e+003;3.6275642090e+003;3.6183332520e+003;3.6257692871e+003;3.6379487305e+003;3.6255129395e+003;3.6243588867e+003;
2.7187500000e+000;3.7243588867e+003;3.6316667480e+003;3.6467949219e+003;3.6967949219e+003;3.6217949219e+003;3.6512819824e+003;3.6543588867e+003;3.6470512695e+003;3.6505129395e+003;3.6392307129e+003;3.6458974609e+003;3.6587180176e+003;3.6548718262e+003;3.6480769043e+003;
2.7265625000e+000;3.7244870605e+003;3.6332050781e+003;3.6457692871e+003;3.6993588867e+003;3.6224357910e+003;3.6521794434e+003;3.6507692871e+003;3.6487180176e+003;3.6547436523e+003;3.6424357910e+003;3.6457692871e+003;3.6591025391e+003;3.6561538086e+003;3.6503845215e+003;
2.7343750000e+000;3.6747436523e+003;3.5791025391e+003;3.5932050781e+003;3.6532050781e+003;3.5707692871e+003;3.6046154785e+003;3.5988461914e+003;3.5942307129e+003;3.5998718262e+003;3.5824357910e+003;3.5944870605e+003;3.6060256348e+003;3.6001281738e+003;3.6003845215e+003;
2.7421875000e+000;3.7094870605e+003;3.6100000000e+003;3.6232050781e+003;3.6808974609e+003;3.6010256348e+003;3.6310256348e+003;3.6282050781e+003;3.6205129395e+003;3.6243588867e+003;3.6074357910e+003;3.6244870605e+003;3.6352563477e+003;3.6271794434e+003;3.6312819824e+003;
2.7500000000e+000;3.8332050781e+003;3.7287180176e+003;3.7400000000e+003;3.7819230957e+003;3.7084614258e+003;3.7294870605e+003;3.7326923828e+003;3.7270512695e+003;3.7320512695e+003;3.7269230957e+003;3.7303845215e+003;3.7512819824e+003;3.7391025391e+003;3.7546154785e+003;
2.7578125000e+000;3.8315385742e+003;3.7273076172e+003;3.7384614258e+003;3.7807692871e+003;3.7065385742e+003;3.7282050781e+003;3.7321794434e+003;3.7207692871e+003;3.7269230957e+003;3.7229487305e+003;3.7260256348e+003;3.7471794434e+003;3.7382050781e+003;3.7524357910e+003;
2.7656250000e+000;3.8585898438e+003;3.7562819824e+003;3.7650000000e+003;3.8087180176e+003;3.7366667480e+003;3.7555129395e+003;3.7606411133e+003;3.7455129395e+003;3.7514101563e+003;3.7483332520e+003;3.7548718262e+003;3.7717949219e+003;3.7675642090e+003;3.7788461914e+003;
2.7734375000e+000;3.9044870605e+003;3.8043588867e+003;3.8107692871e+003;3.8542307129e+003;3.7850000000e+003;3.8003845215e+003;3.8056411133e+003;3.7942307129e+003;3.7979487305e+003;3.7971794434e+003;3.8057692871e+003;3.8178205566e+003;3.8161538086e+003;3.8265385742e+003;
2.7812500000e+000;3.7575642090e+003;3.6446154785e+003;3.6574357910e+003;3.6957692871e+003;3.6074357910e+003;3.6364101563e+003;3.6370512695e+003;3.6325642090e+003;3.6353845215e+003;3.6315385742e+003;3.6373076172e+003;3.6619230957e+003;3.6496154785e+003;3.6803845215e+003;
2.7890625000e+000;3.7578205566e+003;3.6411538086e+003;3.6485898438e+003;3.6878205566e+003;3.6005129395e+003;3.6261538086e+003;3.6267949219e+003;3.6182050781e+003;3.6243588867e+003;3.6188461914e+003;3.6276923828e+003;3.6519230957e+003;3.6412819824e+003;3.6753845215e+003;
2.7968750000e+000;3.7502563477e+003;3.6243588867e+003;3.6315385742e+003;3.6683332520e+003;3.5823076172e+003;3.6124357910e+003;3.6051281738e+003;3.6006411133e+003;3.6039743652e+003;3.5982050781e+003;3.6085898438e+003;3.6337180176e+003;3.6205129395e+003;3.6632050781e+003;
2.8046875000e+000;3.7161538086e+003;3.5816667480e+003;3.5952563477e+003;3.6320512695e+003;3.5362819824e+003;3.5666667480e+003;3.5641025391e+003;3.5567949219e+003;3.5635898438e+003;3.5570512695e+003;3.5705129395e+003;3.5941025391e+003;3.5883332520e+003;3.6337180176e+003;
2.8125000000e+000;3.6820512695e+003;3.5452563477e+003;3.5601281738e+003;3.5989743652e+003;3.4970512695e+003;3.5310256348e+003;3.5280769043e+003;3.5193588867e+003;3.5271794434e+003;3.5179487305e+003;3.5351281738e+003;3.5608974609e+003;3.5494870605e+003;3.5994870605e+003;
2.8203125000e+000;3.6265385742e+003;3.4800000000e+003;3.4943588867e+003;3.5362819824e+003;3.4392307129e+003;3.4721794434e+003;3.4705129395e+003;3.4580769043e+003;3.4651281738e+003;3.4510256348e+003;3.4732050781e+003;3.5008974609e+003;3.4811538086e+003;3.5337180176e+003;
2.8281250000e+000;3.5673076172e+003;3.4080769043e+003;3.4378205566e+003;3.4773076172e+003;3.3693588867e+003;3.4148718262e+003;3.4182050781e+003;3.4032050781e+003;3.4110256348e+003;3.3917949219e+003;3.4152563477e+003;3.4497436523e+003;3.4246154785e+003;3.4793588867e+003;
2.8359375000e+000;3.5812819824e+003;3.4241025391e+003;3.4506411133e+003;3.4916667480e+003;3.3789743652e+003;3.4288461914e+003;3.4314101563e+003;3.4129487305e+003;3.4196154785e+003;3.3996154785e+003;3.4253845215e+003;3.4614101563e+003;3.4326923828e+003;3.4898718262e+003;
2.8437500000e+000;3.6373076172e+003;3.4848718262e+003;3.5029487305e+003;3.5457692871e+003;3.4364101563e+003;3.4824357910e+003;3.4828205566e+003;3.4661538086e+003;3.4714101563e+003;3.4553845215e+003;3.4796154785e+003;3.5130769043e+003;3.4846154785e+003;3.5407692871e+003;
2.8515625000e+000;3.7329487305e+003;3.5860256348e+003;3.5961538086e+003;3.6416667480e+003;3.5515385742e+003;3.5780769043e+003;3.5773076172e+003;3.5691025391e+003;3.5717949219e+003;3.5687180176e+003;3.5816667480e+003;3.6084614258e+003;3.5846154785e+003;3.6334614258e+003;
2.8593750000e+000;3.7530769043e+003;3.6064101563e+003;3.6200000000e+003;3.6656411133e+003;3.5834614258e+003;3.6017949219e+003;3.6050000000e+003;3.5946154785e+003;3.5969230957e+003;3.5960256348e+003;3.6064101563e+003;3.6332050781e+003;3.6101281738e+003;3.6562819824e+003;
2.8671875000e+000;3.8407692871e+003;3.7030769043e+003;3.7173076172e+003;3.7570512695e+003;3.6851281738e+003;3.6928205566e+003;3.7046154785e+003;3.6908974609e+003;3.6953845215e+003;3.6941025391e+003;3.7034614258e+003;3.7321794434e+003;3.7106411133e+003;3.7488461914e+003;
2.8750000000e+000;3.8735898438e+003;3.7434614258e+003;3.7542307129e+003;3.7889743652e+003;3.7188461914e+003;3.7273076172e+003;3.7373076172e+003;3.7284614258e+003;3.7343588867e+003;3.7350000000e+003;3.7407692871e+003;3.7706411133e+003;3.7492307129e+003;3.7820512695e+003;
2.8828125000e+000;3.8408974609e+003;3.7183332520e+003;3.7261538086e+003;3.7576923828e+003;3.6902563477e+003;3.7064101563e+003;3.7078205566e+003;3.6964101563e+003;3.7050000000e+003;3.7123076172e+003;3.7119230957e+003;3.7394870605e+003;3.7182050781e+003;3.7475642090e+003;
2.8906250000e+000;3.8952563477e+003;3.7747436523e+003;3.7816667480e+003;3.8132050781e+003;3.7519230957e+003;3.7607692871e+003;3.7669230957e+003;3.7542307129e+003;3.7630769043e+003;3.7729487305e+003;3.7712819824e+003;3.7961538086e+003;3.7762819824e+003;3.8051281738e+003;
2.8984375000e+000;3.9528205566e+003;3.8358974609e+003;3.8432050781e+003;3.8728205566e+003;3.8161538086e+003;3.8189743652e+003;3.8294870605e+003;3.8217949219e+003;3.8297436523e+003;3.8433332520e+003;3.8376923828e+003;3.8615385742e+003;3.8408974609e+003;3.8687180176e+003;
2.9062500000e+000;3.7302563477e+003;3.6128205566e+003;3.6238461914e+003;3.6594870605e+003;3.5993588867e+003;3.6262819824e+003;3.6266667480e+003;3.6207692871e+003;3.6329487305e+003;3.6358974609e+003;3.6302563477e+003;3.6511538086e+003;3.6316667480e+003;3.6485898438e+003;
2.9140625000e+000;3.7171794434e+003;3.6005129395e+003;3.6098718262e+003;3.6496154785e+003;3.5901281738e+003;3.6196154785e+003;3.6188461914e+003;3.6158974609e+003;3.6288461914e+003;3.6284614258e+003;3.6212819824e+003;3.6405129395e+003;3.6255129395e+003;3.6380769043e+003;
2.9218750000e+000;3.7471794434e+003;3.6310256348e+003;3.6357692871e+003;3.6830769043e+003;3.6251281738e+003;3.6488461914e+003;3.6548718262e+003;3.6474357910e+003;3.6592307129e+003;3.6574357910e+003;3.6507692871e+003;3.6702563477e+003;3.6602563477e+003;3.6678205566e+003;
2.9296875000e+000;3.7953845215e+003;3.6829487305e+003;3.6941025391e+003;3.7297436523e+003;3.6716667480e+003;3.6916667480e+003;3.6956411133e+003;3.6865385742e+003;3.6998718262e+003;3.7056411133e+003;3.6930769043e+003;3.7179487305e+003;3.6948718262e+003;3.7115385742e+003;
2.9375000000e+000;3.7973076172e+003;3.6893588867e+003;3.6982050781e+003;3.7335898438e+003;3.6760256348e+003;3.6937180176e+003;3.6982050781e+003;3.6894870605e+003;3.7024357910e+003;3.7073076172e+003;3.6943588867e+003;3.7205129395e+003;3.6991025391e+003;3.7137180176e+003;
2.9453125000e+000;3.8160256348e+003;3.7176923828e+003;3.7119230957e+003;3.7564101563e+003;3.6992307129e+003;3.7120512695e+003;3.7158974609e+003;3.7169230957e+003;3.7283332520e+003;3.7350000000e+003;3.7226923828e+003;3.7448718262e+003;3.7265385742e+003;3.7380769043e+003;
2.9531250000e+000;3.7228205566e+003;3.6164101563e+003;3.6247436523e+003;3.6614101563e+003;3.5974357910e+003;3.6256411133e+003;3.6311538086e+003;3.6229487305e+003;3.6280769043e+003;3.6320512695e+003;3.6224357910e+003;3.6476923828e+003;3.6221794434e+003;3.6383332520e+003;
2.9609375000e+000;3.7378205566e+003;3.6347436523e+003;3.6411538086e+003;3.6765385742e+003;3.6133332520e+003;3.6385898438e+003;3.6458974609e+003;3.6380769043e+003;3.6448718262e+003;3.6467949219e+003;3.6384614258e+003;3.6620512695e+003;3.6411538086e+003;3.6528205566e+003;
2.9687500000e+000;3.7356411133e+003;3.6356411133e+003;3.6387180176e+003;3.6770512695e+003;3.6137180176e+003;3.6357692871e+003;3.6417949219e+003;3.6370512695e+003;3.6465385742e+003;3.6465385742e+003;3.6392307129e+003;3.6620512695e+003;3.6434614258e+003;3.6529487305e+003;
2.9765625000e+000;3.6764101563e+003;3.5701281738e+003;3.5711538086e+003;3.6206411133e+003;3.5579487305e+003;3.5780769043e+003;3.5776923828e+003;3.5737180176e+003;3.5846154785e+003;3.5846154785e+003;3.5776923828e+003;3.6041025391e+003;3.5803845215e+003;3.5964101563e+003;
2.9843750000e+000;3.6894870605e+003;3.5703845215e+003;3.5780769043e+003;3.6183332520e+003;3.5487180176e+003;3.5870512695e+003;3.5894870605e+003;3.5862819824e+003;3.5987180176e+003;3.6007692871e+003;3.5832050781e+003;3.6141025391e+003;3.5885898438e+003;3.6079487305e+003;
2.9921875000e+000;3.6608974609e+003;3.5405129395e+003;3.5502563477e+003;3.5888461914e+003;3.5117949219e+003;3.5605129395e+003;3.5661538086e+003;3.5610256348e+003;3.5746154785e+003;3.5714101563e+003;3.5556411133e+003;3.5869230957e+003;3.5610256348e+003;3.5770512695e+003;
3.0000000000e+000;3.6358974609e+003;3.5143588867e+003;3.5234614258e+003;3.5634614258e+003;3.4864101563e+003;3.5371794434e+003;3.5451281738e+003;3.5362819824e+003;3.5498718262e+003;3.5424357910e+003;3.5315385742e+003;3.5614101563e+003;3.5348718262e+003;3.5479487305e+003;
3.0078125000e+000;3.6824357910e+003;3.5614101563e+003;3.5657692871e+003;3.6067949219e+003;3.5535898438e+003;3.5805129395e+003;3.5879487305e+003;3.5824357910e+003;3.5950000000e+003;3.5921794434e+003;3.5826923828e+003;3.6075642090e+003;3.5808974609e+003;3.5921794434e+003;
3.0156250000e+000;3.7065385742e+003;3.5858974609e+003;3.5921794434e+003;3.6303845215e+003;3.5857692871e+003;3.6033332520e+003;3.6088461914e+003;3.6088461914e+003;3.6215385742e+003;3.6234614258e+003;3.6096154785e+003;3.6351281738e+003;3.6076923828e+003;3.6201281738e+003;
3.0234375000e+000;3.6994870605e+003;3.5775642090e+003;3.5887180176e+003;3.6246154785e+003;3.5784614258e+003;3.5965385742e+003;3.6010256348e+003;3.6017949219e+003;3.6152563477e+003;3.6192307129e+003;3.6025642090e+003;3.6300000000e+003;3.6025642090e+003;3.6162819824e+003;
3.0312500000e+000;3.8020512695e+003;3.6925642090e+003;3.6893588867e+003;3.7271794434e+003;3.6828205566e+003;3.6941025391e+003;3.7048718262e+003;3.6937180176e+003;3.7023076172e+003;3.7147436523e+003;3.6948718262e+003;3.7200000000e+003;3.7055129395e+003;3.7071794434e+003;
3.0390625000e+000;3.8158974609e+003;3.7070512695e+003;3.7052563477e+003;3.7398718262e+003;3.6989743652e+003;3.7101281738e+003;3.7192307129e+003;3.7055129395e+003;3.7146154785e+003;3.7280769043e+003;3.7080769043e+003;3.7338461914e+003;3.7173076172e+003;3.7187180176e+003;
3.0468750000e+000;3.8715385742e+003;3.7658974609e+003;3.7701281738e+003;3.7991025391e+003;3.7569230957e+003;3.7720512695e+003;3.7767949219e+003;3.7716667480e+003;3.7780769043e+003;3.7970512695e+003;3.7774357910e+003;3.7907692871e+003;3.7724357910e+003;3.7796154785e+003;
3.0546875000e+000;3.8274357910e+003;3.7287180176e+003;3.7314101563e+003;3.7616667480e+003;3.7166667480e+003;3.7364101563e+003;3.7385898438e+003;3.7373076172e+003;3.7403845215e+003;3.7578205566e+003;3.7362819824e+003;3.7505129395e+003;3.7311538086e+003;3.7389743652e+003;
3.0625000000e+000;3.7617949219e+003;3.6726923828e+003;3.6662819824e+003;3.6988461914e+003;3.6551281738e+003;3.6787180176e+003;3.6801281738e+003;3.6715385742e+003;3.6748718262e+003;3.6847436523e+003;3.6588461914e+003;3.6814101563e+003;3.6678205566e+003;3.6683332520e+003;
3.0703125000e+000;3.7380769043e+003;3.6383332520e+003;3.6402563477e+003;3.6726923828e+003;3.6297436523e+003;3.6512819824e+003;3.6546154785e+003;3.6455129395e+003;3.6462819824e+003;3.6702563477e+003;3.6484614258e+003;3.6669230957e+003;3.6407692871e+003;3.6541025391e+003;
3.0781250000e+000;3.7112819824e+003;3.6112819824e+003;3.6130769043e+003;3.6467949219e+003;3.6030769043e+003;3.6250000000e+003;3.6301281738e+003;3.6174357910e+003;3.6183332520e+003;3.6408974609e+003;3.6251281738e+003;3.6423076172e+003;3.6148718262e+003;3.6288461914e+003;
3.0859375000e+000;3.7139743652e+003;3.6111538086e+003;3.6102563477e+003;3.6417949219e+003;3.5983332520e+003;3.6202563477e+003;3.6248718262e+003;3.6110256348e+003;3.6202563477e+003;3.6360256348e+003;3.6211538086e+003;3.6430769043e+003;3.6191025391e+003;3.6275642090e+003;
3.0937500000e+000;3.6856411133e+003;3.5782050781e+003;3.5810256348e+003;3.6117949219e+003;3.5635898438e+003;3.5892307129e+003;3.5905129395e+003;3.5779487305e+003;3.5893588867e+003;3.6037180176e+003;3.5874357910e+003;3.6138461914e+003;3.5893588867e+003;3.5971794434e+003;
3.1015625000e+000;3.6319230957e+003;3.5202563477e+003;3.5251281738e+003;3.5584614258e+003;3.4967949219e+003;3.5253845215e+003;3.5319230957e+003;3.5124357910e+003;3.5193588867e+003;3.5350000000e+003;3.5306411133e+003;3.5539743652e+003;3.5339743652e+003;3.5394870605e+003;
3.1093750000e+000;3.6553845215e+003;3.5426923828e+003;3.5469230957e+003;3.5792307129e+003;3.5189743652e+003;3.5448718262e+003;3.5542307129e+003;3.5366667480e+003;3.5435898438e+003;3.5585898438e+003;3.5543588867e+003;3.5771794434e+003;3.5589743652e+003;3.5626923828e+003;
3.1171875000e+000;3.6402563477e+003;3.5187180176e+003;3.5303845215e+003;3.5625642090e+003;3.5021794434e+003;3.5303845215e+003;3.5348718262e+003;3.5215385742e+003;3.5293588867e+003;3.5414101563e+003;3.5294870605e+003;3.5624357910e+003;3.5408974609e+003;3.5438461914e+003;
3.1250000000e+000;3.6353845215e+003;3.5119230957e+003;3.5238461914e+003;3.5573076172e+003;3.4942307129e+003;3.5242307129e+003;3.5258974609e+003;3.5132050781e+003;3.5205129395e+003;3.5332050781e+003;3.5200000000e+003;3.5556411133e+003;3.5333332520e+003;3.5364101563e+003;
3.1328125000e+000;3.6637180176e+003;3.5473076172e+003;3.5523076172e+003;3.5797436523e+003;3.5123076172e+003;3.5488461914e+003;3.5494870605e+003;3.5466667480e+003;3.5562819824e+003;3.5728205566e+003;3.5592307129e+003;3.5811538086e+003;3.5648718262e+003;3.5705129395e+003;
3.1406250000e+000;3.6402563477e+003;3.5226923828e+003;3.5311538086e+003;3.5560256348e+003;3.4950000000e+003;3.5329487305e+003;3.5323076172e+003;3.5278205566e+003;3.5403845215e+003;3.5524357910e+003;3.5366667480e+003;3.5560256348e+003;3.5406411133e+003;3.5474357910e+003;
3.1484375000e+000;3.6319230957e+003;3.5128205566e+003;3.5232050781e+003;3.5483332520e+003;3.4984614258e+003;3.5317949219e+003;3.5300000000e+003;3.5224357910e+003;3.5367949219e+003;3.5446154785e+003;3.5265385742e+003;3.5455129395e+003;3.5297436523e+003;3.5367949219e+003;
3.1562500000e+000;3.6041025391e+003;3.4723076172e+003;3.4852563477e+003;3.5192307129e+003;3.4612819824e+003;3.4917949219e+003;3.4956411133e+003;3.4874357910e+003;3.4996154785e+003;3.5093588867e+003;3.4929487305e+003;3.5169230957e+003;3.4896154785e+003;3.5030769043e+003;
3.1640625000e+000;3.6280769043e+003;3.4993588867e+003;3.5094870605e+003;3.5408974609e+003;3.4843588867e+003;3.5152563477e+003;3.5193588867e+003;3.5080769043e+003;3.5243588867e+003;3.5323076172e+003;3.5184614258e+003;3.5398718262e+003;3.5180769043e+003;3.5280769043e+003;
3.1718750000e+000;3.6446154785e+003;3.5361538086e+003;3.5252563477e+003;3.5620512695e+003;3.5101281738e+003;3.5387180176e+003;3.5400000000e+003;3.5335898438e+003;3.5416667480e+003;3.5591025391e+003;3.5425642090e+003;3.5671794434e+003;3.5484614258e+003;3.5461538086e+003;
3.1796875000e+000;3.7044870605e+003;3.5834614258e+003;3.5728205566e+003;3.6138461914e+003;3.5565385742e+003;3.5780769043e+003;3.5865385742e+003;3.5739743652e+003;3.5782050781e+003;3.6003845215e+003;3.5843588867e+003;3.6021794434e+003;3.5962819824e+003;3.5894870605e+003;
3.1875000000e+000;3.7091025391e+003;3.5897436523e+003;3.5815385742e+003;3.6194870605e+003;3.5644870605e+003;3.5850000000e+003;3.5903845215e+003;3.5802563477e+003;3.5873076172e+003;3.6093588867e+003;3.5934614258e+003;3.6096154785e+003;3.6043588867e+003;3.5991025391e+003;
3.1953125000e+000;3.6998718262e+003;3.5910256348e+003;3.5779487305e+003;3.6102563477e+003;3.5619230957e+003;3.5807692871e+003;3.5858974609e+003;3.5739743652e+003;3.5782050781e+003;3.5998718262e+003;3.5866667480e+003;3.6080769043e+003;3.5946154785e+003;3.5950000000e+003;
3.2031250000e+000;3.7464101563e+003;3.6380769043e+003;3.6234614258e+003;3.6541025391e+003;3.6087180176e+003;3.6233332520e+003;3.6307692871e+003;3.6219230957e+003;3.6246154785e+003;3.6494870605e+003;3.6320512695e+003;3.6544870605e+003;3.6421794434e+003;3.6406411133e+003;
3.2109375000e+000;3.7402563477e+003;3.6293588867e+003;3.6220512695e+003;3.6514101563e+003;3.6070512695e+003;3.6243588867e+003;3.6316667480e+003;3.6224357910e+003;3.6266667480e+003;3.6521794434e+003;3.6296154785e+003;3.6542307129e+003;3.6412819824e+003;3.6382050781e+003;
3.2187500000e+000;3.7117949219e+003;3.6006411133e+003;3.5955129395e+003;3.6250000000e+003;3.5823076172e+003;3.6019230957e+003;3.6092307129e+003;3.5929487305e+003;3.5979487305e+003;3.6211538086e+003;3.6006411133e+003;3.6260256348e+003;3.6108974609e+003;3.6088461914e+003;
3.2265625000e+000;3.8671794434e+003;3.7694870605e+003;3.7480769043e+003;3.7732050781e+003;3.7434614258e+003;3.7482050781e+003;3.7582050781e+003;3.7385898438e+003;3.7420512695e+003;3.7715385742e+003;3.7476923828e+003;3.7717949219e+003;3.7521794434e+003;3.7529487305e+003;
3.2343750000e+000;3.9333332520e+003;3.8400000000e+003;3.8161538086e+003;3.8388461914e+003;3.8096154785e+003;3.8094870605e+003;3.8207692871e+003;3.8038461914e+003;3.8079487305e+003;3.8406411133e+003;3.8148718262e+003;3.8391025391e+003;3.8188461914e+003;3.8192307129e+003;
3.2421875000e+000;4.0010256348e+003;3.9151281738e+003;3.8941025391e+003;3.9083332520e+003;3.8847436523e+003;3.8766667480e+003;3.8900000000e+003;3.8738461914e+003;3.8829487305e+003;3.9200000000e+003;3.8961538086e+003;3.9166667480e+003;3.9038461914e+003;3.8991025391e+003;
3.2500000000e+000;3.9991025391e+003;3.9173076172e+003;3.8991025391e+003;3.9082050781e+003;3.8889743652e+003;3.8807692871e+003;3.8916667480e+003;3.8775642090e+003;3.8883332520e+003;3.9278205566e+003;3.9050000000e+003;3.9233332520e+003;3.9133332520e+003;3.9085898438e+003;
3.2578125000e+000;3.9746154785e+003;3.8958974609e+003;3.8846154785e+003;3.8948718262e+003;3.8688461914e+003;3.8707692871e+003;3.8750000000e+003;3.8628205566e+003;3.8680769043e+003;3.9093588867e+003;3.8884614258e+003;3.9135898438e+003;3.8902563477e+003;3.8974357910e+003;
3.2656250000e+000;4.0387180176e+003;3.9625642090e+003;3.9476923828e+003;3.9605129395e+003;3.9351281738e+003;3.9302563477e+003;3.9389743652e+003;3.9282050781e+003;3.9341025391e+003;3.9771794434e+003;3.9516667480e+003;3.9779487305e+003;3.9558974609e+003;3.9580769043e+003;
3.2734375000e+000;4.0953845215e+003;4.0250000000e+003;4.0064101563e+003;4.0180769043e+003;3.9976923828e+003;3.9843588867e+003;3.9978205566e+003;3.9923076172e+003;4.0012819824e+003;4.0473076172e+003;4.0129487305e+003;4.0382050781e+003;4.0208974609e+003;4.0150000000e+003;
3.2812500000e+000;4.0853845215e+003;4.0223076172e+003;4.0029487305e+003;4.0108974609e+003;3.9951281738e+003;3.9798718262e+003;3.9952563477e+003;3.9953845215e+003;4.0073076172e+003;4.0548718262e+003;4.0123076172e+003;4.0355129395e+003;4.0214101563e+003;4.0107692871e+003;
3.2890625000e+000;3.8665385742e+003;3.8108974609e+003;3.7870512695e+003;3.8012819824e+003;3.7879487305e+003;3.7911538086e+003;3.7943588867e+003;3.7876923828e+003;3.7919230957e+003;3.8298718262e+003;3.8016667480e+003;3.8224357910e+003;3.8034614258e+003;3.8067949219e+003;
3.2968750000e+000;3.8938461914e+003;3.8382050781e+003;3.8202563477e+003;3.8275642090e+003;3.8256411133e+003;3.8243588867e+003;3.8326923828e+003;3.8173076172e+003;3.8287180176e+003;3.8593588867e+003;3.8252563477e+003;3.8494870605e+003;3.8352563477e+003;3.8282050781e+003;
3.3046875000e+000;4.0246154785e+003;3.9771794434e+003;3.9528205566e+003;3.9471794434e+003;3.9634614258e+003;3.9539743652e+003;3.9614101563e+003;3.9564101563e+003;3.9615385742e+003;3.9987180176e+003;3.9579487305e+003;3.9853845215e+003;3.9688461914e+003;3.9626923828e+003;
3.3125000000e+000;4.0211538086e+003;3.9737180176e+003;3.9520512695e+003;3.9456411133e+003;3.9557692871e+003;3.9526923828e+003;3.9608974609e+003;3.9525642090e+003;3.9603845215e+003;3.9964101563e+003;3.9530769043e+003;3.9835898438e+003;3.9679487305e+003;3.9600000000e+003;
3.3203125000e+000;4.0841025391e+003;4.0456411133e+003;4.0235898438e+003;4.0096154785e+003;4.0205129395e+003;4.0206411133e+003;4.0293588867e+003;4.0211538086e+003;4.0356411133e+003;4.0696154785e+003;4.0307692871e+003;4.0473076172e+003;4.0394870605e+003;4.0283332520e+003;
3.3281250000e+000;4.0755129395e+003;4.0392307129e+003;4.0200000000e+003;4.0017949219e+003;4.0214101563e+003;4.0161538086e+003;4.0226923828e+003;4.0201281738e+003;4.0307692871e+003;4.0664101563e+003;4.0301281738e+003;4.0439743652e+003;4.0310256348e+003;4.0233332520e+003;
3.3359375000e+000;4.0421794434e+003;4.0061538086e+003;3.9916667480e+003;3.9680769043e+003;4.0057692871e+003;3.9862819824e+003;3.9948718262e+003;3.9921794434e+003;4.0000000000e+003;4.0348718262e+003;4.0003845215e+003;4.0198718262e+003;3.9998718262e+003;3.9941025391e+003;
3.3437500000e+000;4.0592307129e+003;4.0229487305e+003;4.0096154785e+003;3.9844870605e+003;4.0247436523e+003;4.0016667480e+003;4.0128205566e+003;4.0096154785e+003;4.0202563477e+003;4.0537180176e+003;4.0174357910e+003;4.0407692871e+003;4.0224357910e+003;4.0139743652e+003;
3.3515625000e+000;4.0502563477e+003;4.0158974609e+003;4.0115385742e+003;3.9885898438e+003;4.0074357910e+003;4.0021794434e+003;4.0100000000e+003;4.0085898438e+003;4.0174357910e+003;4.0488461914e+003;4.0185898438e+003;4.0400000000e+003;4.0242307129e+003;4.0112819824e+003;
3.3593750000e+000;4.0537180176e+003;4.0250000000e+003;4.0157692871e+003;3.9943588867e+003;4.0148718262e+003;4.0102563477e+003;4.0184614258e+003;4.0133332520e+003;4.0194870605e+003;4.0515385742e+003;4.0260256348e+003;4.0421794434e+003;4.0278205566e+003;4.0130769043e+003;
3.3671875000e+000;4.0855129395e+003;4.0702563477e+003;4.0456411133e+003;4.0233332520e+003;4.0584614258e+003;4.0458974609e+003;4.0576923828e+003;4.0544870605e+003;4.0620512695e+003;4.0944870605e+003;4.0635898438e+003;4.0756411133e+003;4.0647436523e+003;4.0464101563e+003;
3.3750000000e+000;4.0607692871e+003;4.0465385742e+003;4.0211538086e+003;3.9982050781e+003;4.0347436523e+003;4.0225642090e+003;4.0341025391e+003;4.0338461914e+003;4.0432050781e+003;4.0732050781e+003;4.0364101563e+003;4.0517949219e+003;4.0424357910e+003;4.0229487305e+003;
3.3828125000e+000;4.0864101563e+003;4.0691025391e+003;4.0439743652e+003;4.0223076172e+003;4.0605129395e+003;4.0411538086e+003;4.0533332520e+003;4.0473076172e+003;4.0575642090e+003;4.0864101563e+003;4.0488461914e+003;4.0657692871e+003;4.0639743652e+003;4.0412819824e+003;
3.3906250000e+000;4.1352563477e+003;4.1234614258e+003;4.0942307129e+003;4.0715385742e+003;4.1137177734e+003;4.0905129395e+003;4.1024360352e+003;4.0994873047e+003;4.1092309570e+003;4.1411538086e+003;4.1037177734e+003;4.1183334961e+003;4.1133334961e+003;4.0921794434e+003;
3.3984375000e+000;4.1342309570e+003;4.1288461914e+003;4.0975639648e+003;4.0739743652e+003;4.1169228516e+003;4.0958974609e+003;4.1058974609e+003;4.1066665039e+003;4.1151284180e+003;4.1485898438e+003;4.1106411133e+003;4.1257690430e+003;4.1150000000e+003;4.0958974609e+003;
3.4062500000e+000;4.0866667480e+003;4.0861538086e+003;4.0547436523e+003;4.0320512695e+003;4.0728205566e+003;4.0569230957e+003;4.0650000000e+003;4.0660256348e+003;4.0728205566e+003;4.1055126953e+003;4.0678205566e+003;4.0856411133e+003;4.0714101563e+003;4.0529487305e+003;
3.4140625000e+000;4.0020512695e+003;4.0032050781e+003;3.9725642090e+003;3.9487180176e+003;3.9874357910e+003;3.9752563477e+003;3.9815385742e+003;3.9837180176e+003;3.9924357910e+003;4.0189743652e+003;3.9825642090e+003;4.0032050781e+003;3.9906411133e+003;3.9744870605e+003;
3.4218750000e+000;3.9370512695e+003;3.9305129395e+003;3.9120512695e+003;3.8917949219e+003;3.9170512695e+003;3.9125642090e+003;3.9124357910e+003;3.9089743652e+003;3.9173076172e+003;3.9478205566e+003;3.9206411133e+003;3.9407692871e+003;3.9226923828e+003;3.9079487305e+003;
3.4296875000e+000;3.9251281738e+003;3.9173076172e+003;3.8985898438e+003;3.8834614258e+003;3.9011538086e+003;3.8983332520e+003;3.8979487305e+003;3.8960256348e+003;3.9011538086e+003;3.9330769043e+003;3.9046154785e+003;3.9253845215e+003;3.9089743652e+003;3.8932050781e+003;
