Time (s);AF3;F7;F3;FC5;T7;P7;O1;O2;P8;T8;FC6;F4;F8;AF4;Sampling Rate
0.0000000000e+000;3.6051281738e+003;3.5788461914e+003;3.6134614258e+003;3.6320512695e+003;3.5730769043e+003;3.6134614258e+003;3.5946154785e+003;3.5762819824e+003;3.5703845215e+003;3.5810256348e+003;3.6037180176e+003;3.6321794434e+003;3.6116667480e+003;3.6188461914e+003;128
7.8125000000e-003;3.6507692871e+003;3.6266667480e+003;3.6660256348e+003;3.6750000000e+003;3.6211538086e+003;3.6539743652e+003;3.6362819824e+003;3.6202563477e+003;3.6150000000e+003;3.6307692871e+003;3.6497436523e+003;3.6773076172e+003;3.6558974609e+003;3.6648718262e+003;
1.5625000000e-002;3.7228205566e+003;3.7075642090e+003;3.7765385742e+003;3.7425642090e+003;3.6920512695e+003;3.7464101563e+003;3.7300000000e+003;3.7282050781e+003;3.7242307129e+003;3.7255129395e+003;3.7288461914e+003;3.7507692871e+003;3.7325642090e+003;3.7335898438e+003;
2.3437500000e-002;3.7264101563e+003;3.7128205566e+003;3.7793588867e+003;3.7446154785e+003;3.6920512695e+003;3.7574357910e+003;3.7401281738e+003;3.7452563477e+003;3.7417949219e+003;3.7401281738e+003;3.7378205566e+003;3.7566667480e+003;3.7400000000e+003;3.7371794434e+003;
3.1250000000e-002;3.7611538086e+003;3.7503845215e+003;3.8132050781e+003;3.7785898438e+003;3.7700000000e+003;3.7982050781e+003;3.7812819824e+003;3.7762819824e+003;3.7770512695e+003;3.7729487305e+003;3.7653845215e+003;3.7791025391e+003;3.7630769043e+003;3.7652563477e+003;
3.9062500000e-002;3.9444870605e+003;3.9338461914e+003;4.0080769043e+003;3.9460256348e+003;3.9583332520e+003;3.9774357910e+003;3.9621794434e+003;3.9551281738e+003;3.9605129395e+003;3.9593588867e+003;3.9453845215e+003;3.9601281738e+003;3.9550000000e+003;3.9467949219e+003;
4.6875000000e-002;4.0723076172e+003;4.0641025391e+003;4.1360258789e+003;4.0656411133e+003;4.0779487305e+003;4.0982050781e+003;4.0879487305e+003;4.0788461914e+003;4.0862819824e+003;4.0916667480e+003;4.0730769043e+003;4.0820512695e+003;4.0853845215e+003;4.0698718262e+003;
5.4687500000e-002;4.4184614258e+003;4.4269228516e+003;4.4705126953e+003;4.4001284180e+003;4.4314101563e+003;4.4120512695e+003;4.4076923828e+003;4.4107690430e+003;4.4184614258e+003;4.4538461914e+003;4.4141025391e+003;4.4152563477e+003;4.4208974609e+003;4.4037177734e+003;
6.2500000000e-002;4.4544873047e+003;4.4661538086e+003;4.5052563477e+003;4.4369228516e+003;4.4723076172e+003;4.4434614258e+003;4.4391025391e+003;4.4406411133e+003;4.4456411133e+003;4.4857690430e+003;4.4467949219e+003;4.4511538086e+003;4.4530771484e+003;4.4366665039e+003;
7.0312500000e-002;4.5962822266e+003;4.6047436523e+003;4.6475639648e+003;4.5623076172e+003;4.6044873047e+003;4.5635898438e+003;4.5684614258e+003;4.5637177734e+003;4.5664101563e+003;4.6152563477e+003;4.5844873047e+003;4.5887177734e+003;4.5911538086e+003;4.5693588867e+003;
7.8125000000e-002;4.6853847656e+003;4.6897436523e+003;4.7364101563e+003;4.6366665039e+003;4.6830771484e+003;4.6378203125e+003;4.6476923828e+003;4.6444873047e+003;4.6474360352e+003;4.7025639648e+003;4.6733334961e+003;4.6747436523e+003;4.6788461914e+003;4.6546152344e+003;
8.5937500000e-002;4.9975639648e+003;5.0002563477e+003;5.0333334961e+003;4.9111538086e+003;4.9755126953e+003;4.9029487305e+003;4.9276923828e+003;4.9208974609e+003;4.9170512695e+003;4.9975639648e+003;4.9719228516e+003;4.9647436523e+003;4.9816665039e+003;4.9551284180e+003;
9.3750000000e-002;5.1694873047e+003;5.1750000000e+003;5.1992309570e+003;5.0719228516e+003;5.1439741211e+003;5.0506411133e+003;5.0844873047e+003;5.0816665039e+003;5.0747436523e+003;5.1669228516e+003;5.1383334961e+003;5.1288461914e+003;5.1511538086e+003;5.1229487305e+003;
1.0156250000e-001;5.2851284180e+003;5.2915385742e+003;5.3129487305e+003;5.1806411133e+003;5.2567949219e+003;5.1487177734e+003;5.1876923828e+003;5.1956411133e+003;5.1864101563e+003;5.2878203125e+003;5.2525639648e+003;5.2432050781e+003;5.2657690430e+003;5.2373076172e+003;
1.0937500000e-001;5.2773076172e+003;5.2820512695e+003;5.3074360352e+003;5.1723076172e+003;5.2480771484e+003;5.1398715820e+003;5.1769228516e+003;5.1955126953e+003;5.1851284180e+003;5.2882050781e+003;5.2467949219e+003;5.2403847656e+003;5.2578203125e+003;5.2307690430e+003;
1.1718750000e-001;5.1093588867e+003;5.1150000000e+003;5.1335898438e+003;5.0028203125e+003;5.0970512695e+003;5.0121796875e+003;5.0396152344e+003;5.0507690430e+003;5.0442309570e+003;5.1191025391e+003;5.0851284180e+003;5.0737177734e+003;5.0988461914e+003;5.0684614258e+003;
1.2500000000e-001;5.1732050781e+003;5.1789741211e+003;5.1947436523e+003;5.0641025391e+003;5.1633334961e+003;5.0703847656e+003;5.1005126953e+003;5.1183334961e+003;5.1111538086e+003;5.1871796875e+003;5.1497436523e+003;5.1365385742e+003;5.1639741211e+003;5.1334614258e+003;
1.3281250000e-001;5.0808974609e+003;5.0808974609e+003;5.1132050781e+003;4.9820512695e+003;5.0679487305e+003;4.9930771484e+003;5.0191025391e+003;5.0414101563e+003;5.0321796875e+003;5.1001284180e+003;5.0588461914e+003;5.0494873047e+003;5.0669228516e+003;5.0385898438e+003;
1.4062500000e-001;4.8165385742e+003;4.8133334961e+003;4.8564101563e+003;4.7355126953e+003;4.8147436523e+003;4.7670512695e+003;4.7732050781e+003;4.7958974609e+003;4.7914101563e+003;4.8421796875e+003;4.8039741211e+003;4.8001284180e+003;4.8065385742e+003;4.7812822266e+003;
1.4843750000e-001;4.6941025391e+003;4.6930771484e+003;4.7348715820e+003;4.6276923828e+003;4.6930771484e+003;4.6574360352e+003;4.6578203125e+003;4.6758974609e+003;4.6741025391e+003;4.7176923828e+003;4.6823076172e+003;4.6817949219e+003;4.6848715820e+003;4.6625639648e+003;
1.5625000000e-001;4.5448715820e+003;4.5502563477e+003;4.5819228516e+003;4.4929487305e+003;4.5196152344e+003;4.5220512695e+003;4.5148715820e+003;4.5184614258e+003;4.5239741211e+003;4.5579487305e+003;4.5350000000e+003;4.5332050781e+003;4.5387177734e+003;4.5171796875e+003;
1.6406250000e-001;4.4167949219e+003;4.4174360352e+003;4.4583334961e+003;4.3661538086e+003;4.4235898438e+003;4.4024360352e+003;4.3884614258e+003;4.3871796875e+003;4.3870512695e+003;4.4203847656e+003;4.4058974609e+003;4.4105126953e+003;4.4076923828e+003;4.3917949219e+003;
1.7187500000e-001;4.3979487305e+003;4.3961538086e+003;4.4387177734e+003;4.3492309570e+003;4.4139741211e+003;4.3806411133e+003;4.3667949219e+003;4.3664101563e+003;4.3673076172e+003;4.3994873047e+003;4.3865385742e+003;4.3928203125e+003;4.3866665039e+003;4.3729487305e+003;
1.7968750000e-001;4.3819228516e+003;4.3782050781e+003;4.4224360352e+003;4.3369228516e+003;4.3970512695e+003;4.3605126953e+003;4.3480771484e+003;4.3494873047e+003;4.3521796875e+003;4.3828203125e+003;4.3717949219e+003;4.3797436523e+003;4.3698715820e+003;4.3582050781e+003;
1.8750000000e-001;4.3366665039e+003;4.3307690430e+003;4.3769228516e+003;4.3046152344e+003;4.3337177734e+003;4.3078203125e+003;4.3028203125e+003;4.3007690430e+003;4.3023076172e+003;4.3296152344e+003;4.3266665039e+003;4.3379487305e+003;4.3257690430e+003;4.3158974609e+003;
1.9531250000e-001;4.2985898438e+003;4.2950000000e+003;4.3360258789e+003;4.2755126953e+003;4.2960258789e+003;4.2734614258e+003;4.2714101563e+003;4.2751284180e+003;4.2679487305e+003;4.2966665039e+003;4.2892309570e+003;4.3060258789e+003;4.2951284180e+003;4.2843588867e+003;
2.0312500000e-001;4.2256411133e+003;4.2234614258e+003;4.2662822266e+003;4.2062822266e+003;4.2269228516e+003;4.2129487305e+003;4.2071796875e+003;4.2143588867e+003;4.2065385742e+003;4.2300000000e+003;4.2207690430e+003;4.2397436523e+003;4.2241025391e+003;4.2162822266e+003;
2.1093750000e-001;4.1679487305e+003;4.1658974609e+003;4.2093588867e+003;4.1542309570e+003;4.1712822266e+003;4.1637177734e+003;4.1634614258e+003;4.1658974609e+003;4.1594873047e+003;4.1669228516e+003;4.1676923828e+003;4.1794873047e+003;4.1680771484e+003;4.1626923828e+003;
2.1875000000e-001;4.2053847656e+003;4.2037177734e+003;4.2464101563e+003;4.1925639648e+003;4.2098715820e+003;4.1983334961e+003;4.1987177734e+003;4.2048715820e+003;4.1967949219e+003;4.2078203125e+003;4.2066665039e+003;4.2166665039e+003;4.2088461914e+003;4.2012822266e+003;
2.2656250000e-001;4.2082050781e+003;4.2087177734e+003;4.2502563477e+003;4.1983334961e+003;4.2142309570e+003;4.2051284180e+003;4.2016665039e+003;4.2110258789e+003;4.2016665039e+003;4.2167949219e+003;4.2117949219e+003;4.2216665039e+003;4.2155126953e+003;4.2056411133e+003;
2.3437500000e-001;4.1844873047e+003;4.1885898438e+003;4.2269228516e+003;4.1774360352e+003;4.1915385742e+003;4.1902563477e+003;4.1808974609e+003;4.1892309570e+003;4.1808974609e+003;4.1974360352e+003;4.1896152344e+003;4.1994873047e+003;4.1939741211e+003;4.1817949219e+003;
2.4218750000e-001;4.1158974609e+003;4.1134614258e+003;4.1567949219e+003;4.1246152344e+003;4.1273076172e+003;4.1405126953e+003;4.1258974609e+003;4.1228203125e+003;4.1252563477e+003;4.1329487305e+003;4.1252563477e+003;4.1387177734e+003;4.1252563477e+003;4.1134614258e+003;
2.5000000000e-001;4.0732050781e+003;4.0701281738e+003;4.1157690430e+003;4.0891025391e+003;4.0871794434e+003;4.1005126953e+003;4.0858974609e+003;4.0798718262e+003;4.0811538086e+003;4.0880769043e+003;4.0826923828e+003;4.0978203125e+003;4.0819230957e+003;4.0723076172e+003;
2.5781250000e-001;4.1144873047e+003;4.1256411133e+003;4.1533334961e+003;4.1257690430e+003;4.1310258789e+003;4.1361538086e+003;4.1202563477e+003;4.1117949219e+003;4.1191025391e+003;4.1255126953e+003;4.1253847656e+003;4.1358974609e+003;4.1230771484e+003;4.1158974609e+003;
2.6562500000e-001;4.1375639648e+003;4.1480771484e+003;4.1742309570e+003;4.1597436523e+003;4.1512822266e+003;4.1648715820e+003;4.1524360352e+003;4.1414101563e+003;4.1469228516e+003;4.1470512695e+003;4.1496152344e+003;4.1615385742e+003;4.1493588867e+003;4.1414101563e+003;
2.7343750000e-001;4.1828203125e+003;4.1937177734e+003;4.2165385742e+003;4.2042309570e+003;4.1957690430e+003;4.2050000000e+003;4.1952563477e+003;4.1870512695e+003;4.1911538086e+003;4.1942309570e+003;4.1952563477e+003;4.2051284180e+003;4.1969228516e+003;4.1864101563e+003;
2.8125000000e-001;4.1805126953e+003;4.1912822266e+003;4.2152563477e+003;4.2078203125e+003;4.1988461914e+003;4.1985898438e+003;4.1896152344e+003;4.1857690430e+003;4.1914101563e+003;4.2000000000e+003;4.1971796875e+003;4.2061538086e+003;4.1961538086e+003;4.1883334961e+003;
2.8906250000e-001;4.2123076172e+003;4.2202563477e+003;4.2379487305e+003;4.2408974609e+003;4.2089741211e+003;4.2215385742e+003;4.2176923828e+003;4.2124360352e+003;4.2074360352e+003;4.2239741211e+003;4.2220512695e+003;4.2346152344e+003;4.2201284180e+003;4.2098715820e+003;
2.9687500000e-001;4.2100000000e+003;4.2158974609e+003;4.2358974609e+003;4.2371796875e+003;4.1950000000e+003;4.2178203125e+003;4.2133334961e+003;4.2123076172e+003;4.2034614258e+003;4.2216665039e+003;4.2196152344e+003;4.2329487305e+003;4.2169228516e+003;4.2074360352e+003;
3.0468750000e-001;4.2880771484e+003;4.3001284180e+003;4.3189741211e+003;4.3158974609e+003;4.3123076172e+003;4.2942309570e+003;4.2952563477e+003;4.2900000000e+003;4.2846152344e+003;4.2983334961e+003;4.2973076172e+003;4.3066665039e+003;4.2947436523e+003;4.2900000000e+003;
3.1250000000e-001;4.3411538086e+003;4.3558974609e+003;4.3678203125e+003;4.3682050781e+003;4.3821796875e+003;4.3433334961e+003;4.3457690430e+003;4.3453847656e+003;4.3398715820e+003;4.3561538086e+003;4.3505126953e+003;4.3588461914e+003;4.3474360352e+003;4.3425639648e+003;
3.2031250000e-001;4.3132050781e+003;4.3230771484e+003;4.3329487305e+003;4.3457690430e+003;4.3493588867e+003;4.3208974609e+003;4.3185898438e+003;4.3232050781e+003;4.3141025391e+003;4.3347436523e+003;4.3232050781e+003;4.3300000000e+003;4.3173076172e+003;4.3110258789e+003;
3.2812500000e-001;4.2951284180e+003;4.3005126953e+003;4.3143588867e+003;4.3275639648e+003;4.3187177734e+003;4.3069228516e+003;4.3029487305e+003;4.3033334961e+003;4.2944873047e+003;4.3153847656e+003;4.3050000000e+003;4.3087177734e+003;4.2978203125e+003;4.2907690430e+003;
3.3593750000e-001;4.4032050781e+003;4.4129487305e+003;4.4232050781e+003;4.4135898438e+003;4.4180771484e+003;4.4076923828e+003;4.4062822266e+003;4.4069228516e+003;4.4070512695e+003;4.4283334961e+003;4.4153847656e+003;4.4194873047e+003;4.4071796875e+003;4.4032050781e+003;
3.4375000000e-001;4.4037177734e+003;4.4167949219e+003;4.4232050781e+003;4.4143588867e+003;4.4215385742e+003;4.4065385742e+003;4.4058974609e+003;4.4084614258e+003;4.4098715820e+003;4.4311538086e+003;4.4170512695e+003;4.4251284180e+003;4.4100000000e+003;4.4061538086e+003;
3.5156250000e-001;4.3862822266e+003;4.3993588867e+003;4.4043588867e+003;4.4026923828e+003;4.4043588867e+003;4.3889741211e+003;4.3879487305e+003;4.3911538086e+003;4.3934614258e+003;4.4155126953e+003;4.4011538086e+003;4.4105126953e+003;4.3957690430e+003;4.3903847656e+003;
3.5937500000e-001;4.3569228516e+003;4.3674360352e+003;4.3734614258e+003;4.3815385742e+003;4.3733334961e+003;4.3617949219e+003;4.3574360352e+003;4.3620512695e+003;4.3666665039e+003;4.3898715820e+003;4.3746152344e+003;4.3826923828e+003;4.3702563477e+003;4.3635898438e+003;
3.6718750000e-001;4.1325639648e+003;4.1483334961e+003;4.1506411133e+003;4.1711538086e+003;4.1541025391e+003;4.1687177734e+003;4.1433334961e+003;4.1361538086e+003;4.1506411133e+003;4.1538461914e+003;4.1498715820e+003;4.1621796875e+003;4.1487177734e+003;4.1526923828e+003;
3.7500000000e-001;4.2191025391e+003;4.2353847656e+003;4.2330771484e+003;4.2515385742e+003;4.2423076172e+003;4.2433334961e+003;4.2257690430e+003;4.2162822266e+003;4.2293588867e+003;4.2332050781e+003;4.2317949219e+003;4.2423076172e+003;4.2310258789e+003;4.2324360352e+003;
3.8281250000e-001;4.4212822266e+003;4.4365385742e+003;4.4325639648e+003;4.4508974609e+003;4.4433334961e+003;4.4198715820e+003;4.4116665039e+003;4.4208974609e+003;4.4269228516e+003;4.4485898438e+003;4.4337177734e+003;4.4397436523e+003;4.4285898438e+003;4.4264101563e+003;
3.9062500000e-001;4.3869228516e+003;4.4030771484e+003;4.3929487305e+003;4.4024360352e+003;4.3948715820e+003;4.3867949219e+003;4.3744873047e+003;4.3801284180e+003;4.3802563477e+003;4.4000000000e+003;4.3906411133e+003;4.3923076172e+003;4.3950000000e+003;4.3866665039e+003;
3.9843750000e-001;4.3923076172e+003;4.4033334961e+003;4.3987177734e+003;4.4038461914e+003;4.3998715820e+003;4.3888461914e+003;4.3824360352e+003;4.3880771484e+003;4.3866665039e+003;4.4065385742e+003;4.3985898438e+003;4.3989741211e+003;4.4007690430e+003;4.3917949219e+003;
4.0625000000e-001;4.4157690430e+003;4.4320512695e+003;4.4247436523e+003;4.4351284180e+003;4.4428203125e+003;4.4198715820e+003;4.4247436523e+003;4.4291025391e+003;4.4258974609e+003;4.4452563477e+003;4.4374360352e+003;4.4382050781e+003;4.4300000000e+003;4.4252563477e+003;
4.1406250000e-001;4.4076923828e+003;4.4202563477e+003;4.4214101563e+003;4.4266665039e+003;4.4274360352e+003;4.4235898438e+003;4.4206411133e+003;4.4312822266e+003;4.4320512695e+003;4.4453847656e+003;4.4320512695e+003;4.4360258789e+003;4.4319228516e+003;4.4207690430e+003;
4.2187500000e-001;4.3994873047e+003;4.4065385742e+003;4.4128203125e+003;4.4162822266e+003;4.4142309570e+003;4.4130771484e+003;4.4121796875e+003;4.4178203125e+003;4.4197436523e+003;4.4315385742e+003;4.4200000000e+003;4.4226923828e+003;4.4211538086e+003;4.4088461914e+003;
4.2968750000e-001;4.4353847656e+003;4.4415385742e+003;4.4444873047e+003;4.4480771484e+003;4.4503847656e+003;4.4411538086e+003;4.4441025391e+003;4.4465385742e+003;4.4500000000e+003;4.4628203125e+003;4.4523076172e+003;4.4524360352e+003;4.4541025391e+003;4.4411538086e+003;
4.3750000000e-001;4.5056411133e+003;4.5174360352e+003;4.5075639648e+003;4.5133334961e+003;4.5323076172e+003;4.5012822266e+003;4.5019228516e+003;4.5112822266e+003;4.5192309570e+003;4.5378203125e+003;4.5210258789e+003;4.5206411133e+003;4.5233334961e+003;4.5097436523e+003;
4.4531250000e-001;4.4321796875e+003;4.4371796875e+003;4.4398715820e+003;4.4437177734e+003;4.4379487305e+003;4.4405126953e+003;4.4320512695e+003;4.4323076172e+003;4.4437177734e+003;4.4614101563e+003;4.4458974609e+003;4.4485898438e+003;4.4488461914e+003;4.4321796875e+003;
4.5312500000e-001;4.4625639648e+003;4.4688461914e+003;4.4679487305e+003;4.4702563477e+003;4.4557690430e+003;4.4674360352e+003;4.4607690430e+003;4.4603847656e+003;4.4720512695e+003;4.4905126953e+003;4.4771796875e+003;4.4769228516e+003;4.4802563477e+003;4.4626923828e+003;
4.6093750000e-001;4.4835898438e+003;4.4941025391e+003;4.4864101563e+003;4.4878203125e+003;4.4751284180e+003;4.4865385742e+003;4.4798715820e+003;4.4824360352e+003;4.4942309570e+003;4.5134614258e+003;4.5005126953e+003;4.4983334961e+003;4.5034614258e+003;4.4857690430e+003;
4.6875000000e-001;4.4496152344e+003;4.4625639648e+003;4.4501284180e+003;4.4541025391e+003;4.4714101563e+003;4.4571796875e+003;4.4461538086e+003;4.4479487305e+003;4.4602563477e+003;4.4776923828e+003;4.4647436523e+003;4.4634614258e+003;4.4680771484e+003;4.4507690430e+003;
4.7656250000e-001;4.4500000000e+003;4.4596152344e+003;4.4501284180e+003;4.4552563477e+003;4.4865385742e+003;4.4564101563e+003;4.4452563477e+003;4.4443588867e+003;4.4569228516e+003;4.4734614258e+003;4.4608974609e+003;4.4600000000e+003;4.4641025391e+003;4.4464101563e+003;
4.8437500000e-001;4.4697436523e+003;4.4770512695e+003;4.4706411133e+003;4.4757690430e+003;4.5094873047e+003;4.4725639648e+003;4.4625639648e+003;4.4630771484e+003;4.4743588867e+003;4.4914101563e+003;4.4782050781e+003;4.4776923828e+003;4.4802563477e+003;4.4634614258e+003;
4.9218750000e-001;4.4861538086e+003;4.4942309570e+003;4.4846152344e+003;4.4893588867e+003;4.4997436523e+003;4.4870512695e+003;4.4767949219e+003;4.4842309570e+003;4.4860258789e+003;4.5025639648e+003;4.4891025391e+003;4.4955126953e+003;4.4916665039e+003;4.4797436523e+003;
5.0000000000e-001;4.5005126953e+003;4.5042309570e+003;4.5016665039e+003;4.5025639648e+003;4.5174360352e+003;4.4950000000e+003;4.4862822266e+003;4.4987177734e+003;4.5012822266e+003;4.5189741211e+003;4.5033334961e+003;4.5089741211e+003;4.5047436523e+003;4.4933334961e+003;
5.0781250000e-001;4.4301284180e+003;4.4458974609e+003;4.4360258789e+003;4.4412822266e+003;4.4460258789e+003;4.4296152344e+003;4.4320512695e+003;4.4398715820e+003;4.4391025391e+003;4.4500000000e+003;4.4441025391e+003;4.4419228516e+003;4.4417949219e+003;4.4303847656e+003;
5.1562500000e-001;4.4832050781e+003;4.5001284180e+003;4.4814101563e+003;4.4884614258e+003;4.5026923828e+003;4.4835898438e+003;4.4792309570e+003;4.4982050781e+003;4.4980771484e+003;4.5128203125e+003;4.4973076172e+003;4.4994873047e+003;4.4962822266e+003;4.4857690430e+003;
5.2343750000e-001;4.3726923828e+003;4.3862822266e+003;4.3762822266e+003;4.3865385742e+003;4.3926923828e+003;4.3825639648e+003;4.3715385742e+003;4.3929487305e+003;4.3932050781e+003;4.4035898438e+003;4.3865385742e+003;4.3933334961e+003;4.3860258789e+003;4.3789741211e+003;
5.3125000000e-001;4.0593588867e+003;4.0689743652e+003;4.0689743652e+003;4.0883332520e+003;4.0715385742e+003;4.0894870605e+003;4.0758974609e+003;4.0862819824e+003;4.0887180176e+003;4.0806411133e+003;4.0797436523e+003;4.0846154785e+003;4.0783332520e+003;4.0737180176e+003;
5.3906250000e-001;3.9452563477e+003;3.9475642090e+003;3.9583332520e+003;3.9898718262e+003;3.9652563477e+003;3.9900000000e+003;3.9650000000e+003;3.9684614258e+003;3.9750000000e+003;3.9580769043e+003;3.9644870605e+003;3.9778205566e+003;3.9620512695e+003;3.9665385742e+003;
5.4687500000e-001;3.9197436523e+003;3.9221794434e+003;3.9330769043e+003;3.9739743652e+003;3.9457692871e+003;3.9679487305e+003;3.9385898438e+003;3.9416667480e+003;3.9494870605e+003;3.9321794434e+003;3.9380769043e+003;3.9514101563e+003;3.9385898438e+003;3.9432050781e+003;
5.5468750000e-001;3.8761538086e+003;3.8789743652e+003;3.8894870605e+003;3.9387180176e+003;3.9035898438e+003;3.9279487305e+003;3.8950000000e+003;3.8987180176e+003;3.9069230957e+003;3.8900000000e+003;3.8953845215e+003;3.9083332520e+003;3.8976923828e+003;3.9017949219e+003;
5.6250000000e-001;3.7351281738e+003;3.7358974609e+003;3.7519230957e+003;3.8048718262e+003;3.7539743652e+003;3.7975642090e+003;3.7589743652e+003;3.7584614258e+003;3.7666667480e+003;3.7470512695e+003;3.7550000000e+003;3.7712819824e+003;3.7546154785e+003;3.7610256348e+003;
5.7031250000e-001;3.6947436523e+003;3.6973076172e+003;3.7117949219e+003;3.7646154785e+003;3.7180769043e+003;3.7621794434e+003;3.7233332520e+003;3.7211538086e+003;3.7319230957e+003;3.7102563477e+003;3.7175642090e+003;3.7321794434e+003;3.7110256348e+003;3.7217949219e+003;
5.7812500000e-001;3.6650000000e+003;3.6692307129e+003;3.6798718262e+003;3.7385898438e+003;3.6905129395e+003;3.7366667480e+003;3.6971794434e+003;3.6971794434e+003;3.7070512695e+003;3.6841025391e+003;3.6906411133e+003;3.7039743652e+003;3.6852563477e+003;3.6953845215e+003;
5.8593750000e-001;3.6155129395e+003;3.6197436523e+003;3.6287180176e+003;3.6921794434e+003;3.6396154785e+003;3.6920512695e+003;3.6526923828e+003;3.6507692871e+003;3.6585898438e+003;3.6330769043e+003;3.6408974609e+003;3.6548718262e+003;3.6388461914e+003;3.6474357910e+003;
5.9375000000e-001;3.5865385742e+003;3.5858974609e+003;3.5989743652e+003;3.6628205566e+003;3.6007692871e+003;3.6603845215e+003;3.6260256348e+003;3.6175642090e+003;3.6210256348e+003;3.5932050781e+003;3.6055129395e+003;3.6228205566e+003;3.6092307129e+003;3.6160256348e+003;
6.0156250000e-001;3.5956411133e+003;3.5924357910e+003;3.6093588867e+003;3.6717949219e+003;3.6073076172e+003;3.6660256348e+003;3.6339743652e+003;3.6280769043e+003;3.6287180176e+003;3.6017949219e+003;3.6139743652e+003;3.6330769043e+003;3.6171794434e+003;3.6253845215e+003;
6.0937500000e-001;3.5770512695e+003;3.5732050781e+003;3.5921794434e+003;3.6558974609e+003;3.5903845215e+003;3.6489743652e+003;3.6179487305e+003;3.6153845215e+003;3.6129487305e+003;3.5860256348e+003;3.5969230957e+003;3.6173076172e+003;3.5984614258e+003;3.6083332520e+003;
6.1718750000e-001;3.4633332520e+003;3.4706411133e+003;3.4775642090e+003;3.5557692871e+003;3.4624357910e+003;3.5489743652e+003;3.5212819824e+003;3.5166667480e+003;3.5101281738e+003;3.4766667480e+003;3.4835898438e+003;3.4982050781e+003;3.4852563477e+003;3.4906411133e+003;
6.2500000000e-001;3.4248718262e+003;3.4273076172e+003;3.4435898438e+003;3.5179487305e+003;3.4275642090e+003;3.5119230957e+003;3.4842307129e+003;3.4785898438e+003;3.4715385742e+003;3.4357692871e+003;3.4432050781e+003;3.4614101563e+003;3.4450000000e+003;3.4534614258e+003;
6.3281250000e-001;3.4693588867e+003;3.4689743652e+003;3.4776923828e+003;3.5500000000e+003;3.5105129395e+003;3.5508974609e+003;3.5273076172e+003;3.5175642090e+003;3.5197436523e+003;3.4826923828e+003;3.4871794434e+003;3.5010256348e+003;3.4917949219e+003;3.5015385742e+003;
6.4062500000e-001;3.3869230957e+003;3.3846154785e+003;3.3928205566e+003;3.4835898438e+003;3.4135898438e+003;3.4851281738e+003;3.4456411133e+003;3.4393588867e+003;3.4482050781e+003;3.4079487305e+003;3.4080769043e+003;3.4211538086e+003;3.4092307129e+003;3.4205129395e+003;
6.4843750000e-001;3.3803845215e+003;3.3758974609e+003;3.3889743652e+003;3.4778205566e+003;3.4043588867e+003;3.4778205566e+003;3.4371794434e+003;3.4288461914e+003;3.4410256348e+003;3.3987180176e+003;3.4000000000e+003;3.4129487305e+003;3.4024357910e+003;3.4125642090e+003;
6.5625000000e-001;3.3653845215e+003;3.3632050781e+003;3.3733332520e+003;3.4535898438e+003;3.3861538086e+003;3.4597436523e+003;3.4134614258e+003;3.4053845215e+003;3.4274357910e+003;3.3855129395e+003;3.3833332520e+003;3.4025642090e+003;3.3889743652e+003;3.3991025391e+003;
6.6406250000e-001;3.3606411133e+003;3.3589743652e+003;3.3637180176e+003;3.4494870605e+003;3.3757692871e+003;3.4537180176e+003;3.4067949219e+003;3.3944870605e+003;3.4150000000e+003;3.3743588867e+003;3.3760256348e+003;3.3955129395e+003;3.3806411133e+003;3.3919230957e+003;
6.7187500000e-001;3.4332050781e+003;3.4293588867e+003;3.4296154785e+003;3.5205129395e+003;3.4455129395e+003;3.5141025391e+003;3.4724357910e+003;3.4591025391e+003;3.4738461914e+003;3.4412819824e+003;3.4480769043e+003;3.4630769043e+003;3.4533332520e+003;3.4644870605e+003;
6.7968750000e-001;3.4408974609e+003;3.4367949219e+003;3.4398718262e+003;3.5301281738e+003;3.4583332520e+003;3.5201281738e+003;3.4810256348e+003;3.4708974609e+003;3.4838461914e+003;3.4551281738e+003;3.4594870605e+003;3.4751281738e+003;3.4670512695e+003;3.4782050781e+003;
6.8750000000e-001;3.4043588867e+003;3.4069230957e+003;3.4073076172e+003;3.5058974609e+003;3.4246154785e+003;3.4894870605e+003;3.4562819824e+003;3.4424357910e+003;3.4506411133e+003;3.4225642090e+003;3.4252563477e+003;3.4473076172e+003;3.4338461914e+003;3.4444870605e+003;
6.9531250000e-001;3.4483332520e+003;3.4487180176e+003;3.4478205566e+003;3.5417949219e+003;3.4615385742e+003;3.5255129395e+003;3.4947436523e+003;3.4832050781e+003;3.4873076172e+003;3.4620512695e+003;3.4648718262e+003;3.4856411133e+003;3.4698718262e+003;3.4812819824e+003;
7.0312500000e-001;3.4592307129e+003;3.4498718262e+003;3.4607692871e+003;3.5360256348e+003;3.4658974609e+003;3.5247436523e+003;3.4984614258e+003;3.4902563477e+003;3.4852563477e+003;3.4661538086e+003;3.4697436523e+003;3.4876923828e+003;3.4687180176e+003;3.4839743652e+003;
7.1093750000e-001;3.4385898438e+003;3.4279487305e+003;3.4428205566e+003;3.5142307129e+003;3.4479487305e+003;3.5039743652e+003;3.4806411133e+003;3.4678205566e+003;3.4624357910e+003;3.4432050781e+003;3.4489743652e+003;3.4664101563e+003;3.4484614258e+003;3.4633332520e+003;
7.1875000000e-001;3.4942307129e+003;3.4903845215e+003;3.4911538086e+003;3.5735898438e+003;3.4979487305e+003;3.5555129395e+003;3.5334614258e+003;3.5225642090e+003;3.5251281738e+003;3.5061538086e+003;3.5106411133e+003;3.5321794434e+003;3.5135898438e+003;3.5225642090e+003;
7.2656250000e-001;3.4855129395e+003;3.4817949219e+003;3.4800000000e+003;3.5641025391e+003;3.4824357910e+003;3.5464101563e+003;3.5224357910e+003;3.5147436523e+003;3.5171794434e+003;3.4970512695e+003;3.5005129395e+003;3.5248718262e+003;3.5042307129e+003;3.5138461914e+003;
7.3437500000e-001;3.4784614258e+003;3.4733332520e+003;3.4715385742e+003;3.5526923828e+003;3.4735898438e+003;3.5380769043e+003;3.5141025391e+003;3.5060256348e+003;3.5079487305e+003;3.4851281738e+003;3.4896154785e+003;3.5146154785e+003;3.4947436523e+003;3.5046154785e+003;
7.4218750000e-001;3.4800000000e+003;3.4637180176e+003;3.4766667480e+003;3.5430769043e+003;3.4673076172e+003;3.5394870605e+003;3.5151281738e+003;3.5053845215e+003;3.5137180176e+003;3.4897436523e+003;3.4892307129e+003;3.5084614258e+003;3.4897436523e+003;3.4970512695e+003;
7.5000000000e-001;3.4852563477e+003;3.4703845215e+003;3.4803845215e+003;3.5485898438e+003;3.4608974609e+003;3.5448718262e+003;3.5188461914e+003;3.5069230957e+003;3.5152563477e+003;3.4911538086e+003;3.4912819824e+003;3.5078205566e+003;3.4925642090e+003;3.4989743652e+003;
7.5781250000e-001;3.5587180176e+003;3.5503845215e+003;3.5525642090e+003;3.6279487305e+003;3.5719230957e+003;3.6160256348e+003;3.5825642090e+003;3.5844870605e+003;3.5947436523e+003;3.5729487305e+003;3.5610256348e+003;3.5812819824e+003;3.5635898438e+003;3.5735898438e+003;
7.6562500000e-001;3.5405129395e+003;3.5365385742e+003;3.5339743652e+003;3.6120512695e+003;3.5743588867e+003;3.6034614258e+003;3.5673076172e+003;3.5662819824e+003;3.5789743652e+003;3.5573076172e+003;3.5428205566e+003;3.5675642090e+003;3.5455129395e+003;3.5565385742e+003;
7.7343750000e-001;3.5844870605e+003;3.5825642090e+003;3.5685898438e+003;3.6425642090e+003;3.6158974609e+003;3.6439743652e+003;3.6106411133e+003;3.6002563477e+003;3.6176923828e+003;3.6007692871e+003;3.5841025391e+003;3.6098718262e+003;3.5892307129e+003;3.5969230957e+003;
7.8125000000e-001;3.5450000000e+003;3.5358974609e+003;3.5283332520e+003;3.6033332520e+003;3.5606411133e+003;3.6134614258e+003;3.5780769043e+003;3.5679487305e+003;3.5796154785e+003;3.5615385742e+003;3.5525642090e+003;3.5725642090e+003;3.5532050781e+003;3.5621794434e+003;
7.8906250000e-001;3.5507692871e+003;3.5421794434e+003;3.5324357910e+003;3.6065385742e+003;3.5742307129e+003;3.6151281738e+003;3.5814101563e+003;3.5717949219e+003;3.5814101563e+003;3.5662819824e+003;3.5588461914e+003;3.5775642090e+003;3.5582050781e+003;3.5670512695e+003;
7.9687500000e-001;3.5328205566e+003;3.5197436523e+003;3.5139743652e+003;3.5874357910e+003;3.5494870605e+003;3.5865385742e+003;3.5574357910e+003;3.5534614258e+003;3.5553845215e+003;3.5496154785e+003;3.5398718262e+003;3.5612819824e+003;3.5384614258e+003;3.5464101563e+003;
8.0468750000e-001;3.5012819824e+003;3.4858974609e+003;3.4834614258e+003;3.5597436523e+003;3.5094870605e+003;3.5546154785e+003;3.5279487305e+003;3.5217949219e+003;3.5210256348e+003;3.5161538086e+003;3.5064101563e+003;3.5305129395e+003;3.5062819824e+003;3.5147436523e+003;
8.1250000000e-001;3.5200000000e+003;3.5088461914e+003;3.4998718262e+003;3.5761538086e+003;3.5211538086e+003;3.5660256348e+003;3.5451281738e+003;3.5383332520e+003;3.5428205566e+003;3.5346154785e+003;3.5262819824e+003;3.5510256348e+003;3.5251281738e+003;3.5411538086e+003;
8.2031250000e-001;3.4985898438e+003;3.4866667480e+003;3.4815385742e+003;3.5529487305e+003;3.4998718262e+003;3.5426923828e+003;3.5202563477e+003;3.5183332520e+003;3.5234614258e+003;3.5139743652e+003;3.5064101563e+003;3.5323076172e+003;3.5020512695e+003;3.5211538086e+003;
8.2812500000e-001;3.4457692871e+003;3.4273076172e+003;3.4350000000e+003;3.5033332520e+003;3.4446154785e+003;3.4882050781e+003;3.4655129395e+003;3.4626923828e+003;3.4656411133e+003;3.4519230957e+003;3.4488461914e+003;3.4783332520e+003;3.4443588867e+003;3.4617949219e+003;
8.3593750000e-001;3.4619230957e+003;3.4438461914e+003;3.4507692871e+003;3.5219230957e+003;3.4593588867e+003;3.5033332520e+003;3.4821794434e+003;3.4775642090e+003;3.4802563477e+003;3.4655129395e+003;3.4633332520e+003;3.4937180176e+003;3.4620512695e+003;3.4743588867e+003;
8.4375000000e-001;3.4502563477e+003;3.4428205566e+003;3.4371794434e+003;3.5143588867e+003;3.4591025391e+003;3.5048718262e+003;3.4815385742e+003;3.4770512695e+003;3.4800000000e+003;3.4610256348e+003;3.4607692871e+003;3.4914101563e+003;3.4624357910e+003;3.4673076172e+003;
8.5156250000e-001;3.4420512695e+003;3.4338461914e+003;3.4288461914e+003;3.5039743652e+003;3.4579487305e+003;3.4997436523e+003;3.4753845215e+003;3.4694870605e+003;3.4716667480e+003;3.4517949219e+003;3.4541025391e+003;3.4816667480e+003;3.4546154785e+003;3.4575642090e+003;
8.5937500000e-001;3.4567949219e+003;3.4467949219e+003;3.4432050781e+003;3.5157692871e+003;3.4766667480e+003;3.5138461914e+003;3.4882050781e+003;3.4832050781e+003;3.4853845215e+003;3.4671794434e+003;3.4693588867e+003;3.4939743652e+003;3.4688461914e+003;3.4685898438e+003;
8.6718750000e-001;3.4658974609e+003;3.4551281738e+003;3.4524357910e+003;3.5248718262e+003;3.4850000000e+003;3.5223076172e+003;3.4938461914e+003;3.4912819824e+003;3.4953845215e+003;3.4798718262e+003;3.4785898438e+003;3.5029487305e+003;3.4774357910e+003;3.4746154785e+003;
8.7500000000e-001;3.4333332520e+003;3.4285898438e+003;3.4192307129e+003;3.4994870605e+003;3.4517949219e+003;3.4996154785e+003;3.4623076172e+003;3.4492307129e+003;3.4620512695e+003;3.4489743652e+003;3.4370512695e+003;3.4661538086e+003;3.4439743652e+003;3.4358974609e+003;
8.8281250000e-001;3.4330769043e+003;3.4329487305e+003;3.4179487305e+003;3.5047436523e+003;3.4428205566e+003;3.5105129395e+003;3.4766667480e+003;3.4626923828e+003;3.4662819824e+003;3.4582050781e+003;3.4419230957e+003;3.4742307129e+003;3.4453845215e+003;3.4411538086e+003;
8.9062500000e-001;3.4614101563e+003;3.4601281738e+003;3.4441025391e+003;3.5279487305e+003;3.4575642090e+003;3.5317949219e+003;3.5003845215e+003;3.4830769043e+003;3.4861538086e+003;3.4825642090e+003;3.4674357910e+003;3.4971794434e+003;3.4697436523e+003;3.4673076172e+003;
8.9843750000e-001;3.5082050781e+003;3.5006411133e+003;3.4932050781e+003;3.5612819824e+003;3.5107692871e+003;3.5674357910e+003;3.5355129395e+003;3.5257692871e+003;3.5292307129e+003;3.5320512695e+003;3.5143588867e+003;3.5437180176e+003;3.5180769043e+003;3.5187180176e+003;
9.0625000000e-001;3.5760256348e+003;3.5692307129e+003;3.5569230957e+003;3.6332050781e+003;3.6046154785e+003;3.6108974609e+003;3.5941025391e+003;3.5898718262e+003;3.5923076172e+003;3.5956411133e+003;3.5861538086e+003;3.6130769043e+003;3.5858974609e+003;3.5850000000e+003;
9.1406250000e-001;3.6030769043e+003;3.5937180176e+003;3.5838461914e+003;3.6546154785e+003;3.6161538086e+003;3.6276923828e+003;3.6124357910e+003;3.6142307129e+003;3.6132050781e+003;3.6225642090e+003;3.6091025391e+003;3.6366667480e+003;3.6089743652e+003;3.6070512695e+003;
9.2187500000e-001;3.5720512695e+003;3.5597436523e+003;3.5571794434e+003;3.6160256348e+003;3.5687180176e+003;3.5939743652e+003;3.5784614258e+003;3.5776923828e+003;3.5746154785e+003;3.5866667480e+003;3.5701281738e+003;3.6016667480e+003;3.5732050781e+003;3.5689743652e+003;
9.2968750000e-001;3.5752563477e+003;3.5660256348e+003;3.5608974609e+003;3.6180769043e+003;3.5743588867e+003;3.5984614258e+003;3.5850000000e+003;3.5798718262e+003;3.5793588867e+003;3.5883332520e+003;3.5751281738e+003;3.6052563477e+003;3.5773076172e+003;3.5723076172e+003;
9.3750000000e-001;3.5552563477e+003;3.5511538086e+003;3.5420512695e+003;3.6025642090e+003;3.5644870605e+003;3.5882050781e+003;3.5755129395e+003;3.5755129395e+003;3.5782050781e+003;3.5805129395e+003;3.5716667480e+003;3.5935898438e+003;3.5683332520e+003;3.5620512695e+003;
9.4531250000e-001;3.5373076172e+003;3.5289743652e+003;3.5238461914e+003;3.5825642090e+003;3.5457692871e+003;3.5737180176e+003;3.5589743652e+003;3.5576923828e+003;3.5600000000e+003;3.5626923828e+003;3.5503845215e+003;3.5721794434e+003;3.5519230957e+003;3.5415385742e+003;
9.5312500000e-001;3.5884614258e+003;3.5714101563e+003;3.5691025391e+003;3.6229487305e+003;3.5887180176e+003;3.6241025391e+003;3.6053845215e+003;3.6017949219e+003;3.6062819824e+003;3.6121794434e+003;3.5902563477e+003;3.6148718262e+003;3.5989743652e+003;3.5865385742e+003;
9.6093750000e-001;3.5978205566e+003;3.5815385742e+003;3.5774357910e+003;3.6314101563e+003;3.5965385742e+003;3.6370512695e+003;3.6151281738e+003;3.6132050781e+003;3.6185898438e+003;3.6229487305e+003;3.6001281738e+003;3.6270512695e+003;3.6057692871e+003;3.5987180176e+003;
9.6875000000e-001;3.5612819824e+003;3.5584614258e+003;3.5411538086e+003;3.6016667480e+003;3.5844870605e+003;3.6130769043e+003;3.5867949219e+003;3.5843588867e+003;3.5910256348e+003;3.5847436523e+003;3.5716667480e+003;3.5982050781e+003;3.5717949219e+003;3.5675642090e+003;
9.7656250000e-001;3.5889743652e+003;3.5848718262e+003;3.5653845215e+003;3.6273076172e+003;3.6139743652e+003;3.6348718262e+003;3.6097436523e+003;3.6092307129e+003;3.6175642090e+003;3.6130769043e+003;3.5979487305e+003;3.6230769043e+003;3.6005129395e+003;3.5893588867e+003;
9.8437500000e-001;3.5947436523e+003;3.5869230957e+003;3.5697436523e+003;3.6329487305e+003;3.6152563477e+003;3.6366667480e+003;3.6124357910e+003;3.6134614258e+003;3.6229487305e+003;3.6206411133e+003;3.6017949219e+003;3.6278205566e+003;3.6053845215e+003;3.5894870605e+003;
9.9218750000e-001;3.5669230957e+003;3.5565385742e+003;3.5444870605e+003;3.6079487305e+003;3.5814101563e+003;3.6105129395e+003;3.5865385742e+003;3.5855129395e+003;3.5951281738e+003;3.5925642090e+003;3.5721794434e+003;3.6011538086e+003;3.5751281738e+003;3.5587180176e+003;
1.0000000000e+000;3.5830769043e+003;3.5761538086e+003;3.5733332520e+003;3.6298718262e+003;3.6025642090e+003;3.6251281738e+003;3.6046154785e+003;3.5957692871e+003;3.6015385742e+003;3.5998718262e+003;3.5884614258e+003;3.6189743652e+003;3.5847436523e+003;3.5784614258e+003;
1.0078125000e+000;3.5869230957e+003;3.5833332520e+003;3.5734614258e+003;3.6238461914e+003;3.5923076172e+003;3.6275642090e+003;3.6111538086e+003;3.6015385742e+003;3.6005129395e+003;3.6043588867e+003;3.5939743652e+003;3.6237180176e+003;3.5921794434e+003;3.5823076172e+003;
1.0156250000e+000;3.5989743652e+003;3.5982050781e+003;3.5864101563e+003;3.6370512695e+003;3.6057692871e+003;3.6367949219e+003;3.6206411133e+003;3.6158974609e+003;3.6174357910e+003;3.6212819824e+003;3.6107692871e+003;3.6402563477e+003;3.6083332520e+003;3.5983332520e+003;
1.0234375000e+000;3.5376923828e+003;3.5383332520e+003;3.5321794434e+003;3.5902563477e+003;3.5573076172e+003;3.5738461914e+003;3.5591025391e+003;3.5534614258e+003;3.5589743652e+003;3.5615385742e+003;3.5546154785e+003;3.5856411133e+003;3.5525642090e+003;3.5452563477e+003;
1.0312500000e+000;3.5600000000e+003;3.5534614258e+003;3.5492307129e+003;3.5994870605e+003;3.5343588867e+003;3.5798718262e+003;3.5716667480e+003;3.5762819824e+003;3.5857692871e+003;3.5902563477e+003;3.5748718262e+003;3.6019230957e+003;3.5716667480e+003;3.5683332520e+003;
1.0390625000e+000;3.5264101563e+003;3.5207692871e+003;3.5138461914e+003;3.5633332520e+003;3.5080769043e+003;3.5535898438e+003;3.5417949219e+003;3.5461538086e+003;3.5582050781e+003;3.5584614258e+003;3.5425642090e+003;3.5687180176e+003;3.5400000000e+003;3.5353845215e+003;
1.0468750000e+000;3.5325642090e+003;3.5321794434e+003;3.5144870605e+003;3.5714101563e+003;3.5605129395e+003;3.5679487305e+003;3.5561538086e+003;3.5543588867e+003;3.5666667480e+003;3.5655129395e+003;3.5494870605e+003;3.5720512695e+003;3.5507692871e+003;3.5416667480e+003;
1.0546875000e+000;3.5423076172e+003;3.5430769043e+003;3.5239743652e+003;3.5835898438e+003;3.5844870605e+003;3.5801281738e+003;3.5688461914e+003;3.5664101563e+003;3.5760256348e+003;3.5784614258e+003;3.5582050781e+003;3.5820512695e+003;3.5605129395e+003;3.5514101563e+003;
1.0625000000e+000;3.4942307129e+003;3.4939743652e+003;3.4793588867e+003;3.5393588867e+003;3.5146154785e+003;3.5533332520e+003;3.5334614258e+003;3.5169230957e+003;3.5243588867e+003;3.5297436523e+003;3.5026923828e+003;3.5308974609e+003;3.5055129395e+003;3.4966667480e+003;
1.0703125000e+000;3.5237180176e+003;3.5253845215e+003;3.5076923828e+003;3.5689743652e+003;3.5433332520e+003;3.5852563477e+003;3.5646154785e+003;3.5457692871e+003;3.5564101563e+003;3.5606411133e+003;3.5346154785e+003;3.5591025391e+003;3.5380769043e+003;3.5267949219e+003;
1.0781250000e+000;3.5362819824e+003;3.5389743652e+003;3.5225642090e+003;3.5879487305e+003;3.5689743652e+003;3.5980769043e+003;3.5783332520e+003;3.5635898438e+003;3.5780769043e+003;3.5796154785e+003;3.5547436523e+003;3.5755129395e+003;3.5589743652e+003;3.5464101563e+003;
1.0859375000e+000;3.5126923828e+003;3.5132050781e+003;3.5010256348e+003;3.5666667480e+003;3.5474357910e+003;3.5737180176e+003;3.5546154785e+003;3.5387180176e+003;3.5519230957e+003;3.5526923828e+003;3.5300000000e+003;3.5511538086e+003;3.5338461914e+003;3.5230769043e+003;
1.0937500000e+000;3.5798718262e+003;3.5842307129e+003;3.5680769043e+003;3.6197436523e+003;3.6067949219e+003;3.6305129395e+003;3.6119230957e+003;3.5991025391e+003;3.6075642090e+003;3.6147436523e+003;3.5939743652e+003;3.6155129395e+003;3.5932050781e+003;3.5861538086e+003;
1.1015625000e+000;3.5743588867e+003;3.5824357910e+003;3.5633332520e+003;3.6157692871e+003;3.6001281738e+003;3.6275642090e+003;3.6076923828e+003;3.5984614258e+003;3.6062819824e+003;3.6130769043e+003;3.5919230957e+003;3.6153845215e+003;3.5894870605e+003;3.5826923828e+003;
1.1093750000e+000;3.5493588867e+003;3.5585898438e+003;3.5380769043e+003;3.5955129395e+003;3.5733332520e+003;3.6053845215e+003;3.5853845215e+003;3.5753845215e+003;3.5824357910e+003;3.5866667480e+003;3.5675642090e+003;3.5928205566e+003;3.5647436523e+003;3.5579487305e+003;
1.1171875000e+000;3.5465385742e+003;3.5537180176e+003;3.5324357910e+003;3.5943588867e+003;3.5674357910e+003;3.5992307129e+003;3.5816667480e+003;3.5682050781e+003;3.5744870605e+003;3.5775642090e+003;3.5612819824e+003;3.5870512695e+003;3.5594870605e+003;3.5516667480e+003;
1.1250000000e+000;3.5921794434e+003;3.5835898438e+003;3.5734614258e+003;3.6139743652e+003;3.5946154785e+003;3.6153845215e+003;3.6082050781e+003;3.6053845215e+003;3.6043588867e+003;3.6166667480e+003;3.5988461914e+003;3.6261538086e+003;3.5953845215e+003;3.5937180176e+003;
1.1328125000e+000;3.5891025391e+003;3.5806411133e+003;3.5701281738e+003;3.6101281738e+003;3.5906411133e+003;3.6115385742e+003;3.6050000000e+003;3.6026923828e+003;3.6037180176e+003;3.6125642090e+003;3.5974357910e+003;3.6223076172e+003;3.5908974609e+003;3.5923076172e+003;
1.1406250000e+000;3.6543588867e+003;3.6470512695e+003;3.6343588867e+003;3.6794870605e+003;3.6630769043e+003;3.6698718262e+003;3.6612819824e+003;3.6669230957e+003;3.6782050781e+003;3.6894870605e+003;3.6648718262e+003;3.6887180176e+003;3.6560256348e+003;3.6551281738e+003;
1.1484375000e+000;3.6683332520e+003;3.6607692871e+003;3.6558974609e+003;3.6921794434e+003;3.6750000000e+003;3.6765385742e+003;3.6742307129e+003;3.6733332520e+003;3.6825642090e+003;3.6951281738e+003;3.6717949219e+003;3.6965385742e+003;3.6666667480e+003;3.6648718262e+003;
1.1562500000e+000;3.7002563477e+003;3.6943588867e+003;3.6847436523e+003;3.7221794434e+003;3.7044870605e+003;3.7053845215e+003;3.7016667480e+003;3.7055129395e+003;3.7166667480e+003;3.7273076172e+003;3.7032050781e+003;3.7258974609e+003;3.6978205566e+003;3.6969230957e+003;
1.1640625000e+000;3.6348718262e+003;3.6384614258e+003;3.6194870605e+003;3.6617949219e+003;3.6464101563e+003;3.6660256348e+003;3.6542307129e+003;3.6524357910e+003;3.6637180176e+003;3.6685898438e+003;3.6411538086e+003;3.6644870605e+003;3.6378205566e+003;3.6325642090e+003;
1.1718750000e+000;3.6620512695e+003;3.6680769043e+003;3.6464101563e+003;3.6893588867e+003;3.6866667480e+003;3.6988461914e+003;3.6884614258e+003;3.6825642090e+003;3.6903845215e+003;3.6993588867e+003;3.6660256348e+003;3.6855129395e+003;3.6664101563e+003;3.6542307129e+003;
1.1796875000e+000;3.6357692871e+003;3.6411538086e+003;3.6169230957e+003;3.6694870605e+003;3.6579487305e+003;3.6765385742e+003;3.6624357910e+003;3.6566667480e+003;3.6650000000e+003;3.6715385742e+003;3.6380769043e+003;3.6588461914e+003;3.6374357910e+003;3.6287180176e+003;
1.1875000000e+000;3.6220512695e+003;3.6276923828e+003;3.5997436523e+003;3.6598718262e+003;3.6411538086e+003;3.6665385742e+003;3.6508974609e+003;3.6420512695e+003;3.6508974609e+003;3.6547436523e+003;3.6232050781e+003;3.6453845215e+003;3.6220512695e+003;3.6161538086e+003;
1.1953125000e+000;3.6703845215e+003;3.6762819824e+003;3.6493588867e+003;3.7007692871e+003;3.6889743652e+003;3.7151281738e+003;3.7050000000e+003;3.6933332520e+003;3.6994870605e+003;3.7055129395e+003;3.6762819824e+003;3.7001281738e+003;3.6746154785e+003;3.6692307129e+003;
1.2031250000e+000;3.6256411133e+003;3.6297436523e+003;3.6185898438e+003;3.6535898438e+003;3.6524357910e+003;3.6715385742e+003;3.6635898438e+003;3.6461538086e+003;3.6458974609e+003;3.6576923828e+003;3.6316667480e+003;3.6592307129e+003;3.6307692871e+003;3.6280769043e+003;
1.2109375000e+000;3.6538461914e+003;3.6584614258e+003;3.6428205566e+003;3.6814101563e+003;3.6779487305e+003;3.6928205566e+003;3.6858974609e+003;3.6660256348e+003;3.6646154785e+003;3.6803845215e+003;3.6560256348e+003;3.6819230957e+003;3.6551281738e+003;3.6517949219e+003;
1.2187500000e+000;3.7048718262e+003;3.7087180176e+003;3.6880769043e+003;3.7294870605e+003;3.7230769043e+003;3.7347436523e+003;3.7292307129e+003;3.7115385742e+003;3.7091025391e+003;3.7303845215e+003;3.7056411133e+003;3.7300000000e+003;3.7037180176e+003;3.6992307129e+003;
1.2265625000e+000;3.7329487305e+003;3.7316667480e+003;3.7126923828e+003;3.7521794434e+003;3.7416667480e+003;3.7560256348e+003;3.7506411133e+003;3.7389743652e+003;3.7361538086e+003;3.7629487305e+003;3.7361538086e+003;3.7606411133e+003;3.7328205566e+003;3.7256411133e+003;
1.2343750000e+000;3.7317949219e+003;3.7289743652e+003;3.7128205566e+003;3.7473076172e+003;3.7398718262e+003;3.7539743652e+003;3.7485898438e+003;3.7350000000e+003;3.7343588867e+003;3.7611538086e+003;3.7342307129e+003;3.7593588867e+003;3.7337180176e+003;3.7233332520e+003;
1.2421875000e+000;3.7612819824e+003;3.7582050781e+003;3.7419230957e+003;3.7700000000e+003;3.7685898438e+003;3.7780769043e+003;3.7739743652e+003;3.7588461914e+003;3.7611538086e+003;3.7893588867e+003;3.7621794434e+003;3.7867949219e+003;3.7646154785e+003;3.7507692871e+003;
1.2500000000e+000;3.8428205566e+003;3.8432050781e+003;3.8179487305e+003;3.8473076172e+003;3.8534614258e+003;3.8428205566e+003;3.8484614258e+003;3.8435898438e+003;3.8479487305e+003;3.8770512695e+003;3.8487180176e+003;3.8712819824e+003;3.8458974609e+003;3.8367949219e+003;
1.2578125000e+000;3.8847436523e+003;3.8887180176e+003;3.8611538086e+003;3.8902563477e+003;3.8958974609e+003;3.8826923828e+003;3.8885898438e+003;3.8879487305e+003;3.8960256348e+003;3.9232050781e+003;3.8910256348e+003;3.9114101563e+003;3.8910256348e+003;3.8789743652e+003;
1.2656250000e+000;3.8710256348e+003;3.8819230957e+003;3.8497436523e+003;3.8825642090e+003;3.8771794434e+003;3.8752563477e+003;3.8782050781e+003;3.8796154785e+003;3.8923076172e+003;3.9200000000e+003;3.8798718262e+003;3.9015385742e+003;3.8787180176e+003;3.8687180176e+003;
1.2734375000e+000;3.9176923828e+003;3.9252563477e+003;3.8855129395e+003;3.9184614258e+003;3.9321794434e+003;3.9161538086e+003;3.9215385742e+003;3.9237180176e+003;3.9341025391e+003;3.9644870605e+003;3.9220512695e+003;3.9407692871e+003;3.9262819824e+003;3.9065385742e+003;
1.2812500000e+000;3.8825642090e+003;3.8901281738e+003;3.8546154785e+003;3.8825642090e+003;3.8855129395e+003;3.8880769043e+003;3.8910256348e+003;3.8919230957e+003;3.9012819824e+003;3.9298718262e+003;3.8891025391e+003;3.9071794434e+003;3.8939743652e+003;3.8741025391e+003;
1.2890625000e+000;3.8887180176e+003;3.9048718262e+003;3.8642307129e+003;3.8928205566e+003;3.8861538086e+003;3.9066667480e+003;3.9067949219e+003;3.8958974609e+003;3.9082050781e+003;3.9317949219e+003;3.8976923828e+003;3.9156411133e+003;3.8984614258e+003;3.8882050781e+003;
1.2968750000e+000;3.8614101563e+003;3.8794870605e+003;3.8393588867e+003;3.8667949219e+003;3.9078205566e+003;3.8911538086e+003;3.8866667480e+003;3.8837180176e+003;3.8964101563e+003;3.9166667480e+003;3.8729487305e+003;3.8915385742e+003;3.8717949219e+003;3.8566667480e+003;
1.3046875000e+000;3.8457692871e+003;3.8639743652e+003;3.8252563477e+003;3.8539743652e+003;3.8932050781e+003;3.8812819824e+003;3.8766667480e+003;3.8721794434e+003;3.8843588867e+003;3.9020512695e+003;3.8585898438e+003;3.8752563477e+003;3.8588461914e+003;3.8412819824e+003;
1.3125000000e+000;3.8573076172e+003;3.8762819824e+003;3.8366667480e+003;3.8683332520e+003;3.8974357910e+003;3.8943588867e+003;3.8892307129e+003;3.8855129395e+003;3.8980769043e+003;3.9156411133e+003;3.8725642090e+003;3.8878205566e+003;3.8741025391e+003;3.8565385742e+003;
1.3203125000e+000;3.8588461914e+003;3.8739743652e+003;3.8364101563e+003;3.8691025391e+003;3.8782050781e+003;3.8902563477e+003;3.8817949219e+003;3.8801281738e+003;3.8929487305e+003;3.9157692871e+003;3.8751281738e+003;3.8935898438e+003;3.8765385742e+003;3.8655129395e+003;
1.3281250000e+000;3.9111538086e+003;3.9193588867e+003;3.8865385742e+003;3.9065385742e+003;3.9223076172e+003;3.9157692871e+003;3.9156411133e+003;3.9071794434e+003;3.9169230957e+003;3.9492307129e+003;3.9191025391e+003;3.9371794434e+003;3.9167949219e+003;3.9085898438e+003;
1.3359375000e+000;3.9387180176e+003;3.9503845215e+003;3.9143588867e+003;3.9343588867e+003;3.9511538086e+003;3.9361538086e+003;3.9366667480e+003;3.9351281738e+003;3.9432050781e+003;3.9791025391e+003;3.9479487305e+003;3.9664101563e+003;3.9458974609e+003;3.9385898438e+003;
1.3437500000e+000;3.9320512695e+003;3.9485898438e+003;3.9074357910e+003;3.9303845215e+003;3.9457692871e+003;3.9269230957e+003;3.9260256348e+003;3.9293588867e+003;3.9366667480e+003;3.9743588867e+003;3.9424357910e+003;3.9625642090e+003;3.9423076172e+003;3.9362819824e+003;
1.3515625000e+000;3.9356411133e+003;3.9555129395e+003;3.9042307129e+003;3.9296154785e+003;3.9444870605e+003;3.9217949219e+003;3.9232050781e+003;3.9198718262e+003;3.9300000000e+003;3.9676923828e+003;3.9407692871e+003;3.9596154785e+003;3.9456411133e+003;3.9380769043e+003;
1.3593750000e+000;3.9855129395e+003;4.0015385742e+003;3.9515385742e+003;3.9720512695e+003;3.9870512695e+003;3.9621794434e+003;3.9671794434e+003;3.9625642090e+003;3.9746154785e+003;4.0139743652e+003;3.9875642090e+003;4.0034614258e+003;3.9920512695e+003;3.9832050781e+003;
1.3671875000e+000;4.0251281738e+003;4.0356411133e+003;3.9926923828e+003;4.0069230957e+003;4.0197436523e+003;3.9951281738e+003;4.0015385742e+003;4.0017949219e+003;4.0144870605e+003;4.0566667480e+003;4.0262819824e+003;4.0410256348e+003;4.0283332520e+003;4.0203845215e+003;
1.3750000000e+000;4.0476923828e+003;4.0561538086e+003;4.0085898438e+003;4.0302563477e+003;4.0451281738e+003;4.0120512695e+003;4.0184614258e+003;4.0325642090e+003;4.0547436523e+003;4.0823076172e+003;4.0475642090e+003;4.0578205566e+003;4.0502563477e+003;4.0332050781e+003;
1.3828125000e+000;4.0496154785e+003;4.0574357910e+003;4.0123076172e+003;4.0317949219e+003;4.0442307129e+003;4.0128205566e+003;4.0196154785e+003;4.0361538086e+003;4.0574357910e+003;4.0828205566e+003;4.0475642090e+003;4.0602563477e+003;4.0496154785e+003;4.0347436523e+003;
1.3906250000e+000;4.0519230957e+003;4.0638461914e+003;4.0211538086e+003;4.0315385742e+003;4.0484614258e+003;4.0287180176e+003;4.0352563477e+003;4.0352563477e+003;4.0562819824e+003;4.0852563477e+003;4.0412819824e+003;4.0570512695e+003;4.0493588867e+003;4.0373076172e+003;
1.3984375000e+000;4.0471794434e+003;4.0566667480e+003;4.0160256348e+003;4.0193588867e+003;4.0565385742e+003;4.0430769043e+003;4.0430769043e+003;4.0388461914e+003;4.0566667480e+003;4.0874357910e+003;4.0406411133e+003;4.0530769043e+003;4.0458974609e+003;4.0288461914e+003;
1.4062500000e+000;4.0376923828e+003;4.0444870605e+003;4.0096154785e+003;4.0084614258e+003;4.0487180176e+003;4.0343588867e+003;4.0339743652e+003;4.0282050781e+003;4.0419230957e+003;4.0716667480e+003;4.0274357910e+003;4.0415385742e+003;4.0324357910e+003;4.0170512695e+003;
1.4140625000e+000;4.0488461914e+003;4.0496154785e+003;4.0266667480e+003;4.0226923828e+003;4.0488461914e+003;4.0356411133e+003;4.0370512695e+003;4.0323076172e+003;4.0394870605e+003;4.0738461914e+003;4.0320512695e+003;4.0523076172e+003;4.0388461914e+003;4.0326923828e+003;
1.4218750000e+000;4.0258974609e+003;4.0229487305e+003;4.0046154785e+003;4.0092307129e+003;4.0229487305e+003;4.0111538086e+003;4.0144870605e+003;3.9991025391e+003;4.0023076172e+003;4.0414101563e+003;4.0098718262e+003;4.0341025391e+003;4.0143588867e+003;4.0039743652e+003;
1.4296875000e+000;4.0598718262e+003;4.0556411133e+003;4.0355129395e+003;4.0342307129e+003;4.0533332520e+003;4.0383332520e+003;4.0412819824e+003;4.0287180176e+003;4.0314101563e+003;4.0746154785e+003;4.0432050781e+003;4.0675642090e+003;4.0471794434e+003;4.0362819824e+003;
1.4375000000e+000;4.0637180176e+003;4.0591025391e+003;4.0369230957e+003;4.0297436523e+003;4.0534614258e+003;4.0385898438e+003;4.0393588867e+003;4.0296154785e+003;4.0324357910e+003;4.0787180176e+003;4.0467949219e+003;4.0724357910e+003;4.0507692871e+003;4.0426923828e+003;
1.4453125000e+000;4.0298718262e+003;4.0260256348e+003;4.0012819824e+003;3.9919230957e+003;4.0200000000e+003;4.0016667480e+003;3.9996154785e+003;3.9870512695e+003;3.9924357910e+003;4.0378205566e+003;4.0117949219e+003;4.0397436523e+003;4.0170512695e+003;4.0175642090e+003;
1.4531250000e+000;4.0523076172e+003;4.0487180176e+003;4.0238461914e+003;4.0156411133e+003;4.0444870605e+003;4.0183332520e+003;4.0173076172e+003;4.0055129395e+003;4.0125642090e+003;4.0574357910e+003;4.0343588867e+003;4.0624357910e+003;4.0408974609e+003;4.0424357910e+003;
1.4609375000e+000;4.0858974609e+003;4.0841025391e+003;4.0623076172e+003;4.0548718262e+003;4.0769230957e+003;4.0475642090e+003;4.0476923828e+003;4.0462819824e+003;4.0542307129e+003;4.1005126953e+003;4.0774357910e+003;4.1067949219e+003;4.0848718262e+003;4.0829487305e+003;
1.4687500000e+000;4.0607692871e+003;4.0603845215e+003;4.0401281738e+003;4.0332050781e+003;4.0507692871e+003;4.0274357910e+003;4.0284614258e+003;4.0284614258e+003;4.0358974609e+003;4.0812819824e+003;4.0592307129e+003;4.0880769043e+003;4.0661538086e+003;4.0623076172e+003;
1.4765625000e+000;4.0985898438e+003;4.0920512695e+003;4.0728205566e+003;4.0637180176e+003;4.0888461914e+003;4.0534614258e+003;4.0597436523e+003;4.0683332520e+003;4.0800000000e+003;4.1210258789e+003;4.0988461914e+003;4.1207690430e+003;4.0985898438e+003;4.0932050781e+003;
1.4843750000e+000;4.1005126953e+003;4.0912819824e+003;4.0737180176e+003;4.0650000000e+003;4.0887180176e+003;4.0493588867e+003;4.0551281738e+003;4.0719230957e+003;4.0852563477e+003;4.1242309570e+003;4.0970512695e+003;4.1212822266e+003;4.0944870605e+003;4.0891025391e+003;
1.4921875000e+000;4.0693588867e+003;4.0605129395e+003;4.0428205566e+003;4.0370512695e+003;4.0557692871e+003;4.0187180176e+003;4.0246154785e+003;4.0441025391e+003;4.0585898438e+003;4.0932050781e+003;4.0630769043e+003;4.0898718262e+003;4.0600000000e+003;4.0537180176e+003;
1.5000000000e+000;4.0919230957e+003;4.0874357910e+003;4.0601281738e+003;4.0605129395e+003;4.0887180176e+003;4.0619230957e+003;4.0671794434e+003;4.0673076172e+003;4.0857692871e+003;4.1156411133e+003;4.0885898438e+003;4.1026923828e+003;4.0832050781e+003;4.0726923828e+003;
1.5078125000e+000;4.0674357910e+003;4.0617949219e+003;4.0374357910e+003;4.0398718262e+003;4.0642307129e+003;4.0447436523e+003;4.0453845215e+003;4.0420512695e+003;4.0565385742e+003;4.0860256348e+003;4.0582050781e+003;4.0750000000e+003;4.0542307129e+003;4.0419230957e+003;
1.5156250000e+000;4.0817949219e+003;4.0802563477e+003;4.0489743652e+003;4.0562819824e+003;4.0828205566e+003;4.0660256348e+003;4.0626923828e+003;4.0571794434e+003;4.0639743652e+003;4.0947436523e+003;4.0650000000e+003;4.0830769043e+003;4.0638461914e+003;4.0487180176e+003;
1.5234375000e+000;4.0647436523e+003;4.0650000000e+003;4.0348718262e+003;4.0370512695e+003;4.0764101563e+003;4.0646154785e+003;4.0617949219e+003;4.0373076172e+003;4.0466667480e+003;4.0753845215e+003;4.0528205566e+003;4.0700000000e+003;4.0521794434e+003;4.0398718262e+003;
1.5312500000e+000;4.0980771484e+003;4.1012822266e+003;4.0684614258e+003;4.0680769043e+003;4.1080771484e+003;4.0971796875e+003;4.0947436523e+003;4.0723076172e+003;4.0800000000e+003;4.1116665039e+003;4.0884614258e+003;4.1060258789e+003;4.0914101563e+003;4.0755129395e+003;
1.5390625000e+000;4.0223076172e+003;4.0234614258e+003;3.9958974609e+003;4.0037180176e+003;4.0301281738e+003;4.0175642090e+003;4.0137180176e+003;4.0002563477e+003;4.0020512695e+003;4.0333332520e+003;4.0151281738e+003;4.0365385742e+003;4.0160256348e+003;4.0038461914e+003;
1.5468750000e+000;4.0201281738e+003;4.0206411133e+003;3.9937180176e+003;4.0048718262e+003;4.0310256348e+003;4.0123076172e+003;4.0107692871e+003;3.9952563477e+003;3.9966667480e+003;4.0280769043e+003;4.0132050781e+003;4.0325642090e+003;4.0123076172e+003;4.0011538086e+003;
1.5546875000e+000;4.1002563477e+003;4.1020512695e+003;4.0738461914e+003;4.0776923828e+003;4.1064101563e+003;4.0800000000e+003;4.0832050781e+003;4.0752563477e+003;4.0770512695e+003;4.1142309570e+003;4.0971796875e+003;4.1121796875e+003;4.0978203125e+003;4.0824357910e+003;
1.5625000000e+000;4.1182050781e+003;4.1175639648e+003;4.0916667480e+003;4.0889743652e+003;4.1142309570e+003;4.0910256348e+003;4.0950000000e+003;4.0916667480e+003;4.0947436523e+003;4.1323076172e+003;4.1138461914e+003;4.1288461914e+003;4.1166665039e+003;4.0996152344e+003;
1.5703125000e+000;4.1658974609e+003;4.1553847656e+003;4.1307690430e+003;4.1215385742e+003;4.1438461914e+003;4.1123076172e+003;4.1219228516e+003;4.1223076172e+003;4.1346152344e+003;4.1732050781e+003;4.1520512695e+003;4.1655126953e+003;4.1524360352e+003;4.1385898438e+003;
1.5781250000e+000;4.1670512695e+003;4.1584614258e+003;4.1330771484e+003;4.1251284180e+003;4.1482050781e+003;4.1106411133e+003;4.1207690430e+003;4.1271796875e+003;4.1412822266e+003;4.1826923828e+003;4.1574360352e+003;4.1719228516e+003;4.1532050781e+003;4.1412822266e+003;
1.5859375000e+000;4.1398715820e+003;4.1339741211e+003;4.1094873047e+003;4.1030771484e+003;4.1244873047e+003;4.0852563477e+003;4.0944870605e+003;4.1057690430e+003;4.1201284180e+003;4.1617949219e+003;4.1342309570e+003;4.1514101563e+003;4.1265385742e+003;4.1157690430e+003;
1.5937500000e+000;4.1788461914e+003;4.1624360352e+003;4.1428203125e+003;4.1334614258e+003;4.1534614258e+003;4.1278203125e+003;4.1347436523e+003;4.1473076172e+003;4.1678203125e+003;4.1908974609e+003;4.1605126953e+003;4.1778203125e+003;4.1628203125e+003;4.1516665039e+003;
1.6015625000e+000;4.1505126953e+003;4.1348715820e+003;4.1189741211e+003;4.1129487305e+003;4.1306411133e+003;4.1091025391e+003;4.1165385742e+003;4.1230771484e+003;4.1405126953e+003;4.1642309570e+003;4.1329487305e+003;4.1516665039e+003;4.1328203125e+003;4.1210258789e+003;
1.6093750000e+000;4.1784614258e+003;4.1683334961e+003;4.1514101563e+003;4.1392309570e+003;4.1662822266e+003;4.1387177734e+003;4.1534614258e+003;4.1503847656e+003;4.1623076172e+003;4.1892309570e+003;4.1598715820e+003;4.1767949219e+003;4.1537177734e+003;4.1412822266e+003;
1.6171875000e+000;4.1980771484e+003;4.1894873047e+003;4.1703847656e+003;4.1521796875e+003;4.1850000000e+003;4.1569228516e+003;4.1721796875e+003;4.1707690430e+003;4.1820512695e+003;4.2092309570e+003;4.1796152344e+003;4.1961538086e+003;4.1732050781e+003;4.1629487305e+003;
1.6250000000e+000;4.1583334961e+003;4.1506411133e+003;4.1243588867e+003;4.1197436523e+003;4.1461538086e+003;4.1357690430e+003;4.1394873047e+003;4.1296152344e+003;4.1458974609e+003;4.1684614258e+003;4.1406411133e+003;4.1576923828e+003;4.1433334961e+003;4.1343588867e+003;
1.6328125000e+000;4.1969228516e+003;4.1903847656e+003;4.1593588867e+003;4.1610258789e+003;4.1876923828e+003;4.1733334961e+003;4.1769228516e+003;4.1642309570e+003;4.1815385742e+003;4.2078203125e+003;4.1784614258e+003;4.1928203125e+003;4.1817949219e+003;4.1700000000e+003;
1.6406250000e+000;4.2102563477e+003;4.2056411133e+003;4.1755126953e+003;4.1685898438e+003;4.2061538086e+003;4.1860258789e+003;4.1894873047e+003;4.1820512695e+003;4.1902563477e+003;4.2262822266e+003;4.1921796875e+003;4.2055126953e+003;4.1934614258e+003;4.1806411133e+003;
1.6484375000e+000;4.2155126953e+003;4.2025639648e+003;4.1828203125e+003;4.1662822266e+003;4.2057690430e+003;4.1842309570e+003;4.1871796875e+003;4.1826923828e+003;4.1875639648e+003;4.2247436523e+003;4.1978203125e+003;4.2134614258e+003;4.1973076172e+003;4.1846152344e+003;
1.6562500000e+000;4.1866665039e+003;4.1726923828e+003;4.1538461914e+003;4.1410258789e+003;4.1742309570e+003;4.1538461914e+003;4.1558974609e+003;4.1533334961e+003;4.1592309570e+003;4.1962822266e+003;4.1716665039e+003;4.1888461914e+003;4.1696152344e+003;4.1593588867e+003;
1.6640625000e+000;4.1457690430e+003;4.1347436523e+003;4.1125639648e+003;4.1056411133e+003;4.1320512695e+003;4.1142309570e+003;4.1162822266e+003;4.1116665039e+003;4.1187177734e+003;4.1539741211e+003;4.1328203125e+003;4.1511538086e+003;4.1319228516e+003;4.1235898438e+003;
1.6718750000e+000;4.1862822266e+003;4.1852563477e+003;4.1483334961e+003;4.1484614258e+003;4.1703847656e+003;4.1480771484e+003;4.1538461914e+003;4.1469228516e+003;4.1562822266e+003;4.1894873047e+003;4.1734614258e+003;4.1887177734e+003;4.1782050781e+003;4.1676923828e+003;
1.6796875000e+000;4.2684614258e+003;4.2585898438e+003;4.2278203125e+003;4.2208974609e+003;4.2461538086e+003;4.2123076172e+003;4.2192309570e+003;4.2324360352e+003;4.2419228516e+003;4.2767949219e+003;4.2557690430e+003;4.2623076172e+003;4.2523076172e+003;4.2384614258e+003;
1.6875000000e+000;4.2702563477e+003;4.2600000000e+003;4.2300000000e+003;4.2193588867e+003;4.2494873047e+003;4.2116665039e+003;4.2203847656e+003;4.2342309570e+003;4.2462822266e+003;4.2814101563e+003;4.2585898438e+003;4.2632050781e+003;4.2551284180e+003;4.2398715820e+003;
1.6953125000e+000;4.3001284180e+003;4.2928203125e+003;4.2597436523e+003;4.2442309570e+003;4.2800000000e+003;4.2369228516e+003;4.2487177734e+003;4.2630771484e+003;4.2794873047e+003;4.3148715820e+003;4.2896152344e+003;4.2941025391e+003;4.2894873047e+003;4.2719228516e+003;
1.7031250000e+000;4.3339741211e+003;4.3292309570e+003;4.2942309570e+003;4.2738461914e+003;4.3108974609e+003;4.2656411133e+003;4.2803847656e+003;4.2969228516e+003;4.3179487305e+003;4.3517949219e+003;4.3235898438e+003;4.3307690430e+003;4.3274360352e+003;4.3088461914e+003;
1.7109375000e+000;4.3130771484e+003;4.3015385742e+003;4.2716665039e+003;4.2602563477e+003;4.2816665039e+003;4.2520512695e+003;4.2728203125e+003;4.2798715820e+003;4.2993588867e+003;4.3176923828e+003;4.2932050781e+003;4.3029487305e+003;4.2967949219e+003;4.2819228516e+003;
1.7187500000e+000;4.3356411133e+003;4.3276923828e+003;4.2935898438e+003;4.2819228516e+003;4.3114101563e+003;4.2811538086e+003;4.3019228516e+003;4.3080771484e+003;4.3264101563e+003;4.3469228516e+003;4.3189741211e+003;4.3275639648e+003;4.3228203125e+003;4.3080771484e+003;
1.7265625000e+000;4.2597436523e+003;4.2570512695e+003;4.2243588867e+003;4.2084614258e+003;4.2479487305e+003;4.2341025391e+003;4.2457690430e+003;4.2420512695e+003;4.2601284180e+003;4.2739741211e+003;4.2416665039e+003;4.2556411133e+003;4.2489741211e+003;4.2371796875e+003;
1.7343750000e+000;4.2905126953e+003;4.2798715820e+003;4.2471796875e+003;4.2334614258e+003;4.2666665039e+003;4.2573076172e+003;4.2592309570e+003;4.2573076172e+003;4.2746152344e+003;4.2900000000e+003;4.2633334961e+003;4.2775639648e+003;4.2700000000e+003;4.2608974609e+003;
1.7421875000e+000;4.2701284180e+003;4.2606411133e+003;4.2288461914e+003;4.2138461914e+003;4.2458974609e+003;4.2397436523e+003;4.2398715820e+003;4.2364101563e+003;4.2510258789e+003;4.2694873047e+003;4.2443588867e+003;4.2598715820e+003;4.2497436523e+003;4.2426923828e+003;
1.7500000000e+000;4.2988461914e+003;4.2917949219e+003;4.2619228516e+003;4.2493588867e+003;4.2864101563e+003;4.2662822266e+003;4.2685898438e+003;4.2617949219e+003;4.2738461914e+003;4.3001284180e+003;4.2755126953e+003;4.2846152344e+003;4.2817949219e+003;4.2700000000e+003;
1.7578125000e+000;4.2988461914e+003;4.2906411133e+003;4.2608974609e+003;4.2515385742e+003;4.2861538086e+003;4.2644873047e+003;4.2644873047e+003;4.2623076172e+003;4.2741025391e+003;4.3046152344e+003;4.2769228516e+003;4.2870512695e+003;4.2826923828e+003;4.2702563477e+003;
1.7656250000e+000;4.2989741211e+003;4.2915385742e+003;4.2552563477e+003;4.2387177734e+003;4.2751284180e+003;4.2580771484e+003;4.2575639648e+003;4.2498715820e+003;4.2585898438e+003;4.3002563477e+003;4.2774360352e+003;4.2930771484e+003;4.2828203125e+003;4.2743588867e+003;
1.7734375000e+000;4.3387177734e+003;4.3298715820e+003;4.2955126953e+003;4.2706411133e+003;4.3119228516e+003;4.2896152344e+003;4.2911538086e+003;4.2860258789e+003;4.2956411133e+003;4.3388461914e+003;4.3189741211e+003;4.3312822266e+003;4.3239741211e+003;4.3150000000e+003;
1.7812500000e+000;4.3220512695e+003;4.3051284180e+003;4.2856411133e+003;4.2587177734e+003;4.2929487305e+003;4.2652563477e+003;4.2660258789e+003;4.2688461914e+003;4.2803847656e+003;4.3208974609e+003;4.3044873047e+003;4.3137177734e+003;4.3091025391e+003;4.2973076172e+003;
1.7890625000e+000;4.3024360352e+003;4.2846152344e+003;4.2661538086e+003;4.2470512695e+003;4.2750000000e+003;4.2438461914e+003;4.2452563477e+003;4.2464101563e+003;4.2580771484e+003;4.2973076172e+003;4.2824360352e+003;4.2928203125e+003;4.2880771484e+003;4.2758974609e+003;
1.7968750000e+000;4.3723076172e+003;4.3670512695e+003;4.3308974609e+003;4.3144873047e+003;4.3455126953e+003;4.3015385742e+003;4.3073076172e+003;4.3162822266e+003;4.3308974609e+003;4.3714101563e+003;4.3523076172e+003;4.3671796875e+003;4.3556411133e+003;4.3524360352e+003;
1.8046875000e+000;4.3434614258e+003;4.3389741211e+003;4.3078203125e+003;4.2819228516e+003;4.3107690430e+003;4.2752563477e+003;4.2785898438e+003;4.2932050781e+003;4.3102563477e+003;4.3453847656e+003;4.3267949219e+003;4.3423076172e+003;4.3276923828e+003;4.3267949219e+003;
1.8125000000e+000;4.3030771484e+003;4.2932050781e+003;4.2739741211e+003;4.2370512695e+003;4.2621796875e+003;4.2332050781e+003;4.2403847656e+003;4.2550000000e+003;4.2762822266e+003;4.2987177734e+003;4.2858974609e+003;4.2975639648e+003;4.2861538086e+003;4.2806411133e+003;
1.8203125000e+000;4.3244873047e+003;4.3128203125e+003;4.2941025391e+003;4.2575639648e+003;4.2884614258e+003;4.2488461914e+003;4.2623076172e+003;4.2756411133e+003;4.2965385742e+003;4.3183334961e+003;4.3052563477e+003;4.3153847656e+003;4.3050000000e+003;4.2976923828e+003;
1.8281250000e+000;4.3314101563e+003;4.3197436523e+003;4.3005126953e+003;4.2661538086e+003;4.3041025391e+003;4.2543588867e+003;4.2724360352e+003;4.2841025391e+003;4.3032050781e+003;4.3264101563e+003;4.3105126953e+003;4.3224360352e+003;4.3080771484e+003;4.3032050781e+003;
1.8359375000e+000;4.2648715820e+003;4.2596152344e+003;4.2324360352e+003;4.2053847656e+003;4.2151284180e+003;4.2310258789e+003;4.2329487305e+003;4.2341025391e+003;4.2488461914e+003;4.2676923828e+003;4.2547436523e+003;4.2635898438e+003;4.2484614258e+003;4.2466665039e+003;
1.8437500000e+000;4.2414101563e+003;4.2367949219e+003;4.2089741211e+003;4.1864101563e+003;4.2058974609e+003;4.2157690430e+003;4.2160258789e+003;4.2171796875e+003;4.2305126953e+003;4.2503847656e+003;4.2384614258e+003;4.2457690430e+003;4.2321796875e+003;4.2284614258e+003;
1.8515625000e+000;4.2106411133e+003;4.2115385742e+003;4.1819228516e+003;4.1576923828e+003;4.2298715820e+003;4.1946152344e+003;4.1930771484e+003;4.1852563477e+003;4.1950000000e+003;4.2185898438e+003;4.2033334961e+003;4.2167949219e+003;4.1971796875e+003;4.1957690430e+003;
1.8593750000e+000;4.2135898438e+003;4.2106411133e+003;4.1862822266e+003;4.1550000000e+003;4.2250000000e+003;4.1943588867e+003;4.1892309570e+003;4.1852563477e+003;4.1929487305e+003;4.2173076172e+003;4.1996152344e+003;4.2167949219e+003;4.1948715820e+003;4.1944873047e+003;
1.8671875000e+000;4.1750000000e+003;4.1641025391e+003;4.1500000000e+003;4.1151284180e+003;4.1591025391e+003;4.1544873047e+003;4.1447436523e+003;4.1389741211e+003;4.1453847656e+003;4.1671796875e+003;4.1546152344e+003;4.1741025391e+003;4.1530771484e+003;4.1532050781e+003;
1.8750000000e+000;4.1778203125e+003;4.1771796875e+003;4.1419228516e+003;4.1292309570e+003;4.1655126953e+003;4.1501284180e+003;4.1442309570e+003;4.1388461914e+003;4.1524360352e+003;4.1835898438e+003;4.1696152344e+003;4.1829487305e+003;4.1697436523e+003;4.1658974609e+003;
1.8828125000e+000;4.1291025391e+003;4.1264101563e+003;4.0937180176e+003;4.0787180176e+003;4.1112822266e+003;4.0973076172e+003;4.0941025391e+003;4.0880769043e+003;4.1001284180e+003;4.1325639648e+003;4.1180771484e+003;4.1335898438e+003;4.1201284180e+003;4.1178203125e+003;
1.8906250000e+000;4.1957690430e+003;4.1856411133e+003;4.1620512695e+003;4.1265385742e+003;4.1601284180e+003;4.1344873047e+003;4.1398715820e+003;4.1328203125e+003;4.1483334961e+003;4.1844873047e+003;4.1767949219e+003;4.1925639648e+003;4.1794873047e+003;4.1773076172e+003;
1.8984375000e+000;4.2076923828e+003;4.1974360352e+003;4.1756411133e+003;4.1405126953e+003;4.1687177734e+003;4.1428203125e+003;4.1469228516e+003;4.1439741211e+003;4.1614101563e+003;4.1974360352e+003;4.1900000000e+003;4.2056411133e+003;4.1905126953e+003;4.1878203125e+003;
1.9062500000e+000;4.2058974609e+003;4.1973076172e+003;4.1719228516e+003;4.1458974609e+003;4.1643588867e+003;4.1360258789e+003;4.1410258789e+003;4.1437177734e+003;4.1643588867e+003;4.1950000000e+003;4.1871796875e+003;4.1979487305e+003;4.1873076172e+003;4.1830771484e+003;
1.9140625000e+000;4.2303847656e+003;4.2232050781e+003;4.1938461914e+003;4.1679487305e+003;4.1891025391e+003;4.1544873047e+003;4.1620512695e+003;4.1700000000e+003;4.1926923828e+003;4.2220512695e+003;4.2114101563e+003;4.2189741211e+003;4.2116665039e+003;4.2076923828e+003;
1.9218750000e+000;4.1789741211e+003;4.1711538086e+003;4.1487177734e+003;4.1216665039e+003;4.1423076172e+003;4.1111538086e+003;4.1188461914e+003;4.1355126953e+003;4.1570512695e+003;4.1852563477e+003;4.1676923828e+003;4.1793588867e+003;4.1642309570e+003;4.1667949219e+003;
1.9296875000e+000;4.1679487305e+003;4.1582050781e+003;4.1387177734e+003;4.1156411133e+003;4.1352563477e+003;4.1051284180e+003;4.1146152344e+003;4.1262822266e+003;4.1466665039e+003;4.1717949219e+003;4.1571796875e+003;4.1696152344e+003;4.1557690430e+003;4.1574360352e+003;
1.9375000000e+000;4.2164101563e+003;4.2065385742e+003;4.1834614258e+003;4.1620512695e+003;4.1879487305e+003;4.1574360352e+003;4.1697436523e+003;4.1794873047e+003;4.2010258789e+003;4.2202563477e+003;4.2067949219e+003;4.2160258789e+003;4.2112822266e+003;4.2087177734e+003;
1.9453125000e+000;4.2067949219e+003;4.2008974609e+003;4.1746152344e+003;4.1520512695e+003;4.1789741211e+003;4.1571796875e+003;4.1653847656e+003;4.1761538086e+003;4.1970512695e+003;4.2138461914e+003;4.1987177734e+003;4.2073076172e+003;4.2033334961e+003;4.2011538086e+003;
1.9531250000e+000;4.1782050781e+003;4.1779487305e+003;4.1487177734e+003;4.1267949219e+003;4.1533334961e+003;4.1421796875e+003;4.1451284180e+003;4.1528203125e+003;4.1715385742e+003;4.1865385742e+003;4.1707690430e+003;4.1789741211e+003;4.1735898438e+003;4.1728203125e+003;
1.9609375000e+000;4.1734614258e+003;4.1778203125e+003;4.1462822266e+003;4.1264101563e+003;4.1544873047e+003;4.1478203125e+003;4.1480771484e+003;4.1502563477e+003;4.1657690430e+003;4.1807690430e+003;4.1646152344e+003;4.1720512695e+003;4.1657690430e+003;4.1657690430e+003;
1.9687500000e+000;4.1806411133e+003;4.1847436523e+003;4.1560258789e+003;4.1370512695e+003;4.1797436523e+003;4.1685898438e+003;4.1662822266e+003;4.1643588867e+003;4.1753847656e+003;4.1957690430e+003;4.1689741211e+003;4.1778203125e+003;4.1758974609e+003;4.1733334961e+003;
1.9765625000e+000;4.1257690430e+003;4.1192309570e+003;4.1038461914e+003;4.0929487305e+003;4.1279487305e+003;4.1328203125e+003;4.1248715820e+003;4.1178203125e+003;4.1250000000e+003;4.1437177734e+003;4.1206411133e+003;4.1316665039e+003;4.1229487305e+003;4.1233334961e+003;
1.9843750000e+000;4.1020512695e+003;4.0966665039e+003;4.0824357910e+003;4.0711538086e+003;4.1055126953e+003;4.1116665039e+003;4.1048715820e+003;4.0948718262e+003;4.1008974609e+003;4.1212822266e+003;4.0987177734e+003;4.1119228516e+003;4.0958974609e+003;4.1023076172e+003;
1.9921875000e+000;4.1135898438e+003;4.1151284180e+003;4.0910256348e+003;4.0770512695e+003;4.1146152344e+003;4.1105126953e+003;4.1105126953e+003;4.0948718262e+003;4.1024360352e+003;4.1273076172e+003;4.1114101563e+003;4.1230771484e+003;4.1087177734e+003;4.1158974609e+003;
2.0000000000e+000;4.1480771484e+003;4.1524360352e+003;4.1198715820e+003;4.1055126953e+003;4.1212822266e+003;4.1148715820e+003;4.1132050781e+003;4.1096152344e+003;4.1291025391e+003;4.1538461914e+003;4.1466665039e+003;4.1517949219e+003;4.1494873047e+003;4.1491025391e+003;
2.0078125000e+000;4.1915385742e+003;4.1942309570e+003;4.1608974609e+003;4.1429487305e+003;4.1628203125e+003;4.1484614258e+003;4.1501284180e+003;4.1498715820e+003;4.1701284180e+003;4.1974360352e+003;4.1873076172e+003;4.1893588867e+003;4.1884614258e+003;4.1892309570e+003;
2.0156250000e+000;4.2210258789e+003;4.2116665039e+003;4.1906411133e+003;4.1685898438e+003;4.1876923828e+003;4.1567949219e+003;4.1673076172e+003;4.1867949219e+003;4.2055126953e+003;4.2308974609e+003;4.2114101563e+003;4.2160258789e+003;4.2119228516e+003;4.2126923828e+003;
2.0234375000e+000;4.2029487305e+003;4.1924360352e+003;4.1716665039e+003;4.1516665039e+003;4.1661538086e+003;4.1383334961e+003;4.1493588867e+003;4.1679487305e+003;4.1891025391e+003;4.2062822266e+003;4.1902563477e+003;4.1966665039e+003;4.1932050781e+003;4.1905126953e+003;
2.0312500000e+000;4.2601284180e+003;4.2565385742e+003;4.2228203125e+003;4.2032050781e+003;4.2196152344e+003;4.1924360352e+003;4.2014101563e+003;4.2235898438e+003;4.2506411133e+003;4.2591025391e+003;4.2473076172e+003;4.2515385742e+003;4.2512822266e+003;4.2458974609e+003;
2.0390625000e+000;4.2692309570e+003;4.2688461914e+003;4.2330771484e+003;4.2112822266e+003;4.2303847656e+003;4.2043588867e+003;4.2106411133e+003;4.2362822266e+003;4.2637177734e+003;4.2728203125e+003;4.2598715820e+003;4.2639741211e+003;4.2615385742e+003;4.2600000000e+003;
2.0468750000e+000;4.2328203125e+003;4.2264101563e+003;4.2082050781e+003;4.1766665039e+003;4.2019228516e+003;4.1800000000e+003;4.1873076172e+003;4.1947436523e+003;4.2201284180e+003;4.2285898438e+003;4.2167949219e+003;4.2210258789e+003;4.2171796875e+003;4.2208974609e+003;
2.0546875000e+000;4.2728203125e+003;4.2625639648e+003;4.2462822266e+003;4.2146152344e+003;4.2415385742e+003;4.2164101563e+003;4.2255126953e+003;4.2287177734e+003;4.2556411133e+003;4.2652563477e+003;4.2525639648e+003;4.2539741211e+003;4.2533334961e+003;4.2546152344e+003;
2.0625000000e+000;4.2700000000e+003;4.2587177734e+003;4.2392309570e+003;4.2124360352e+003;4.2374360352e+003;4.2173076172e+003;4.2234614258e+003;4.2243588867e+003;4.2506411133e+003;4.2652563477e+003;4.2484614258e+003;4.2489741211e+003;4.2492309570e+003;4.2501284180e+003;
2.0703125000e+000;4.2338461914e+003;4.2265385742e+003;4.2030771484e+003;4.1773076172e+003;4.2021796875e+003;4.1889741211e+003;4.1932050781e+003;4.1889741211e+003;4.2119228516e+003;4.2282050781e+003;4.2119228516e+003;4.2150000000e+003;4.2143588867e+003;4.2165385742e+003;
2.0781250000e+000;4.2207690430e+003;4.2176923828e+003;4.1907690430e+003;4.1637177734e+003;4.1902563477e+003;4.1825639648e+003;4.1855126953e+003;4.1753847656e+003;4.1939741211e+003;4.2116665039e+003;4.1975639648e+003;4.2035898438e+003;4.2021796875e+003;4.2047436523e+003;
2.0859375000e+000;4.2320512695e+003;4.2307690430e+003;4.2038461914e+003;4.1739741211e+003;4.2025639648e+003;4.1983334961e+003;4.2000000000e+003;4.1861538086e+003;4.2005126953e+003;4.2192309570e+003;4.2075639648e+003;4.2170512695e+003;4.2130771484e+003;4.2153847656e+003;
2.0937500000e+000;4.2521796875e+003;4.2498715820e+003;4.2311538086e+003;4.1997436523e+003;4.2351284180e+003;4.2208974609e+003;4.2241025391e+003;4.2033334961e+003;4.2041025391e+003;4.2238461914e+003;4.2267949219e+003;4.2400000000e+003;4.2265385742e+003;4.2303847656e+003;
2.1015625000e+000;4.3805126953e+003;4.3670512695e+003;4.3561538086e+003;4.3138461914e+003;4.3508974609e+003;4.3311538086e+003;4.3347436523e+003;4.3217949219e+003;4.3287177734e+003;4.3628203125e+003;4.3607690430e+003;4.3698715820e+003;4.3606411133e+003;4.3626923828e+003;
2.1093750000e+000;4.4261538086e+003;4.4105126953e+003;4.3982050781e+003;4.3569228516e+003;4.3950000000e+003;4.3688461914e+003;4.3753847656e+003;4.3661538086e+003;4.3751284180e+003;4.4097436523e+003;4.4073076172e+003;4.4158974609e+003;4.4057690430e+003;4.4055126953e+003;
2.1171875000e+000;4.4888461914e+003;4.4816665039e+003;4.4533334961e+003;4.4138461914e+003;4.4542309570e+003;4.4164101563e+003;4.4261538086e+003;4.4380771484e+003;4.4494873047e+003;4.4810258789e+003;4.4734614258e+003;4.4808974609e+003;4.4689741211e+003;4.4664101563e+003;
2.1250000000e+000;4.4553847656e+003;4.4512822266e+003;4.4214101563e+003;4.3793588867e+003;4.4179487305e+003;4.3823076172e+003;4.3914101563e+003;4.4101284180e+003;4.4235898438e+003;4.4494873047e+003;4.4402563477e+003;4.4496152344e+003;4.4355126953e+003;4.4352563477e+003;
2.1328125000e+000;4.4698715820e+003;4.4551284180e+003;4.4400000000e+003;4.3857690430e+003;4.4237177734e+003;4.3823076172e+003;4.3996152344e+003;4.4187177734e+003;4.4374360352e+003;4.4588461914e+003;4.4485898438e+003;4.4612822266e+003;4.4470512695e+003;4.4510258789e+003;
2.1406250000e+000;4.5032050781e+003;4.4876923828e+003;4.4715385742e+003;4.4180771484e+003;4.4548715820e+003;4.4121796875e+003;4.4308974609e+003;4.4551284180e+003;4.4715385742e+003;4.4980771484e+003;4.4833334961e+003;4.4955126953e+003;4.4797436523e+003;4.4837177734e+003;
2.1484375000e+000;4.4687177734e+003;4.4570512695e+003;4.4355126953e+003;4.3928203125e+003;4.4319228516e+003;4.3975639648e+003;4.4128203125e+003;4.4260258789e+003;4.4433334961e+003;4.4658974609e+003;4.4470512695e+003;4.4570512695e+003;4.4408974609e+003;4.4401284180e+003;
2.1562500000e+000;4.4791025391e+003;4.4739741211e+003;4.4493588867e+003;4.4047436523e+003;4.4624360352e+003;4.4212822266e+003;4.4305126953e+003;4.4420512695e+003;4.4653847656e+003;4.4861538086e+003;4.4674360352e+003;4.4720512695e+003;4.4652563477e+003;4.4558974609e+003;
2.1640625000e+000;4.4405126953e+003;4.4423076172e+003;4.4114101563e+003;4.3714101563e+003;4.4270512695e+003;4.3933334961e+003;4.4007690430e+003;4.4085898438e+003;4.4287177734e+003;4.4492309570e+003;4.4303847656e+003;4.4352563477e+003;4.4288461914e+003;4.4196152344e+003;
2.1718750000e+000;4.4921796875e+003;4.4962822266e+003;4.4647436523e+003;4.4235898438e+003;4.4862822266e+003;4.4521796875e+003;4.4648715820e+003;4.4594873047e+003;4.4706411133e+003;4.4920512695e+003;4.4715385742e+003;4.4807690430e+003;4.4708974609e+003;4.4635898438e+003;
2.1796875000e+000;4.4985898438e+003;4.4988461914e+003;4.4734614258e+003;4.4300000000e+003;4.4950000000e+003;4.4592309570e+003;4.4696152344e+003;4.4643588867e+003;4.4724360352e+003;4.4946152344e+003;4.4765385742e+003;4.4864101563e+003;4.4748715820e+003;4.4685898438e+003;
2.1875000000e+000;4.4885898438e+003;4.4928203125e+003;4.4606411133e+003;4.4203847656e+003;4.4897436523e+003;4.4539741211e+003;4.4565385742e+003;4.4475639648e+003;4.4502563477e+003;4.4750000000e+003;4.4673076172e+003;4.4702563477e+003;4.4651284180e+003;4.4567949219e+003;
2.1953125000e+000;4.5035898438e+003;4.5117949219e+003;4.4734614258e+003;4.4330771484e+003;4.5053847656e+003;4.4675639648e+003;4.4694873047e+003;4.4601284180e+003;4.4616665039e+003;4.4893588867e+003;4.4833334961e+003;4.4835898438e+003;4.4807690430e+003;4.4712822266e+003;
2.2031250000e+000;4.5057690430e+003;4.5137177734e+003;4.4774360352e+003;4.4341025391e+003;4.5060258789e+003;4.4674360352e+003;4.4706411133e+003;4.4628203125e+003;4.4633334961e+003;4.4933334961e+003;4.4865385742e+003;4.4888461914e+003;4.4828203125e+003;4.4739741211e+003;
2.2109375000e+000;4.5750000000e+003;4.5776923828e+003;4.5392309570e+003;4.5073076172e+003;4.5642309570e+003;4.5180771484e+003;4.5288461914e+003;4.5284614258e+003;4.5292309570e+003;4.5643588867e+003;4.5633334961e+003;4.5656411133e+003;4.5603847656e+003;4.5433334961e+003;
2.2187500000e+000;4.5789741211e+003;4.5858974609e+003;4.5424360352e+003;4.5071796875e+003;4.5651284180e+003;4.5214101563e+003;4.5292309570e+003;4.5384614258e+003;4.5419228516e+003;4.5750000000e+003;4.5717949219e+003;4.5721796875e+003;4.5679487305e+003;4.5505126953e+003;
2.2265625000e+000;4.5456411133e+003;4.5484614258e+003;4.5138461914e+003;4.4653847656e+003;4.5312822266e+003;4.4800000000e+003;4.4887177734e+003;4.5069228516e+003;4.5146152344e+003;4.5394873047e+003;4.5337177734e+003;4.5303847656e+003;4.5317949219e+003;4.5144873047e+003;
2.2343750000e+000;4.5739741211e+003;4.5726923828e+003;4.5394873047e+003;4.4905126953e+003;4.5579487305e+003;4.5015385742e+003;4.5119228516e+003;4.5337177734e+003;4.5420512695e+003;4.5693588867e+003;4.5603847656e+003;4.5533334961e+003;4.5591025391e+003;4.5410258789e+003;
2.2421875000e+000;4.5523076172e+003;4.5480771484e+003;4.5157690430e+003;4.4685898438e+003;4.5293588867e+003;4.4805126953e+003;4.4917949219e+003;4.5106411133e+003;4.5228203125e+003;4.5491025391e+003;4.5378203125e+003;4.5280771484e+003;4.5356411133e+003;4.5194873047e+003;
2.2500000000e+000;4.5402563477e+003;4.5367949219e+003;4.5041025391e+003;4.4564101563e+003;4.5144873047e+003;4.4703847656e+003;4.4832050781e+003;4.4948715820e+003;4.5098715820e+003;4.5326923828e+003;4.5233334961e+003;4.5138461914e+003;4.5208974609e+003;4.5061538086e+003;
2.2578125000e+000;4.5675639648e+003;4.5633334961e+003;4.5329487305e+003;4.4870512695e+003;4.5453847656e+003;4.5016665039e+003;4.5138461914e+003;4.5261538086e+003;4.5414101563e+003;4.5643588867e+003;4.5519228516e+003;4.5412822266e+003;4.5437177734e+003;4.5333334961e+003;
2.2656250000e+000;4.5183334961e+003;4.5135898438e+003;4.4851284180e+003;4.4430771484e+003;4.5005126953e+003;4.4623076172e+003;4.4701284180e+003;4.4826923828e+003;4.4957690430e+003;4.5171796875e+003;4.5058974609e+003;4.4948715820e+003;4.4965385742e+003;4.4867949219e+003;
2.2734375000e+000;4.4621796875e+003;4.4570512695e+003;4.4243588867e+003;4.3802563477e+003;4.4464101563e+003;4.4189741211e+003;4.4203847656e+003;4.4208974609e+003;4.4339741211e+003;4.4467949219e+003;4.4464101563e+003;4.4355126953e+003;4.4446152344e+003;4.4280771484e+003;
2.2812500000e+000;4.4105126953e+003;4.4033334961e+003;4.3720512695e+003;4.3361538086e+003;4.3944873047e+003;4.3761538086e+003;4.3780771484e+003;4.3716665039e+003;4.3775639648e+003;4.3911538086e+003;4.3903847656e+003;4.3882050781e+003;4.3820512695e+003;4.3752563477e+003;
2.2890625000e+000;4.4398715820e+003;4.4317949219e+003;4.4025639648e+003;4.3682050781e+003;4.4274360352e+003;4.4046152344e+003;4.4085898438e+003;4.4005126953e+003;4.4035898438e+003;4.4193588867e+003;4.4187177734e+003;4.4151284180e+003;4.4111538086e+003;4.4051284180e+003;
2.2968750000e+000;4.4830771484e+003;4.4738461914e+003;4.4469228516e+003;4.4107690430e+003;4.4732050781e+003;4.4438461914e+003;4.4489741211e+003;4.4421796875e+003;4.4444873047e+003;4.4630771484e+003;4.4616665039e+003;4.4564101563e+003;4.4574360352e+003;4.4500000000e+003;
2.3046875000e+000;4.4794873047e+003;4.4694873047e+003;4.4423076172e+003;4.4044873047e+003;4.4683334961e+003;4.4348715820e+003;4.4375639648e+003;4.4325639648e+003;4.4353847656e+003;4.4564101563e+003;4.4558974609e+003;4.4533334961e+003;4.4573076172e+003;4.4491025391e+003;
2.3125000000e+000;4.5216665039e+003;4.5056411133e+003;4.4734614258e+003;4.4367949219e+003;4.4956411133e+003;4.4584614258e+003;4.4651284180e+003;4.4592309570e+003;4.4626923828e+003;4.4824360352e+003;4.4883334961e+003;4.4874360352e+003;4.4834614258e+003;4.4797436523e+003;
2.3203125000e+000;4.5506411133e+003;4.5278203125e+003;4.5033334961e+003;4.4624360352e+003;4.5191025391e+003;4.4811538086e+003;4.4889741211e+003;4.4855126953e+003;4.4892309570e+003;4.5112822266e+003;4.5150000000e+003;4.5147436523e+003;4.5098715820e+003;4.5071796875e+003;
2.3281250000e+000;4.5611538086e+003;4.5326923828e+003;4.5158974609e+003;4.4710258789e+003;4.5251284180e+003;4.4880771484e+003;4.4958974609e+003;4.4923076172e+003;4.4962822266e+003;4.5203847656e+003;4.5223076172e+003;4.5234614258e+003;4.5194873047e+003;4.5171796875e+003;
2.3359375000e+000;4.5794873047e+003;4.5497436523e+003;4.5342309570e+003;4.4866665039e+003;4.5405126953e+003;4.5017949219e+003;4.5098715820e+003;4.5052563477e+003;4.5100000000e+003;4.5353847656e+003;4.5369228516e+003;4.5383334961e+003;4.5373076172e+003;4.5347436523e+003;
2.3437500000e+000;4.6183334961e+003;4.5914101563e+003;4.5710258789e+003;4.5183334961e+003;4.5746152344e+003;4.5228203125e+003;4.5311538086e+003;4.5526923828e+003;4.5632050781e+003;4.5816665039e+003;4.5792309570e+003;4.5771796875e+003;4.5751284180e+003;4.5730771484e+003;
2.3515625000e+000;4.5705126953e+003;4.5392309570e+003;4.5253847656e+003;4.4751284180e+003;4.5235898438e+003;4.4805126953e+003;4.4891025391e+003;4.5074360352e+003;4.5167949219e+003;4.5342309570e+003;4.5314101563e+003;4.5292309570e+003;4.5275639648e+003;4.5238461914e+003;
2.3593750000e+000;4.5883334961e+003;4.5684614258e+003;4.5382050781e+003;4.4964101563e+003;4.5425639648e+003;4.5115385742e+003;4.5201284180e+003;4.5342309570e+003;4.5455126953e+003;4.5671796875e+003;4.5558974609e+003;4.5473076172e+003;4.5543588867e+003;4.5479487305e+003;
2.3671875000e+000;4.4858974609e+003;4.4665385742e+003;4.4387177734e+003;4.3982050781e+003;4.4552563477e+003;4.4226923828e+003;4.4274360352e+003;4.4383334961e+003;4.4494873047e+003;4.4579487305e+003;4.4512822266e+003;4.4444873047e+003;4.4471796875e+003;4.4470512695e+003;
2.3750000000e+000;4.4719228516e+003;4.4493588867e+003;4.4251284180e+003;4.3865385742e+003;4.4310258789e+003;4.4112822266e+003;4.4141025391e+003;4.4226923828e+003;4.4342309570e+003;4.4407690430e+003;4.4360258789e+003;4.4294873047e+003;4.4303847656e+003;4.4328203125e+003;
2.3828125000e+000;4.4014101563e+003;4.3821796875e+003;4.3570512695e+003;4.3358974609e+003;4.3596152344e+003;4.3664101563e+003;4.3603847656e+003;4.3571796875e+003;4.3679487305e+003;4.3703847656e+003;4.3679487305e+003;4.3629487305e+003;4.3629487305e+003;4.3697436523e+003;
2.3906250000e+000;4.4333334961e+003;4.4151284180e+003;4.3873076172e+003;4.3652563477e+003;4.4115385742e+003;4.3982050781e+003;4.3950000000e+003;4.3865385742e+003;4.3957690430e+003;4.3996152344e+003;4.3987177734e+003;4.3906411133e+003;4.3961538086e+003;4.4001284180e+003;
2.3984375000e+000;4.4912822266e+003;4.4751284180e+003;4.4489741211e+003;4.4102563477e+003;4.4915385742e+003;4.4474360352e+003;4.4456411133e+003;4.4451284180e+003;4.4498715820e+003;4.4641025391e+003;4.4626923828e+003;4.4543588867e+003;4.4538461914e+003;4.4561538086e+003;
2.4062500000e+000;4.4385898438e+003;4.4260258789e+003;4.3994873047e+003;4.3638461914e+003;4.4293588867e+003;4.4011538086e+003;4.3953847656e+003;4.3924360352e+003;4.3976923828e+003;4.4105126953e+003;4.4114101563e+003;4.4055126953e+003;4.4012822266e+003;4.4032050781e+003;
2.4140625000e+000;4.4171796875e+003;4.4058974609e+003;4.3792309570e+003;4.3515385742e+003;4.3943588867e+003;4.3826923828e+003;4.3761538086e+003;4.3655126953e+003;4.3712822266e+003;4.3833334961e+003;4.3870512695e+003;4.3820512695e+003;4.3835898438e+003;4.3805126953e+003;
2.4218750000e+000;4.4271796875e+003;4.4105126953e+003;4.3908974609e+003;4.3617949219e+003;4.4023076172e+003;4.3879487305e+003;4.3838461914e+003;4.3748715820e+003;4.3779487305e+003;4.3929487305e+003;4.3960258789e+003;4.3921796875e+003;4.3958974609e+003;4.3923076172e+003;
2.4296875000e+000;4.3744873047e+003;4.3501284180e+003;4.3442309570e+003;4.3062822266e+003;4.3447436523e+003;4.3233334961e+003;4.3264101563e+003;4.3191025391e+003;4.3200000000e+003;4.3373076172e+003;4.3447436523e+003;4.3448715820e+003;4.3407690430e+003;4.3489741211e+003;
2.4375000000e+000;4.3594873047e+003;4.3460258789e+003;4.3257690430e+003;4.3024360352e+003;4.3378203125e+003;4.3123076172e+003;4.3089741211e+003;4.3171796875e+003;4.3256411133e+003;4.3384614258e+003;4.3351284180e+003;4.3371796875e+003;4.3325639648e+003;4.3374360352e+003;
2.4453125000e+000;4.3226923828e+003;4.3102563477e+003;4.2919228516e+003;4.2733334961e+003;4.3035898438e+003;4.2832050781e+003;4.2789741211e+003;4.2880771484e+003;4.2950000000e+003;4.3057690430e+003;4.2997436523e+003;4.3028203125e+003;4.2993588867e+003;4.3012822266e+003;
2.4531250000e+000;4.3157690430e+003;4.3029487305e+003;4.2876923828e+003;4.2684614258e+003;4.2967949219e+003;4.2782050781e+003;4.2775639648e+003;4.2851284180e+003;4.2916665039e+003;4.3005126953e+003;4.2938461914e+003;4.2958974609e+003;4.2939741211e+003;4.2937177734e+003;
2.4609375000e+000;4.3419228516e+003;4.3282050781e+003;4.3157690430e+003;4.2911538086e+003;4.3208974609e+003;4.2997436523e+003;4.3050000000e+003;4.3129487305e+003;4.3215385742e+003;4.3289741211e+003;4.3220512695e+003;4.3215385742e+003;4.3200000000e+003;4.3193588867e+003;
2.4687500000e+000;4.3119228516e+003;4.2989741211e+003;4.2887177734e+003;4.2691025391e+003;4.2858974609e+003;4.2716665039e+003;4.2755126953e+003;4.2925639648e+003;4.3048715820e+003;4.3057690430e+003;4.2957690430e+003;4.2989741211e+003;4.2892309570e+003;4.2925639648e+003;
2.4765625000e+000;4.3335898438e+003;4.3221796875e+003;4.3103847656e+003;4.2900000000e+003;4.3087177734e+003;4.2960258789e+003;4.2982050781e+003;4.3153847656e+003;4.3267949219e+003;4.3262822266e+003;4.3170512695e+003;4.3203847656e+003;4.3138461914e+003;4.3151284180e+003;
2.4843750000e+000;4.2988461914e+003;4.2865385742e+003;4.2857690430e+003;4.2498715820e+003;4.2843588867e+003;4.2797436523e+003;4.2825639648e+003;4.2876923828e+003;4.2988461914e+003;4.2929487305e+003;4.2887177734e+003;4.2975639648e+003;4.2816665039e+003;4.2925639648e+003;
2.4921875000e+000;4.3239741211e+003;4.3120512695e+003;4.3008974609e+003;4.2846152344e+003;4.3135898438e+003;4.3011538086e+003;4.3071796875e+003;4.2998715820e+003;4.3084614258e+003;4.3098715820e+003;4.3050000000e+003;4.3116665039e+003;4.3005126953e+003;4.3056411133e+003;
2.5000000000e+000;4.3187177734e+003;4.3091025391e+003;4.2951284180e+003;4.2805126953e+003;4.3046152344e+003;4.2975639648e+003;4.2992309570e+003;4.2933334961e+003;4.3002563477e+003;4.3034614258e+003;4.2970512695e+003;4.3056411133e+003;4.2955126953e+003;4.3005126953e+003;
2.5078125000e+000;4.2964101563e+003;4.2861538086e+003;4.2810258789e+003;4.2567949219e+003;4.2826923828e+003;4.2841025391e+003;4.2830771484e+003;4.2655126953e+003;4.2664101563e+003;4.2696152344e+003;4.2724360352e+003;4.2915385742e+003;4.2721796875e+003;4.2823076172e+003;
2.5156250000e+000;4.3192309570e+003;4.3080771484e+003;4.3050000000e+003;4.2791025391e+003;4.3083334961e+003;4.3025639648e+003;4.3047436523e+003;4.2891025391e+003;4.2882050781e+003;4.2956411133e+003;4.2993588867e+003;4.3175639648e+003;4.2967949219e+003;4.3044873047e+003;
2.5234375000e+000;4.2778203125e+003;4.2752563477e+003;4.2685898438e+003;4.2398715820e+003;4.2683334961e+003;4.2638461914e+003;4.2637177734e+003;4.2552563477e+003;4.2530771484e+003;4.2615385742e+003;4.2675639648e+003;4.2764101563e+003;4.2647436523e+003;4.2669228516e+003;
2.5312500000e+000;4.3003847656e+003;4.2976923828e+003;4.2903847656e+003;4.2605126953e+003;4.2880771484e+003;4.2857690430e+003;4.2843588867e+003;4.2782050781e+003;4.2766665039e+003;4.2851284180e+003;4.2910258789e+003;4.2980771484e+003;4.2885898438e+003;4.2916665039e+003;
2.5390625000e+000;4.3261538086e+003;4.3171796875e+003;4.3135898438e+003;4.2871796875e+003;4.3074360352e+003;4.3070512695e+003;4.3053847656e+003;4.3088461914e+003;4.3085898438e+003;4.3210258789e+003;4.3226923828e+003;4.3316665039e+003;4.3164101563e+003;4.3223076172e+003;
2.5468750000e+000;4.2964101563e+003;4.2879487305e+003;4.2841025391e+003;4.2617949219e+003;4.2787177734e+003;4.2765385742e+003;4.2762822266e+003;4.2798715820e+003;4.2817949219e+003;4.2938461914e+003;4.2955126953e+003;4.3046152344e+003;4.2884614258e+003;4.2935898438e+003;
2.5546875000e+000;4.3251284180e+003;4.3291025391e+003;4.3128203125e+003;4.2920512695e+003;4.3174360352e+003;4.2930771484e+003;4.2976923828e+003;4.3052563477e+003;4.3203847656e+003;4.3275639648e+003;4.3280771484e+003;4.3282050781e+003;4.3246152344e+003;4.3237177734e+003;
2.5625000000e+000;4.2757690430e+003;4.2696152344e+003;4.2669228516e+003;4.2407690430e+003;4.2610258789e+003;4.2500000000e+003;4.2550000000e+003;4.2652563477e+003;4.2882050781e+003;4.2847436523e+003;4.2779487305e+003;4.2841025391e+003;4.2752563477e+003;4.2780771484e+003;
2.5703125000e+000;4.2846152344e+003;4.2792309570e+003;4.2757690430e+003;4.2465385742e+003;4.2702563477e+003;4.2584614258e+003;4.2657690430e+003;4.2729487305e+003;4.2979487305e+003;4.2924360352e+003;4.2871796875e+003;4.2910258789e+003;4.2838461914e+003;4.2860258789e+003;
2.5781250000e+000;4.3050000000e+003;4.3028203125e+003;4.2966665039e+003;4.2646152344e+003;4.2928203125e+003;4.2784614258e+003;4.2857690430e+003;4.2950000000e+003;4.3206411133e+003;4.3150000000e+003;4.3097436523e+003;4.3110258789e+003;4.3053847656e+003;4.3066665039e+003;
2.5859375000e+000;4.2991025391e+003;4.3002563477e+003;4.2928203125e+003;4.2612822266e+003;4.2901284180e+003;4.2770512695e+003;4.2811538086e+003;4.2950000000e+003;4.3191025391e+003;4.3128203125e+003;4.3057690430e+003;4.3066665039e+003;4.3008974609e+003;4.3017949219e+003;
2.5937500000e+000;4.2357690430e+003;4.2457690430e+003;4.2330771484e+003;4.2285898438e+003;4.2392309570e+003;4.2460258789e+003;4.2464101563e+003;4.2469228516e+003;4.2575639648e+003;4.2462822266e+003;4.2394873047e+003;4.2406411133e+003;4.2379487305e+003;4.2334614258e+003;
2.6015625000e+000;4.2271796875e+003;4.2388461914e+003;4.2253847656e+003;4.2217949219e+003;4.2317949219e+003;4.2424360352e+003;4.2425639648e+003;4.2408974609e+003;4.2488461914e+003;4.2392309570e+003;4.2337177734e+003;4.2362822266e+003;4.2306411133e+003;4.2279487305e+003;
2.6093750000e+000;4.1919228516e+003;4.1992309570e+003;4.1898715820e+003;4.1801284180e+003;4.2028203125e+003;4.2111538086e+003;4.2112822266e+003;4.1960258789e+003;4.1982050781e+003;4.1906411133e+003;4.1925639648e+003;4.2010258789e+003;4.1905126953e+003;4.1919228516e+003;
2.6171875000e+000;4.2334614258e+003;4.2405126953e+003;4.2296152344e+003;4.2185898438e+003;4.2444873047e+003;4.2474360352e+003;4.2488461914e+003;4.2343588867e+003;4.2346152344e+003;4.2300000000e+003;4.2317949219e+003;4.2398715820e+003;4.2300000000e+003;4.2302563477e+003;
2.6250000000e+000;4.2383334961e+003;4.2489741211e+003;4.2347436523e+003;4.2280771484e+003;4.2438461914e+003;4.2514101563e+003;4.2534614258e+003;4.2420512695e+003;4.2378203125e+003;4.2374360352e+003;4.2392309570e+003;4.2485898438e+003;4.2341025391e+003;4.2380771484e+003;
2.6328125000e+000;4.2691025391e+003;4.2811538086e+003;4.2655126953e+003;4.2578203125e+003;4.2766665039e+003;4.2712822266e+003;4.2682050781e+003;4.2593588867e+003;4.2602563477e+003;4.2670512695e+003;4.2728203125e+003;4.2785898438e+003;4.2676923828e+003;4.2755126953e+003;
2.6406250000e+000;4.2434614258e+003;4.2514101563e+003;4.2444873047e+003;4.2323076172e+003;4.2364101563e+003;4.2434614258e+003;4.2374360352e+003;4.2308974609e+003;4.2324360352e+003;4.2417949219e+003;4.2470512695e+003;4.2525639648e+003;4.2407690430e+003;4.2484614258e+003;
2.6484375000e+000;4.2433334961e+003;4.2491025391e+003;4.2364101563e+003;4.2261538086e+003;4.2060258789e+003;4.2239741211e+003;4.2198715820e+003;4.2123076172e+003;4.2262822266e+003;4.2362822266e+003;4.2416665039e+003;4.2398715820e+003;4.2370512695e+003;4.2416665039e+003;
2.6562500000e+000;4.2533334961e+003;4.2643588867e+003;4.2444873047e+003;4.2369228516e+003;4.2314101563e+003;4.2315385742e+003;4.2260258789e+003;4.2266665039e+003;4.2443588867e+003;4.2521796875e+003;4.2544873047e+003;4.2514101563e+003;4.2506411133e+003;4.2555126953e+003;
2.6640625000e+000;4.1989741211e+003;4.2176923828e+003;4.1956411133e+003;4.1908974609e+003;4.2130771484e+003;4.1851284180e+003;4.1788461914e+003;4.1882050781e+003;4.2044873047e+003;4.2023076172e+003;4.2050000000e+003;4.2038461914e+003;4.2008974609e+003;4.2079487305e+003;
2.6718750000e+000;4.2005126953e+003;4.2194873047e+003;4.1982050781e+003;4.1919228516e+003;4.2179487305e+003;4.1866665039e+003;4.1839741211e+003;4.1924360352e+003;4.2069228516e+003;4.2012822266e+003;4.2057690430e+003;4.2044873047e+003;4.2016665039e+003;4.2083334961e+003;
2.6796875000e+000;4.2183334961e+003;4.2314101563e+003;4.2161538086e+003;4.2058974609e+003;4.2125639648e+003;4.2023076172e+003;4.2044873047e+003;4.2198715820e+003;4.2319228516e+003;4.2276923828e+003;4.2252563477e+003;4.2220512695e+003;4.2174360352e+003;4.2274360352e+003;
2.6875000000e+000;4.1828203125e+003;4.1942309570e+003;4.1812822266e+003;4.1753847656e+003;4.1779487305e+003;4.1741025391e+003;4.1757690430e+003;4.1885898438e+003;4.1994873047e+003;4.1925639648e+003;4.1907690430e+003;4.1882050781e+003;4.1816665039e+003;4.1937177734e+003;
2.6953125000e+000;4.2021796875e+003;4.2120512695e+003;4.1974360352e+003;4.1946152344e+003;4.2056411133e+003;4.2016665039e+003;4.2071796875e+003;4.2111538086e+003;4.2225639648e+003;4.2087177734e+003;4.2100000000e+003;4.2078203125e+003;4.2012822266e+003;4.2133334961e+003;
2.7031250000e+000;4.2184614258e+003;4.2282050781e+003;4.2147436523e+003;4.2080771484e+003;4.2225639648e+003;4.2206411133e+003;4.2262822266e+003;4.2294873047e+003;4.2426923828e+003;4.2279487305e+003;4.2267949219e+003;4.2250000000e+003;4.2182050781e+003;4.2298715820e+003;
2.7109375000e+000;4.1970512695e+003;4.2079487305e+003;4.1975639648e+003;4.1883334961e+003;4.2015385742e+003;4.2051284180e+003;4.2078203125e+003;4.2098715820e+003;4.2244873047e+003;4.2106411133e+003;4.2057690430e+003;4.2044873047e+003;4.1978203125e+003;4.2091025391e+003;
2.7187500000e+000;4.1487177734e+003;4.1694873047e+003;4.1488461914e+003;4.1648715820e+003;4.1682050781e+003;4.1785898438e+003;4.1732050781e+003;4.1629487305e+003;4.1683334961e+003;4.1601284180e+003;4.1587177734e+003;4.1650000000e+003;4.1555126953e+003;4.1647436523e+003;
2.7265625000e+000;4.1207690430e+003;4.1380771484e+003;4.1230771484e+003;4.1358974609e+003;4.1388461914e+003;4.1596152344e+003;4.1535898438e+003;4.1378203125e+003;4.1428203125e+003;4.1306411133e+003;4.1307690430e+003;4.1385898438e+003;4.1260258789e+003;4.1350000000e+003;
2.7343750000e+000;4.1700000000e+003;4.1779487305e+003;4.1785898438e+003;4.1733334961e+003;4.1910258789e+003;4.2024360352e+003;4.2007690430e+003;4.1835898438e+003;4.1855126953e+003;4.1817949219e+003;4.1753847656e+003;4.1770512695e+003;4.1683334961e+003;4.1733334961e+003;
2.7421875000e+000;4.1637177734e+003;4.1697436523e+003;4.1720512695e+003;4.1658974609e+003;4.1833334961e+003;4.1908974609e+003;4.1880771484e+003;4.1741025391e+003;4.1760258789e+003;4.1758974609e+003;4.1675639648e+003;4.1728203125e+003;4.1594873047e+003;4.1661538086e+003;
2.7500000000e+000;4.1335898438e+003;4.1429487305e+003;4.1389741211e+003;4.1343588867e+003;4.1456411133e+003;4.1570512695e+003;4.1512822266e+003;4.1330771484e+003;4.1417949219e+003;4.1397436523e+003;4.1365385742e+003;4.1475639648e+003;4.1292309570e+003;4.1382050781e+003;
2.7578125000e+000;4.1041025391e+003;4.1148715820e+003;4.1105126953e+003;4.1105126953e+003;4.1047436523e+003;4.1124360352e+003;4.1085898438e+003;4.1092309570e+003;4.1216665039e+003;4.1188461914e+003;4.1211538086e+003;4.1250000000e+003;4.1185898438e+003;4.1242309570e+003;
2.7656250000e+000;4.0835898438e+003;4.0926923828e+003;4.0884614258e+003;4.0934614258e+003;4.0864101563e+003;4.0884614258e+003;4.0857692871e+003;4.0879487305e+003;4.1000000000e+003;4.0935898438e+003;4.0985898438e+003;4.1032050781e+003;4.0960258789e+003;4.1026923828e+003;
2.7734375000e+000;4.1115385742e+003;4.1234614258e+003;4.1169228516e+003;4.1200000000e+003;4.1117949219e+003;4.1048715820e+003;4.1058974609e+003;4.1207690430e+003;4.1382050781e+003;4.1246152344e+003;4.1237177734e+003;4.1326923828e+003;4.1169228516e+003;4.1310258789e+003;
2.7812500000e+000;4.0674357910e+003;4.0830769043e+003;4.0773076172e+003;4.0792307129e+003;4.0662819824e+003;4.0692307129e+003;4.0705129395e+003;4.0848718262e+003;4.1015385742e+003;4.0852563477e+003;4.0805129395e+003;4.0908974609e+003;4.0746154785e+003;4.0876923828e+003;
2.7890625000e+000;4.0250000000e+003;4.0471794434e+003;4.0370512695e+003;4.0401281738e+003;4.0291025391e+003;4.0443588867e+003;4.0450000000e+003;4.0530769043e+003;4.0664101563e+003;4.0475642090e+003;4.0385898438e+003;4.0464101563e+003;4.0356411133e+003;4.0425642090e+003;
2.7968750000e+000;4.0278205566e+003;4.0497436523e+003;4.0379487305e+003;4.0442307129e+003;4.0375642090e+003;4.0520512695e+003;4.0492307129e+003;4.0575642090e+003;4.0705129395e+003;4.0530769043e+003;4.0421794434e+003;4.0492307129e+003;4.0383332520e+003;4.0460256348e+003;
2.8046875000e+000;3.9700000000e+003;3.9835898438e+003;3.9805129395e+003;3.9984614258e+003;3.9887180176e+003;4.0055129395e+003;3.9983332520e+003;3.9910256348e+003;4.0088461914e+003;3.9883332520e+003;3.9823076172e+003;3.9911538086e+003;3.9750000000e+003;3.9920512695e+003;
2.8125000000e+000;4.0024357910e+003;4.0147436523e+003;4.0125642090e+003;4.0283332520e+003;4.0193588867e+003;4.0360256348e+003;4.0324357910e+003;4.0196154785e+003;4.0378205566e+003;4.0162819824e+003;4.0135898438e+003;4.0192307129e+003;4.0074357910e+003;4.0208974609e+003;
2.8203125000e+000;4.0484614258e+003;4.0610256348e+003;4.0606411133e+003;4.0692307129e+003;4.0657692871e+003;4.0829487305e+003;4.0807692871e+003;4.0703845215e+003;4.0814101563e+003;4.0655129395e+003;4.0621794434e+003;4.0665385742e+003;4.0567949219e+003;4.0656411133e+003;
2.8281250000e+000;4.0175642090e+003;4.0312819824e+003;4.0319230957e+003;4.0429487305e+003;4.0384614258e+003;4.0582050781e+003;4.0535898438e+003;4.0420512695e+003;4.0480769043e+003;4.0360256348e+003;4.0321794434e+003;4.0400000000e+003;4.0271794434e+003;4.0382050781e+003;
2.8359375000e+000;3.9908974609e+003;4.0061538086e+003;4.0053845215e+003;4.0232050781e+003;4.0137180176e+003;4.0353845215e+003;4.0293588867e+003;4.0126923828e+003;4.0162819824e+003;4.0076923828e+003;4.0043588867e+003;4.0153845215e+003;4.0010256348e+003;4.0144870605e+003;
2.8437500000e+000;3.9717949219e+003;3.9837180176e+003;3.9826923828e+003;4.0017949219e+003;3.9914101563e+003;4.0042307129e+003;3.9969230957e+003;3.9721794434e+003;3.9735898438e+003;3.9793588867e+003;3.9794870605e+003;3.9900000000e+003;3.9796154785e+003;3.9897436523e+003;
2.8515625000e+000;3.9828205566e+003;3.9928205566e+003;3.9941025391e+003;4.0138461914e+003;3.9956411133e+003;4.0126923828e+003;4.0055129395e+003;3.9812819824e+003;3.9801281738e+003;3.9873076172e+003;3.9901281738e+003;4.0015385742e+003;3.9901281738e+003;4.0007692871e+003;
2.8593750000e+000;3.9574357910e+003;3.9710256348e+003;3.9738461914e+003;4.0038461914e+003;3.9361538086e+003;3.9861538086e+003;3.9775642090e+003;3.9698718262e+003;3.9684614258e+003;3.9729487305e+003;3.9735898438e+003;3.9889743652e+003;3.9732050781e+003;3.9839743652e+003;
2.8671875000e+000;3.9317949219e+003;3.9460256348e+003;3.9484614258e+003;3.9825642090e+003;3.9237180176e+003;3.9606411133e+003;3.9535898438e+003;3.9469230957e+003;3.9474357910e+003;3.9473076172e+003;3.9488461914e+003;3.9611538086e+003;3.9483332520e+003;3.9583332520e+003;
2.8750000000e+000;3.9934614258e+003;4.0078205566e+003;4.0039743652e+003;4.0446154785e+003;4.0278205566e+003;4.0101281738e+003;4.0111538086e+003;4.0162819824e+003;4.0200000000e+003;4.0148718262e+003;4.0134614258e+003;4.0160256348e+003;4.0111538086e+003;4.0193588867e+003;
2.8828125000e+000;4.0093588867e+003;4.0300000000e+003;4.0278205566e+003;4.0538461914e+003;4.0238461914e+003;4.0301281738e+003;4.0352563477e+003;4.0503845215e+003;4.0489743652e+003;4.0391025391e+003;4.0355129395e+003;4.0420512695e+003;4.0369230957e+003;4.0373076172e+003;
2.8906250000e+000;4.0356411133e+003;4.0561538086e+003;4.0530769043e+003;4.0783332520e+003;4.0516667480e+003;4.0555129395e+003;4.0620512695e+003;4.0739743652e+003;4.0738461914e+003;4.0648718262e+003;4.0603845215e+003;4.0666667480e+003;4.0646154785e+003;4.0600000000e+003;
2.8984375000e+000;3.9920512695e+003;4.0108974609e+003;4.0041025391e+003;4.0516667480e+003;4.0241025391e+003;4.0246154785e+003;4.0265385742e+003;4.0255129395e+003;4.0392307129e+003;4.0215385742e+003;4.0151281738e+003;4.0217949219e+003;4.0180769043e+003;4.0112819824e+003;
2.9062500000e+000;4.0033332520e+003;4.0238461914e+003;4.0137180176e+003;4.0641025391e+003;4.0342307129e+003;4.0392307129e+003;4.0380769043e+003;4.0330769043e+003;4.0492307129e+003;4.0288461914e+003;4.0242307129e+003;4.0300000000e+003;4.0262819824e+003;4.0201281738e+003;
2.9140625000e+000;4.0432050781e+003;4.0651281738e+003;4.0561538086e+003;4.0970512695e+003;4.0710256348e+003;4.0844870605e+003;4.0755129395e+003;4.0720512695e+003;4.0841025391e+003;4.0684614258e+003;4.0616667480e+003;4.0682050781e+003;4.0643588867e+003;4.0556411133e+003;
2.9218750000e+000;4.0162819824e+003;4.0369230957e+003;4.0333332520e+003;4.0696154785e+003;4.0455129395e+003;4.0642307129e+003;4.0519230957e+003;4.0443588867e+003;4.0543588867e+003;4.0411538086e+003;4.0346154785e+003;4.0437180176e+003;4.0379487305e+003;4.0274357910e+003;
2.9296875000e+000;3.9882050781e+003;4.0079487305e+003;4.0075642090e+003;4.0421794434e+003;4.0201281738e+003;4.0408974609e+003;4.0278205566e+003;4.0101281738e+003;4.0206411133e+003;4.0083332520e+003;4.0053845215e+003;4.0171794434e+003;4.0092307129e+003;3.9978205566e+003;
2.9375000000e+000;3.9969230957e+003;4.0174357910e+003;4.0156411133e+003;4.0500000000e+003;4.0323076172e+003;4.0485898438e+003;4.0369230957e+003;4.0092307129e+003;4.0217949219e+003;4.0110256348e+003;4.0124357910e+003;4.0252563477e+003;4.0158974609e+003;4.0053845215e+003;
2.9453125000e+000;3.9834614258e+003;3.9973076172e+003;4.0052563477e+003;4.0334614258e+003;4.0198718262e+003;4.0338461914e+003;4.0187180176e+003;3.9926923828e+003;3.9971794434e+003;3.9932050781e+003;3.9912819824e+003;4.0096154785e+003;3.9938461914e+003;3.9932050781e+003;
2.9531250000e+000;3.9701281738e+003;3.9819230957e+003;3.9930769043e+003;4.0187180176e+003;4.0015385742e+003;4.0201281738e+003;4.0079487305e+003;3.9784614258e+003;3.9823076172e+003;3.9766667480e+003;3.9767949219e+003;3.9930769043e+003;3.9792307129e+003;3.9765385742e+003;
2.9609375000e+000;3.9958974609e+003;4.0110256348e+003;4.0193588867e+003;4.0437180176e+003;4.0100000000e+003;4.0282050781e+003;4.0257692871e+003;4.0096154785e+003;4.0123076172e+003;4.0067949219e+003;4.0078205566e+003;4.0200000000e+003;4.0057692871e+003;4.0084614258e+003;
2.9687500000e+000;3.9662819824e+003;3.9816667480e+003;3.9894870605e+003;4.0155129395e+003;3.9848718262e+003;3.9938461914e+003;3.9962819824e+003;3.9970512695e+003;3.9932050781e+003;3.9844870605e+003;3.9874357910e+003;4.0001281738e+003;3.9835898438e+003;3.9867949219e+003;
2.9765625000e+000;3.9767949219e+003;3.9896154785e+003;4.0000000000e+003;4.0214101563e+003;3.9933332520e+003;4.0021794434e+003;4.0035898438e+003;4.0105129395e+003;4.0101281738e+003;3.9985898438e+003;4.0015385742e+003;4.0125642090e+003;3.9947436523e+003;3.9962819824e+003;
2.9843750000e+000;3.9162819824e+003;3.9193588867e+003;3.9473076172e+003;3.9592307129e+003;3.9160256348e+003;3.9358974609e+003;3.9403845215e+003;3.9466667480e+003;3.9543588867e+003;3.9292307129e+003;3.9335898438e+003;3.9437180176e+003;3.9257692871e+003;3.9291025391e+003;
2.9921875000e+000;3.9266667480e+003;3.9296154785e+003;3.9560256348e+003;3.9706411133e+003;3.9278205566e+003;3.9423076172e+003;3.9498718262e+003;3.9571794434e+003;3.9648718262e+003;3.9389743652e+003;3.9415385742e+003;3.9523076172e+003;3.9347436523e+003;3.9387180176e+003;
3.0000000000e+000;3.9132050781e+003;3.9200000000e+003;3.9387180176e+003;3.9673076172e+003;3.9274357910e+003;3.9361538086e+003;3.9402563477e+003;3.9514101563e+003;3.9591025391e+003;3.9346154785e+003;3.9301281738e+003;3.9467949219e+003;3.9210256348e+003;3.9284614258e+003;
3.0078125000e+000;3.8917949219e+003;3.9012819824e+003;3.9165385742e+003;3.9515385742e+003;3.9106411133e+003;3.9228205566e+003;3.9232050781e+003;3.9300000000e+003;3.9391025391e+003;3.9147436523e+003;3.9085898438e+003;3.9264101563e+003;3.8991025391e+003;3.9069230957e+003;
3.0156250000e+000;3.9708974609e+003;3.9798718262e+003;3.9919230957e+003;4.0084614258e+003;3.9797436523e+003;3.9961538086e+003;3.9937180176e+003;3.9901281738e+003;4.0098718262e+003;3.9897436523e+003;3.9847436523e+003;3.9930769043e+003;3.9784614258e+003;3.9815385742e+003;
3.0234375000e+000;3.9570512695e+003;3.9638461914e+003;3.9794870605e+003;3.9900000000e+003;3.9652563477e+003;3.9851281738e+003;3.9787180176e+003;3.9735898438e+003;3.9937180176e+003;3.9750000000e+003;3.9706411133e+003;3.9815385742e+003;3.9623076172e+003;3.9687180176e+003;
3.0312500000e+000;3.9464101563e+003;3.9521794434e+003;3.9664101563e+003;3.9935898438e+003;3.9589743652e+003;3.9815385742e+003;3.9725642090e+003;3.9416667480e+003;3.9600000000e+003;3.9471794434e+003;3.9441025391e+003;3.9624357910e+003;3.9391025391e+003;3.9476923828e+003;
3.0390625000e+000;3.9224357910e+003;3.9266667480e+003;3.9442307129e+003;3.9658974609e+003;3.9353845215e+003;3.9626923828e+003;3.9520512695e+003;3.9161538086e+003;3.9306411133e+003;3.9226923828e+003;3.9250000000e+003;3.9424357910e+003;3.9225642090e+003;3.9252563477e+003;
3.0468750000e+000;3.8894870605e+003;3.8943588867e+003;3.9111538086e+003;3.9357692871e+003;3.9085898438e+003;3.9373076172e+003;3.9238461914e+003;3.8869230957e+003;3.8979487305e+003;3.8873076172e+003;3.8938461914e+003;3.9119230957e+003;3.8885898438e+003;3.8929487305e+003;
3.0546875000e+000;3.8902563477e+003;3.8961538086e+003;3.9093588867e+003;3.9398718262e+003;3.9091025391e+003;3.9389743652e+003;3.9251281738e+003;3.8907692871e+003;3.8991025391e+003;3.8869230957e+003;3.8943588867e+003;3.9120512695e+003;3.8873076172e+003;3.8934614258e+003;
3.0625000000e+000;3.9012819824e+003;3.9082050781e+003;3.9184614258e+003;3.9537180176e+003;3.9103845215e+003;3.9453845215e+003;3.9338461914e+003;3.9061538086e+003;3.9124357910e+003;3.9005129395e+003;3.9055129395e+003;3.9224357910e+003;3.8980769043e+003;3.9060256348e+003;
3.0703125000e+000;3.8964101563e+003;3.8985898438e+003;3.9156411133e+003;3.9346154785e+003;3.8988461914e+003;3.9244870605e+003;3.9244870605e+003;3.9173076172e+003;3.9124357910e+003;3.9002563477e+003;3.9096154785e+003;3.9214101563e+003;3.9038461914e+003;3.9089743652e+003;
3.0781250000e+000;3.9315385742e+003;3.9288461914e+003;3.9470512695e+003;3.9629487305e+003;3.9458974609e+003;3.9526923828e+003;3.9526923828e+003;3.9533332520e+003;3.9487180176e+003;3.9389743652e+003;3.9455129395e+003;3.9557692871e+003;3.9374357910e+003;3.9414101563e+003;
3.0859375000e+000;3.9014101563e+003;3.8983332520e+003;3.9070512695e+003;3.9378205566e+003;3.9055129395e+003;3.9096154785e+003;3.9156411133e+003;3.9232050781e+003;3.9267949219e+003;3.9155129395e+003;3.9164101563e+003;3.9214101563e+003;3.9060256348e+003;3.9110256348e+003;
3.0937500000e+000;3.9496154785e+003;3.9556411133e+003;3.9625642090e+003;3.9932050781e+003;3.9515385742e+003;3.9566667480e+003;3.9629487305e+003;3.9805129395e+003;3.9866667480e+003;3.9710256348e+003;3.9721794434e+003;3.9720512695e+003;3.9651281738e+003;3.9617949219e+003;
3.1015625000e+000;3.9170512695e+003;3.9197436523e+003;3.9319230957e+003;3.9603845215e+003;3.9206411133e+003;3.9283332520e+003;3.9316667480e+003;3.9471794434e+003;3.9553845215e+003;3.9376923828e+003;3.9371794434e+003;3.9401281738e+003;3.9300000000e+003;3.9273076172e+003;
3.1093750000e+000;3.9460256348e+003;3.9491025391e+003;3.9475642090e+003;3.9775642090e+003;3.9417949219e+003;3.9542307129e+003;3.9543588867e+003;3.9567949219e+003;3.9735898438e+003;3.9614101563e+003;3.9532050781e+003;3.9578205566e+003;3.9478205566e+003;3.9498718262e+003;
3.1171875000e+000;3.9485898438e+003;3.9561538086e+003;3.9502563477e+003;3.9844870605e+003;3.9496154785e+003;3.9617949219e+003;3.9565385742e+003;3.9603845215e+003;3.9783332520e+003;3.9684614258e+003;3.9557692871e+003;3.9615385742e+003;3.9519230957e+003;3.9543588867e+003;
3.1250000000e+000;3.8941025391e+003;3.9061538086e+003;3.9003845215e+003;3.9416667480e+003;3.9143588867e+003;3.9264101563e+003;3.9097436523e+003;3.9033332520e+003;3.9248718262e+003;3.9129487305e+003;3.9005129395e+003;3.9079487305e+003;3.8979487305e+003;3.9023076172e+003;
3.1328125000e+000;3.9069230957e+003;3.9175642090e+003;3.9120512695e+003;3.9512819824e+003;3.9312819824e+003;3.9419230957e+003;3.9239743652e+003;3.9091025391e+003;3.9330769043e+003;3.9206411133e+003;3.9114101563e+003;3.9170512695e+003;3.9069230957e+003;3.9133332520e+003;
3.1406250000e+000;3.9303845215e+003;3.9324357910e+003;3.9356411133e+003;3.9701281738e+003;3.9443588867e+003;3.9682050781e+003;3.9534614258e+003;3.9274357910e+003;3.9451281738e+003;3.9375642090e+003;3.9310256348e+003;3.9384614258e+003;3.9217949219e+003;3.9333332520e+003;
3.1484375000e+000;3.9101281738e+003;3.9117949219e+003;3.9167949219e+003;3.9543588867e+003;3.9226923828e+003;3.9511538086e+003;3.9389743652e+003;3.9087180176e+003;3.9223076172e+003;3.9139743652e+003;3.9092307129e+003;3.9183332520e+003;3.9034614258e+003;3.9124357910e+003;
3.1562500000e+000;3.9370512695e+003;3.9439743652e+003;3.9446154785e+003;3.9775642090e+003;3.9567949219e+003;3.9780769043e+003;3.9742307129e+003;3.9506411133e+003;3.9616667480e+003;3.9525642090e+003;3.9492307129e+003;3.9556411133e+003;3.9444870605e+003;3.9496154785e+003;
3.1640625000e+000;3.8957692871e+003;3.9056411133e+003;3.9071794434e+003;3.9402563477e+003;3.9178205566e+003;3.9420512695e+003;3.9370512695e+003;3.9180769043e+003;3.9275642090e+003;3.9171794434e+003;3.9150000000e+003;3.9225642090e+003;3.9064101563e+003;3.9143588867e+003;
3.1718750000e+000;3.8356411133e+003;3.8465385742e+003;3.8485898438e+003;3.8875642090e+003;3.8514101563e+003;3.8837180176e+003;3.8775642090e+003;3.8626923828e+003;3.8655129395e+003;3.8526923828e+003;3.8552563477e+003;3.8642307129e+003;3.8467949219e+003;3.8529487305e+003;
3.1796875000e+000;3.8434614258e+003;3.8500000000e+003;3.8530769043e+003;3.8916667480e+003;3.8510256348e+003;3.8843588867e+003;3.8798718262e+003;3.8697436523e+003;3.8684614258e+003;3.8564101563e+003;3.8585898438e+003;3.8680769043e+003;3.8533332520e+003;3.8571794434e+003;
3.1875000000e+000;3.8393588867e+003;3.8396154785e+003;3.8466667480e+003;3.8819230957e+003;3.8388461914e+003;3.8735898438e+003;3.8706411133e+003;3.8666667480e+003;3.8619230957e+003;3.8506411133e+003;3.8506411133e+003;3.8617949219e+003;3.8473076172e+003;3.8517949219e+003;
3.1953125000e+000;3.8716667480e+003;3.8842307129e+003;3.8848718262e+003;3.9178205566e+003;3.8850000000e+003;3.8883332520e+003;3.8948718262e+003;3.9044870605e+003;3.9085898438e+003;3.9015385742e+003;3.8948718262e+003;3.9007692871e+003;3.8853845215e+003;3.8902563477e+003;
3.2031250000e+000;3.8637180176e+003;3.8751281738e+003;3.8748718262e+003;3.9079487305e+003;3.8773076172e+003;3.8800000000e+003;3.8833332520e+003;3.8965385742e+003;3.9020512695e+003;3.8925642090e+003;3.8870512695e+003;3.8933332520e+003;3.8783332520e+003;3.8837180176e+003;
3.2109375000e+000;3.9471794434e+003;3.9491025391e+003;3.9498718262e+003;3.9766667480e+003;3.9207692871e+003;3.9484614258e+003;3.9533332520e+003;3.9615385742e+003;3.9743588867e+003;3.9617949219e+003;3.9530769043e+003;3.9608974609e+003;3.9505129395e+003;3.9552563477e+003;
3.2187500000e+000;3.9780769043e+003;3.9823076172e+003;3.9801281738e+003;4.0101281738e+003;3.9506411133e+003;3.9764101563e+003;3.9794870605e+003;3.9916667480e+003;4.0082050781e+003;3.9989743652e+003;3.9847436523e+003;3.9933332520e+003;3.9824357910e+003;3.9857692871e+003;
3.2265625000e+000;3.9325642090e+003;3.9441025391e+003;3.9358974609e+003;3.9770512695e+003;3.9478205566e+003;3.9470512695e+003;3.9376923828e+003;3.9460256348e+003;3.9694870605e+003;3.9601281738e+003;3.9474357910e+003;3.9529487305e+003;3.9416667480e+003;3.9450000000e+003;
3.2343750000e+000;3.9408974609e+003;3.9539743652e+003;3.9433332520e+003;3.9844870605e+003;3.9787180176e+003;3.9637180176e+003;3.9496154785e+003;3.9494870605e+003;3.9755129395e+003;3.9644870605e+003;3.9566667480e+003;3.9566667480e+003;3.9489743652e+003;3.9525642090e+003;
3.2421875000e+000;4.0211538086e+003;4.0352563477e+003;4.0269230957e+003;4.0484614258e+003;4.0438461914e+003;4.0543588867e+003;4.0352563477e+003;4.0283332520e+003;4.0526923828e+003;4.0446154785e+003;4.0289743652e+003;4.0328205566e+003;4.0235898438e+003;4.0278205566e+003;
3.2500000000e+000;3.9264101563e+003;3.9420512695e+003;3.9369230957e+003;3.9614101563e+003;3.9501281738e+003;3.9626923828e+003;3.9507692871e+003;3.9379487305e+003;3.9498718262e+003;3.9442307129e+003;3.9287180176e+003;3.9415385742e+003;3.9220512695e+003;3.9311538086e+003;
3.2578125000e+000;3.9110256348e+003;3.9244870605e+003;3.9229487305e+003;3.9483332520e+003;3.9412819824e+003;3.9462819824e+003;3.9355129395e+003;3.9252563477e+003;3.9324357910e+003;3.9282050781e+003;3.9150000000e+003;3.9260256348e+003;3.9051281738e+003;3.9173076172e+003;
3.2656250000e+000;3.8275642090e+003;3.8308974609e+003;3.8448718262e+003;3.8612819824e+003;3.8365385742e+003;3.8698718262e+003;3.8614101563e+003;3.8426923828e+003;3.8416667480e+003;3.8333332520e+003;3.8311538086e+003;3.8473076172e+003;3.8269230957e+003;3.8398718262e+003;
3.2734375000e+000;3.8512819824e+003;3.8523076172e+003;3.8675642090e+003;3.8808974609e+003;3.8548718262e+003;3.8873076172e+003;3.8826923828e+003;3.8639743652e+003;3.8638461914e+003;3.8566667480e+003;3.8546154785e+003;3.8729487305e+003;3.8528205566e+003;3.8657692871e+003;
3.2812500000e+000;3.8692307129e+003;3.8701281738e+003;3.8860256348e+003;3.8993588867e+003;3.8725642090e+003;3.8988461914e+003;3.8965385742e+003;3.8830769043e+003;3.8839743652e+003;3.8798718262e+003;3.8758974609e+003;3.8947436523e+003;3.8724357910e+003;3.8875642090e+003;
3.2890625000e+000;3.8521794434e+003;3.8561538086e+003;3.8712819824e+003;3.8888461914e+003;3.8583332520e+003;3.8802563477e+003;3.8778205566e+003;3.8693588867e+003;3.8703845215e+003;3.8694870605e+003;3.8646154785e+003;3.8823076172e+003;3.8574357910e+003;3.8748718262e+003;
3.2968750000e+000;3.8260256348e+003;3.8403845215e+003;3.8329487305e+003;3.8626923828e+003;3.8334614258e+003;3.8447436523e+003;3.8423076172e+003;3.8426923828e+003;3.8452563477e+003;3.8489743652e+003;3.8478205566e+003;3.8596154785e+003;3.8511538086e+003;3.8555129395e+003;
3.3046875000e+000;3.7984614258e+003;3.8105129395e+003;3.8069230957e+003;3.8346154785e+003;3.8010256348e+003;3.8175642090e+003;3.8143588867e+003;3.8201281738e+003;3.8252563477e+003;3.8260256348e+003;3.8208974609e+003;3.8369230957e+003;3.8247436523e+003;3.8300000000e+003;
3.3125000000e+000;3.7896154785e+003;3.8002563477e+003;3.8075642090e+003;3.8306411133e+003;3.7906411133e+003;3.8121794434e+003;3.8092307129e+003;3.8115385742e+003;3.8275642090e+003;3.8196154785e+003;3.8085898438e+003;3.8287180176e+003;3.8079487305e+003;3.8197436523e+003;
3.3203125000e+000;3.8592307129e+003;3.8656411133e+003;3.8773076172e+003;3.8928205566e+003;3.8653845215e+003;3.8674357910e+003;3.8675642090e+003;3.8803845215e+003;3.8957692871e+003;3.8907692871e+003;3.8751281738e+003;3.8961538086e+003;3.8775642090e+003;3.8860256348e+003;
3.3281250000e+000;3.8830769043e+003;3.8967949219e+003;3.9010256348e+003;3.9150000000e+003;3.8706411133e+003;3.9041025391e+003;3.8910256348e+003;3.8960256348e+003;3.9187180176e+003;3.9180769043e+003;3.9014101563e+003;3.9125642090e+003;3.9026923828e+003;3.9050000000e+003;
3.3359375000e+000;3.8711538086e+003;3.8832050781e+003;3.8875642090e+003;3.9053845215e+003;3.8798718262e+003;3.9003845215e+003;3.8879487305e+003;3.8841025391e+003;3.9058974609e+003;3.9065385742e+003;3.8892307129e+003;3.9025642090e+003;3.8925642090e+003;3.8937180176e+003;
3.3437500000e+000;3.9283332520e+003;3.9424357910e+003;3.9441025391e+003;3.9653845215e+003;3.9771794434e+003;3.9655129395e+003;3.9624357910e+003;3.9444870605e+003;3.9567949219e+003;3.9607692871e+003;3.9451281738e+003;3.9614101563e+003;3.9515385742e+003;3.9489743652e+003;
3.3515625000e+000;3.9700000000e+003;3.9873076172e+003;3.9901281738e+003;4.0057692871e+003;4.0194870605e+003;4.0088461914e+003;4.0080769043e+003;3.9917949219e+003;3.9988461914e+003;4.0055129395e+003;3.9891025391e+003;4.0066667480e+003;3.9926923828e+003;3.9911538086e+003;
3.3593750000e+000;3.9144870605e+003;3.9284614258e+003;3.9446154785e+003;3.9510256348e+003;3.9360256348e+003;3.9684614258e+003;3.9641025391e+003;3.9446154785e+003;3.9462819824e+003;3.9501281738e+003;3.9366667480e+003;3.9557692871e+003;3.9308974609e+003;3.9366667480e+003;
3.3671875000e+000;3.9303845215e+003;3.9421794434e+003;3.9553845215e+003;3.9670512695e+003;3.9553845215e+003;3.9833332520e+003;3.9808974609e+003;3.9585898438e+003;3.9592307129e+003;3.9634614258e+003;3.9515385742e+003;3.9667949219e+003;3.9470512695e+003;3.9501281738e+003;
3.3750000000e+000;3.9698718262e+003;3.9838461914e+003;3.9930769043e+003;4.0074357910e+003;4.0056411133e+003;4.0182050781e+003;4.0187180176e+003;4.0007692871e+003;3.9958974609e+003;4.0062819824e+003;3.9939743652e+003;4.0053845215e+003;3.9905129395e+003;3.9897436523e+003;
3.3828125000e+000;3.9578205566e+003;3.9724357910e+003;3.9860256348e+003;3.9951281738e+003;3.9908974609e+003;4.0042307129e+003;4.0053845215e+003;3.9869230957e+003;3.9805129395e+003;3.9919230957e+003;3.9807692871e+003;3.9947436523e+003;3.9774357910e+003;3.9775642090e+003;
3.3906250000e+000;4.0344870605e+003;4.0453845215e+003;4.0552563477e+003;4.0565385742e+003;4.0488461914e+003;4.0533332520e+003;4.0567949219e+003;4.0415385742e+003;4.0455129395e+003;4.0544870605e+003;4.0492307129e+003;4.0620512695e+003;4.0482050781e+003;4.0480769043e+003;
3.3984375000e+000;4.0403845215e+003;4.0505129395e+003;4.0547436523e+003;4.0600000000e+003;4.0514101563e+003;4.0539743652e+003;4.0547436523e+003;4.0476923828e+003;4.0544870605e+003;4.0644870605e+003;4.0582050781e+003;4.0675642090e+003;4.0565385742e+003;4.0560256348e+003;
3.4062500000e+000;4.0143588867e+003;4.0238461914e+003;4.0256411133e+003;4.0339743652e+003;4.0228205566e+003;4.0271794434e+003;4.0256411133e+003;4.0230769043e+003;4.0311538086e+003;4.0425642090e+003;4.0342307129e+003;4.0421794434e+003;4.0329487305e+003;4.0319230957e+003;
3.4140625000e+000;3.9989743652e+003;4.0079487305e+003;4.0097436523e+003;4.0180769043e+003;4.0053845215e+003;4.0094870605e+003;4.0088461914e+003;4.0061538086e+003;4.0151281738e+003;4.0284614258e+003;4.0176923828e+003;4.0262819824e+003;4.0179487305e+003;4.0164101563e+003;
3.4218750000e+000;4.0496154785e+003;4.0597436523e+003;4.0603845215e+003;4.0701281738e+003;4.0501281738e+003;4.0402563477e+003;4.0444870605e+003;4.0544870605e+003;4.0673076172e+003;4.0841025391e+003;4.0656411133e+003;4.0805129395e+003;4.0666667480e+003;4.0666667480e+003;
3.4296875000e+000;4.0247436523e+003;4.0366667480e+003;4.0353845215e+003;4.0470512695e+003;4.0257692871e+003;4.0182050781e+003;4.0202563477e+003;4.0302563477e+003;4.0426923828e+003;4.0576923828e+003;4.0397436523e+003;4.0526923828e+003;4.0420512695e+003;4.0405129395e+003;
