Time (s),AF3,F7,F3,FC5,T7,P7,O1,O2,P8,T8,FC6,F4,F8,AF4,Sampling Rate
0.0000000000e+000,5.2065385742e+003,5.3226923828e+003,5.3661538086e+003,5.2985898438e+003,5.3098715820e+003,5.3328203125e+003,5.3306411133e+003,5.3710258789e+003,5.3267949219e+003,5.2467949219e+003,5.3521796875e+003,5.2879487305e+003,5.3258974609e+003,5.3578203125e+003,128
7.8125000000e-003,5.4906411133e+003,5.6158974609e+003,5.6456411133e+003,5.5867949219e+003,5.6067949219e+003,5.6302563477e+003,5.6166665039e+003,5.6389741211e+003,5.5950000000e+003,5.5201284180e+003,5.6315385742e+003,5.5655126953e+003,5.6002563477e+003,5.6337177734e+003,
1.5625000000e-002,5.6766665039e+003,5.8378203125e+003,5.8387177734e+003,5.7797436523e+003,5.8105126953e+003,5.8371796875e+003,5.8107690430e+003,5.8419228516e+003,5.7853847656e+003,5.7425639648e+003,5.8398715820e+003,5.7626923828e+003,5.8042309570e+003,5.8271796875e+003,
2.3437500000e-002,5.6098715820e+003,5.7734614258e+003,5.7769228516e+003,5.7102563477e+003,5.7452563477e+003,5.7767949219e+003,5.7473076172e+003,5.7776923828e+003,5.7201284180e+003,5.6805126953e+003,5.7810258789e+003,5.7015385742e+003,5.7424360352e+003,5.7634614258e+003,
3.1250000000e-002,5.5217949219e+003,5.6746152344e+003,5.7021796875e+003,5.6228203125e+003,5.6685898438e+003,5.6911538086e+003,5.6660258789e+003,5.6721796875e+003,5.6103847656e+003,5.5642309570e+003,5.6894873047e+003,5.6156411133e+003,5.6448715820e+003,5.6767949219e+003,
3.9062500000e-002,5.5824360352e+003,5.7355126953e+003,5.7617949219e+003,5.6843588867e+003,5.7364101563e+003,5.7471796875e+003,5.7235898438e+003,5.7303847656e+003,5.6635898438e+003,5.6229487305e+003,5.7474360352e+003,5.6739741211e+003,5.7005126953e+003,5.7366665039e+003,
4.6875000000e-002,5.7112822266e+003,5.8743588867e+003,5.8875639648e+003,5.8089741211e+003,5.8787177734e+003,5.8693588867e+003,5.8519228516e+003,5.8737177734e+003,5.7965385742e+003,5.7689741211e+003,5.8834614258e+003,5.8060258789e+003,5.8420512695e+003,5.8682050781e+003,
5.4687500000e-002,5.8646152344e+003,6.0438461914e+003,6.0573076172e+003,5.9580771484e+003,6.0252563477e+003,6.0196152344e+003,6.0066665039e+003,6.0502563477e+003,5.9707690430e+003,5.9396152344e+003,6.0650000000e+003,5.9774360352e+003,6.0212822266e+003,6.0382050781e+003,
6.2500000000e-002,5.8608974609e+003,6.0414101563e+003,6.0629487305e+003,5.9526923828e+003,6.0185898438e+003,6.0147436523e+003,6.0008974609e+003,6.0587177734e+003,5.9785898438e+003,5.9453847656e+003,6.0707690430e+003,5.9835898438e+003,6.0215385742e+003,6.0423076172e+003,
7.0312500000e-002,5.8091025391e+003,5.9873076172e+003,6.0185898438e+003,5.9016665039e+003,5.9635898438e+003,5.9638461914e+003,5.9487177734e+003,6.0187177734e+003,5.9396152344e+003,5.9015385742e+003,6.0235898438e+003,5.9402563477e+003,5.9726923828e+003,5.9957690430e+003,
7.8125000000e-002,5.6844873047e+003,5.8584614258e+003,5.8947436523e+003,5.7889741211e+003,5.8330771484e+003,5.8448715820e+003,5.8294873047e+003,5.9098715820e+003,5.8369228516e+003,5.7837177734e+003,5.8989741211e+003,5.8225639648e+003,5.8535898438e+003,5.8702563477e+003,
8.5937500000e-002,5.6476923828e+003,5.8311538086e+003,5.8548715820e+003,5.7641025391e+003,5.8043588867e+003,5.8065385742e+003,5.7966665039e+003,5.8755126953e+003,5.8080771484e+003,5.7434614258e+003,5.8644873047e+003,5.7865385742e+003,5.8215385742e+003,5.8333334961e+003,
9.3750000000e-002,5.6400000000e+003,5.8235898438e+003,5.8491025391e+003,5.7515385742e+003,5.8000000000e+003,5.7974360352e+003,5.7857690430e+003,5.8638461914e+003,5.7971796875e+003,5.7317949219e+003,5.8524360352e+003,5.7748715820e+003,5.8142309570e+003,5.8278203125e+003,
1.0156250000e-001,5.6205126953e+003,5.8007690430e+003,5.8306411133e+003,5.7255126953e+003,5.7797436523e+003,5.7797436523e+003,5.7632050781e+003,5.8400000000e+003,5.7748715820e+003,5.7094873047e+003,5.8260258789e+003,5.7498715820e+003,5.7948715820e+003,5.8089741211e+003,
1.0937500000e-001,5.5832050781e+003,5.7579487305e+003,5.7930771484e+003,5.6834614258e+003,5.7378203125e+003,5.7478203125e+003,5.7258974609e+003,5.7993588867e+003,5.7365385742e+003,5.6708974609e+003,5.7816665039e+003,5.7083334961e+003,5.7566665039e+003,5.7703847656e+003,
1.1718750000e-001,5.3974360352e+003,5.5667949219e+003,5.5978203125e+003,5.4976923828e+003,5.5596152344e+003,5.5932050781e+003,5.5680771484e+003,5.6012822266e+003,5.5487177734e+003,5.4693588867e+003,5.5851284180e+003,5.5198715820e+003,5.5666665039e+003,5.5729487305e+003,
1.2500000000e-001,5.4166665039e+003,5.5858974609e+003,5.6142309570e+003,5.5148715820e+003,5.5867949219e+003,5.6135898438e+003,5.5873076172e+003,5.6147436523e+003,5.5619228516e+003,5.4819228516e+003,5.6015385742e+003,5.5343588867e+003,5.5848715820e+003,5.5874360352e+003,
1.3281250000e-001,5.5016665039e+003,5.6539741211e+003,5.6965385742e+003,5.6011538086e+003,5.6558974609e+003,5.6861538086e+003,5.6603847656e+003,5.6815385742e+003,5.6196152344e+003,5.5482050781e+003,5.6693588867e+003,5.6100000000e+003,5.6438461914e+003,5.6606411133e+003,
1.4062500000e-001,5.4738461914e+003,5.6244873047e+003,5.6606411133e+003,5.5787177734e+003,5.6185898438e+003,5.6525639648e+003,5.6283334961e+003,5.6429487305e+003,5.5742309570e+003,5.5116665039e+003,5.6435898438e+003,5.5791025391e+003,5.6232050781e+003,5.6405126953e+003,
1.4843750000e-001,5.4800000000e+003,5.6306411133e+003,5.6652563477e+003,5.5820512695e+003,5.6182050781e+003,5.6547436523e+003,5.6311538086e+003,5.6469228516e+003,5.5724360352e+003,5.5143588867e+003,5.6473076172e+003,5.5858974609e+003,5.6330771484e+003,5.6480771484e+003,
1.5625000000e-001,5.5385898438e+003,5.6787177734e+003,5.7179487305e+003,5.6347436523e+003,5.6429487305e+003,5.6823076172e+003,5.6693588867e+003,5.7032050781e+003,5.6173076172e+003,5.5678203125e+003,5.6962822266e+003,5.6406411133e+003,5.6776923828e+003,5.6962822266e+003,
1.6406250000e-001,5.5258974609e+003,5.6633334961e+003,5.7007690430e+003,5.6255126953e+003,5.6324360352e+003,5.6610258789e+003,5.6506411133e+003,5.6943588867e+003,5.6097436523e+003,5.5562822266e+003,5.6848715820e+003,5.6280771484e+003,5.6629487305e+003,5.6824360352e+003,
1.7187500000e-001,5.4707690430e+003,5.5992309570e+003,5.6402563477e+003,5.5678203125e+003,5.5852563477e+003,5.5885898438e+003,5.5817949219e+003,5.6465385742e+003,5.5710258789e+003,5.4988461914e+003,5.6279487305e+003,5.5737177734e+003,5.6065385742e+003,5.6279487305e+003,
1.7968750000e-001,5.5215385742e+003,5.6475639648e+003,5.6894873047e+003,5.6187177734e+003,5.6017949219e+003,5.6305126953e+003,5.6258974609e+003,5.6952563477e+003,5.6326923828e+003,5.5553847656e+003,5.6824360352e+003,5.6128203125e+003,5.6567949219e+003,5.6778203125e+003,
1.8750000000e-001,5.5300000000e+003,5.6569228516e+003,5.6946152344e+003,5.6305126953e+003,5.6142309570e+003,5.6388461914e+003,5.6320512695e+003,5.7005126953e+003,5.6411538086e+003,5.5637177734e+003,5.6921796875e+003,5.6212822266e+003,5.6685898438e+003,5.6888461914e+003,
1.9531250000e-001,5.5376923828e+003,5.6665385742e+003,5.6992309570e+003,5.6402563477e+003,5.6355126953e+003,5.6467949219e+003,5.6361538086e+003,5.7048715820e+003,5.6470512695e+003,5.5697436523e+003,5.6994873047e+003,5.6297436523e+003,5.6793588867e+003,5.6979487305e+003,
2.0312500000e-001,5.5578203125e+003,5.6928203125e+003,5.7192309570e+003,5.6651284180e+003,5.6787177734e+003,5.6710258789e+003,5.6535898438e+003,5.7237177734e+003,5.6653847656e+003,5.5893588867e+003,5.7162822266e+003,5.6485898438e+003,5.6979487305e+003,5.7161538086e+003,
2.1093750000e-001,5.5144873047e+003,5.6496152344e+003,5.6760258789e+003,5.6274360352e+003,5.6098715820e+003,5.6526923828e+003,5.6300000000e+003,5.6889741211e+003,5.6288461914e+003,5.5542309570e+003,5.6721796875e+003,5.5966665039e+003,5.6467949219e+003,5.6717949219e+003,
2.1875000000e-001,5.4576923828e+003,5.5914101563e+003,5.6170512695e+003,5.5715385742e+003,5.5528203125e+003,5.6069228516e+003,5.5819228516e+003,5.6358974609e+003,5.5762822266e+003,5.4992309570e+003,5.6156411133e+003,5.5414101563e+003,5.5925639648e+003,5.6152563477e+003,
2.2656250000e-001,5.3847436523e+003,5.5174360352e+003,5.5428203125e+003,5.5019228516e+003,5.4900000000e+003,5.5423076172e+003,5.5165385742e+003,5.5653847656e+003,5.5071796875e+003,5.4248715820e+003,5.5401284180e+003,5.4717949219e+003,5.5219228516e+003,5.5412822266e+003,
2.3437500000e-001,5.3137177734e+003,5.4442309570e+003,5.4720512695e+003,5.4360258789e+003,5.4332050781e+003,5.4744873047e+003,5.4502563477e+003,5.4933334961e+003,5.4370512695e+003,5.3482050781e+003,5.4637177734e+003,5.4016665039e+003,5.4493588867e+003,5.4673076172e+003,
2.4218750000e-001,5.2001284180e+003,5.3047436523e+003,5.3525639648e+003,5.3167949219e+003,5.3055126953e+003,5.3443588867e+003,5.3321796875e+003,5.3624360352e+003,5.3050000000e+003,5.2103847656e+003,5.3366665039e+003,5.2623076172e+003,5.3160258789e+003,5.3397436523e+003,
2.5000000000e-001,5.1200000000e+003,5.2182050781e+003,5.2694873047e+003,5.2360258789e+003,5.2142309570e+003,5.2651284180e+003,5.2542309570e+003,5.2846152344e+003,5.2252563477e+003,5.1292309570e+003,5.2528203125e+003,5.1833334961e+003,5.2374360352e+003,5.2602563477e+003,
2.5781250000e-001,4.8037177734e+003,4.8642309570e+003,4.9438461914e+003,4.9264101563e+003,4.8587177734e+003,4.9378203125e+003,4.9317949219e+003,4.9567949219e+003,4.8971796875e+003,4.7776923828e+003,4.9053847656e+003,4.8652563477e+003,4.8939741211e+003,4.9393588867e+003,
2.6562500000e-001,4.7528203125e+003,4.7914101563e+003,4.8776923828e+003,4.8637177734e+003,4.7866665039e+003,4.8517949219e+003,4.8570512695e+003,4.8847436523e+003,4.8257690430e+003,4.6974360352e+003,4.8430771484e+003,4.7950000000e+003,4.8267949219e+003,4.8842309570e+003,
2.7343750000e-001,4.7516665039e+003,4.7869228516e+003,4.8700000000e+003,4.8567949219e+003,4.7826923828e+003,4.8389741211e+003,4.8471796875e+003,4.8815385742e+003,4.8221796875e+003,4.6976923828e+003,4.8384614258e+003,4.7891025391e+003,4.8316665039e+003,4.8810258789e+003,
2.8125000000e-001,4.4710258789e+003,4.4675639648e+003,4.5728203125e+003,4.5611538086e+003,4.4474360352e+003,4.5284614258e+003,4.5361538086e+003,4.5982050781e+003,4.5497436523e+003,4.4106411133e+003,4.5330771484e+003,4.5061538086e+003,4.5323076172e+003,4.5879487305e+003,
2.8906250000e-001,4.2692309570e+003,4.2476923828e+003,4.3675639648e+003,4.3593588867e+003,4.2262822266e+003,4.3205126953e+003,4.3287177734e+003,4.3920512695e+003,4.3520512695e+003,4.1929487305e+003,4.3185898438e+003,4.3016665039e+003,4.3103847656e+003,4.3802563477e+003,
2.9687500000e-001,3.8347436523e+003,3.7756411133e+003,3.9119230957e+003,3.9324357910e+003,3.7838461914e+003,3.8700000000e+003,3.8851281738e+003,3.9271794434e+003,3.9106411133e+003,3.7071794434e+003,3.8385898438e+003,3.8275642090e+003,3.8441025391e+003,3.9269230957e+003,
3.0468750000e-001,3.7873076172e+003,3.7144870605e+003,3.8542307129e+003,3.8792307129e+003,3.7284614258e+003,3.8143588867e+003,3.8321794434e+003,3.8687180176e+003,3.8538461914e+003,3.6484614258e+003,3.7785898438e+003,3.7657692871e+003,3.7914101563e+003,3.8737180176e+003,
3.1250000000e-001,3.6679487305e+003,3.5610256348e+003,3.7157692871e+003,3.7369230957e+003,3.5714101563e+003,3.6794870605e+003,3.7028205566e+003,3.7319230957e+003,3.7148718262e+003,3.5026923828e+003,3.6341025391e+003,3.6257692871e+003,3.6462819824e+003,3.7378205566e+003,
3.2031250000e-001,3.5694870605e+003,3.4478205566e+003,3.6084614258e+003,3.6308974609e+003,3.4566667480e+003,3.5783332520e+003,3.6028205566e+003,3.6258974609e+003,3.6102563477e+003,3.3891025391e+003,3.5202563477e+003,3.5171794434e+003,3.5319230957e+003,3.6288461914e+003,
3.2812500000e-001,3.4629487305e+003,3.3289743652e+003,3.4925642090e+003,3.5226923828e+003,3.3396154785e+003,3.4715385742e+003,3.4961538086e+003,3.5102563477e+003,3.4988461914e+003,3.2678205566e+003,3.3966667480e+003,3.3989743652e+003,3.4123076172e+003,3.5121794434e+003,
3.3593750000e-001,3.2319230957e+003,3.0267949219e+003,3.1947436523e+003,3.2578205566e+003,3.0480769043e+003,3.1992307129e+003,3.2271794434e+003,3.2016667480e+003,3.2078205566e+003,2.9591025391e+003,3.0758974609e+003,3.0982050781e+003,3.1208974609e+003,3.2258974609e+003,
3.4375000000e-001,3.2112819824e+003,2.9928205566e+003,3.1651281738e+003,3.2232050781e+003,3.0151281738e+003,3.1692307129e+003,3.1985898438e+003,3.1694870605e+003,3.1738461914e+003,2.9262819824e+003,3.0421794434e+003,3.0644870605e+003,3.0838461914e+003,3.1929487305e+003,
3.5156250000e-001,3.1424357910e+003,2.8860256348e+003,3.0700000000e+003,3.1394870605e+003,2.9021794434e+003,3.0794870605e+003,3.1065385742e+003,3.0675642090e+003,3.0715385742e+003,2.8244870605e+003,2.9455129395e+003,2.9644870605e+003,2.9767949219e+003,3.0919230957e+003,
3.5937500000e-001,3.1237180176e+003,2.8556411133e+003,3.0385898438e+003,3.1165385742e+003,2.8733332520e+003,3.0507692871e+003,3.0785898438e+003,3.0389743652e+003,3.0417949219e+003,2.7943588867e+003,2.9132050781e+003,2.9371794434e+003,2.9475642090e+003,3.0611538086e+003,
3.6718750000e-001,3.0639743652e+003,2.7755129395e+003,2.9578205566e+003,3.0397436523e+003,2.8124357910e+003,2.9642307129e+003,2.9994870605e+003,2.9652563477e+003,2.9619230957e+003,2.7102563477e+003,2.8248718262e+003,2.8626923828e+003,2.8667949219e+003,2.9808974609e+003,
3.7500000000e-001,3.0801281738e+003,2.7561538086e+003,2.9367949219e+003,3.0306411133e+003,2.7961538086e+003,2.9241025391e+003,2.9682050781e+003,2.9557692871e+003,2.9591025391e+003,2.7001281738e+003,2.8143588867e+003,2.8408974609e+003,2.8648718262e+003,2.9707692871e+003,
3.8281250000e-001,3.1446154785e+003,2.8066667480e+003,2.9935898438e+003,3.0898718262e+003,2.8403845215e+003,2.9733332520e+003,3.0180769043e+003,3.0128205566e+003,3.0170512695e+003,2.7597436523e+003,2.8678205566e+003,2.8973076172e+003,2.9210256348e+003,3.0256411133e+003,
3.9062500000e-001,3.2752563477e+003,2.9242307129e+003,3.1070512695e+003,3.2066667480e+003,2.9467949219e+003,3.0729487305e+003,3.1184614258e+003,3.1284614258e+003,3.1314101563e+003,2.8793588867e+003,2.9876923828e+003,3.0169230957e+003,3.0282050781e+003,3.1366667480e+003,
3.9843750000e-001,3.3189743652e+003,2.9712819824e+003,3.1415385742e+003,3.2453845215e+003,2.9848718262e+003,3.1056411133e+003,3.1503845215e+003,3.1657692871e+003,3.1688461914e+003,2.9201281738e+003,3.0342307129e+003,3.0587180176e+003,3.0639743652e+003,3.1734614258e+003,
4.0625000000e-001,3.3993588867e+003,3.0534614258e+003,3.2078205566e+003,3.3191025391e+003,3.0615385742e+003,3.1751281738e+003,3.2164101563e+003,3.2303845215e+003,3.2326923828e+003,3.0039743652e+003,3.1038461914e+003,3.1326923828e+003,3.1441025391e+003,3.2433332520e+003,
4.1406250000e-001,3.4117949219e+003,3.0603845215e+003,3.2157692871e+003,3.3265385742e+003,3.0742307129e+003,3.1848718262e+003,3.2260256348e+003,3.2382050781e+003,3.2391025391e+003,3.0176923828e+003,3.1067949219e+003,3.1389743652e+003,3.1556411133e+003,3.2510256348e+003,
4.2187500000e-001,3.3997436523e+003,3.0432050781e+003,3.1985898438e+003,3.3087180176e+003,3.0565385742e+003,3.1714101563e+003,3.2123076172e+003,3.2224357910e+003,3.2224357910e+003,3.0044870605e+003,3.0892307129e+003,3.1215385742e+003,3.1396154785e+003,3.2337180176e+003,
4.2968750000e-001,3.3137180176e+003,2.9480769043e+003,3.1093588867e+003,3.2161538086e+003,2.9446154785e+003,3.0912819824e+003,3.1294870605e+003,3.1285898438e+003,3.1314101563e+003,2.9075642090e+003,3.0026923828e+003,3.0307692871e+003,3.0424357910e+003,3.1394870605e+003,
4.3750000000e-001,3.2147436523e+003,2.8378205566e+003,3.0080769043e+003,3.1114101563e+003,2.8723076172e+003,3.0047436523e+003,3.0362819824e+003,3.0225642090e+003,3.0335898438e+003,2.8037180176e+003,2.8962819824e+003,2.9235898438e+003,2.9407692871e+003,3.0316667480e+003,
4.4531250000e-001,3.1626923828e+003,2.7835898438e+003,2.9489743652e+003,3.0561538086e+003,2.8383332520e+003,2.9544870605e+003,2.9850000000e+003,2.9701281738e+003,2.9833332520e+003,2.7524357910e+003,2.8378205566e+003,2.8683332520e+003,2.8862819824e+003,2.9774357910e+003,
4.5312500000e-001,3.0835898438e+003,2.7012819824e+003,2.8620512695e+003,2.9744870605e+003,2.7643588867e+003,2.8764101563e+003,2.9074357910e+003,2.8880769043e+003,2.9032050781e+003,2.6692307129e+003,2.7511538086e+003,2.7862819824e+003,2.8005129395e+003,2.8957692871e+003,
4.6093750000e-001,2.9979487305e+003,2.6097436523e+003,2.7701281738e+003,2.8866667480e+003,2.6688461914e+003,2.7905129395e+003,2.8229487305e+003,2.7953845215e+003,2.8120512695e+003,2.5739743652e+003,2.6576923828e+003,2.6966667480e+003,2.7055129395e+003,2.8060256348e+003,
4.6875000000e-001,3.0067949219e+003,2.5832050781e+003,2.7587180176e+003,2.8867949219e+003,2.6328205566e+003,2.7782050781e+003,2.8139743652e+003,2.7723076172e+003,2.7812819824e+003,2.5510256348e+003,2.6394870605e+003,2.6801281738e+003,2.6934614258e+003,2.7871794434e+003,
4.7656250000e-001,3.0347436523e+003,2.6091025391e+003,2.7806411133e+003,2.9114101563e+003,2.6608974609e+003,2.7978205566e+003,2.8358974609e+003,2.7962819824e+003,2.8028205566e+003,2.5761538086e+003,2.6635898438e+003,2.7050000000e+003,2.7160256348e+003,2.8108974609e+003,
4.8437500000e-001,2.9721794434e+003,2.5358974609e+003,2.7032050781e+003,2.8384614258e+003,2.5707692871e+003,2.7069230957e+003,2.7525642090e+003,2.7170512695e+003,2.7261538086e+003,2.5044870605e+003,2.5938461914e+003,2.6342307129e+003,2.6366667480e+003,2.7341025391e+003,
4.9218750000e-001,3.0582050781e+003,2.5960256348e+003,2.7721794434e+003,2.8965385742e+003,2.6120512695e+003,2.7489743652e+003,2.8030769043e+003,2.7892307129e+003,2.8007692871e+003,2.5724357910e+003,2.6537180176e+003,2.7034614258e+003,2.7129487305e+003,2.8005129395e+003,
5.0000000000e-001,3.1557692871e+003,2.6915385742e+003,2.8641025391e+003,2.9801281738e+003,2.7044870605e+003,2.8348718262e+003,2.8929487305e+003,2.8892307129e+003,2.9007692871e+003,2.6735898438e+003,2.7508974609e+003,2.8010256348e+003,2.8074357910e+003,2.8965385742e+003,
5.0781250000e-001,3.3539743652e+003,2.9029487305e+003,3.0603845215e+003,3.1655129395e+003,2.9352563477e+003,3.0216667480e+003,3.0796154785e+003,3.0898718262e+003,3.1008974609e+003,2.8958974609e+003,2.9723076172e+003,3.0137180176e+003,3.0014101563e+003,3.0961538086e+003,
5.1562500000e-001,3.4475642090e+003,3.0016667480e+003,3.1516667480e+003,3.2725642090e+003,3.0357692871e+003,3.1088461914e+003,3.1510256348e+003,3.1655129395e+003,3.1783332520e+003,2.9889743652e+003,3.0647436523e+003,3.0882050781e+003,3.0988461914e+003,3.1775642090e+003,
5.2343750000e-001,3.4026923828e+003,2.9625642090e+003,3.1083332520e+003,3.2338461914e+003,2.9887180176e+003,3.0725642090e+003,3.1103845215e+003,3.1253845215e+003,3.1387180176e+003,2.9521794434e+003,3.0220512695e+003,3.0434614258e+003,3.0576923828e+003,3.1346154785e+003,
5.3125000000e-001,3.3148718262e+003,2.8835898438e+003,3.0226923828e+003,3.1515385742e+003,2.9034614258e+003,2.9993588867e+003,3.0348718262e+003,3.0446154785e+003,3.0591025391e+003,2.8732050781e+003,2.9376923828e+003,2.9601281738e+003,2.9728205566e+003,3.0508974609e+003,
5.3906250000e-001,3.1628205566e+003,2.7412819824e+003,2.8697436523e+003,2.9979487305e+003,2.7661538086e+003,2.8710256348e+003,2.9069230957e+003,2.8970512695e+003,2.9152563477e+003,2.7237180176e+003,2.7835898438e+003,2.8107692871e+003,2.8206411133e+003,2.8993588867e+003,
5.4687500000e-001,3.1348718262e+003,2.7071794434e+003,2.8400000000e+003,2.9620512695e+003,2.7394870605e+003,2.8438461914e+003,2.8814101563e+003,2.8635898438e+003,2.8833332520e+003,2.6885898438e+003,2.7478205566e+003,2.7791025391e+003,2.7884614258e+003,2.8665385742e+003,
5.5468750000e-001,3.0064101563e+003,2.5503845215e+003,2.7130769043e+003,2.8312819824e+003,2.5766667480e+003,2.7048718262e+003,2.7464101563e+003,2.7121794434e+003,2.7360256348e+003,2.5398718262e+003,2.5935898438e+003,2.6450000000e+003,2.6428205566e+003,2.7308974609e+003,
5.6250000000e-001,2.9148718262e+003,2.4579487305e+003,2.6193588867e+003,2.7506411133e+003,2.4787180176e+003,2.6165385742e+003,2.6564101563e+003,2.6187180176e+003,2.6435898438e+003,2.4446154785e+003,2.5010256348e+003,2.5520512695e+003,2.5476923828e+003,2.6402563477e+003,
5.7031250000e-001,2.7729487305e+003,2.3115385742e+003,2.4658974609e+003,2.6130769043e+003,2.3410256348e+003,2.4794870605e+003,2.5191025391e+003,2.4733332520e+003,2.4951281738e+003,2.2867949219e+003,2.3593588867e+003,2.3993588867e+003,2.3979487305e+003,2.4944870605e+003,
5.7812500000e-001,2.7771794434e+003,2.3071794434e+003,2.4647436523e+003,2.6061538086e+003,2.3474357910e+003,2.4789743652e+003,2.5223076172e+003,2.4707692871e+003,2.4893588867e+003,2.2803845215e+003,2.3580769043e+003,2.3964101563e+003,2.3976923828e+003,2.4938461914e+003,
5.8593750000e-001,2.8161538086e+003,2.3374357910e+003,2.5008974609e+003,2.6330769043e+003,2.3848718262e+003,2.5096154785e+003,2.5574357910e+003,2.5029487305e+003,2.5184614258e+003,2.3132050781e+003,2.3889743652e+003,2.4312819824e+003,2.4342307129e+003,2.5289743652e+003,
5.9375000000e-001,2.9892307129e+003,2.4983332520e+003,2.6514101563e+003,2.7788461914e+003,2.5307692871e+003,2.6380769043e+003,2.7012819824e+003,2.6461538086e+003,2.6567949219e+003,2.4665385742e+003,2.5306411133e+003,2.5916667480e+003,2.5916667480e+003,2.6792307129e+003,
6.0156250000e-001,3.9489743652e+003,3.5044870605e+003,3.6066667480e+003,3.7334614258e+003,3.5252563477e+003,3.5476923828e+003,3.6005129395e+003,3.6180769043e+003,3.6224357910e+003,3.5073076172e+003,3.5596154785e+003,3.5675642090e+003,3.5883332520e+003,3.6414101563e+003,
6.0937500000e-001,3.8532050781e+003,3.4223076172e+003,3.5198718262e+003,3.6503845215e+003,3.4311538086e+003,3.4596154785e+003,3.5098718262e+003,3.5433332520e+003,3.5455129395e+003,3.4312819824e+003,3.4782050781e+003,3.4880769043e+003,3.5048718262e+003,3.5583332520e+003,
6.1718750000e-001,3.6464101563e+003,3.2273076172e+003,3.3283332520e+003,3.4607692871e+003,3.2184614258e+003,3.2710256348e+003,3.3242307129e+003,3.3525642090e+003,3.3557692871e+003,3.2337180176e+003,3.2762819824e+003,3.2944870605e+003,3.3061538086e+003,3.3635898438e+003,
6.2500000000e-001,3.6593588867e+003,3.2441025391e+003,3.3484614258e+003,3.4764101563e+003,3.2355129395e+003,3.2929487305e+003,3.3478205566e+003,3.3664101563e+003,3.3696154785e+003,3.2484614258e+003,3.2894870605e+003,3.3097436523e+003,3.3207692871e+003,3.3783332520e+003,
6.3281250000e-001,3.8515385742e+003,3.4564101563e+003,3.5532050781e+003,3.6560256348e+003,3.4758974609e+003,3.5242307129e+003,3.5697436523e+003,3.5788461914e+003,3.5725642090e+003,3.4612819824e+003,3.5001281738e+003,3.5125642090e+003,3.5294870605e+003,3.5767949219e+003,
6.4062500000e-001,4.0378205566e+003,3.6739743652e+003,3.7446154785e+003,3.8544870605e+003,3.6965385742e+003,3.7460256348e+003,3.7807692871e+003,3.7741025391e+003,3.7667949219e+003,3.6711538086e+003,3.7066667480e+003,3.7067949219e+003,3.7308974609e+003,3.7683332520e+003,
6.4843750000e-001,4.1128203125e+003,3.7607692871e+003,3.8267949219e+003,3.9379487305e+003,3.7817949219e+003,3.8261538086e+003,3.8592307129e+003,3.8503845215e+003,3.8435898438e+003,3.7579487305e+003,3.7902563477e+003,3.7865385742e+003,3.8143588867e+003,3.8466667480e+003,
6.5625000000e-001,4.2037177734e+003,3.8803845215e+003,3.9383332520e+003,4.0282050781e+003,3.8948718262e+003,3.9361538086e+003,3.9621794434e+003,3.9455129395e+003,3.9360256348e+003,3.8700000000e+003,3.8961538086e+003,3.8916667480e+003,3.9273076172e+003,3.9501281738e+003,
6.6406250000e-001,4.2635898438e+003,3.9462819824e+003,4.0023076172e+003,4.0851281738e+003,3.9561538086e+003,4.0011538086e+003,4.0253845215e+003,4.0032050781e+003,3.9908974609e+003,3.9307692871e+003,3.9602563477e+003,3.9552563477e+003,3.9912819824e+003,4.0139743652e+003,
6.7187500000e-001,4.3605126953e+003,4.0501281738e+003,4.1030771484e+003,4.1810258789e+003,4.0583332520e+003,4.1002563477e+003,4.1223076172e+003,4.0984614258e+003,4.0830769043e+003,4.0323076172e+003,4.0658974609e+003,4.0562819824e+003,4.0941025391e+003,4.1151284180e+003,
6.7968750000e-001,4.5482050781e+003,4.2608974609e+003,4.3030771484e+003,4.3751284180e+003,4.2785898438e+003,4.2926923828e+003,4.3071796875e+003,4.2950000000e+003,4.2766665039e+003,4.2475639648e+003,4.2857690430e+003,4.2623076172e+003,4.3007690430e+003,4.3184614258e+003,
6.8750000000e-001,4.5456411133e+003,4.2964101563e+003,4.3256411133e+003,4.3976923828e+003,4.3043588867e+003,4.3130771484e+003,4.3247436523e+003,4.3244873047e+003,4.2989741211e+003,4.2819228516e+003,4.3170512695e+003,4.2911538086e+003,4.3217949219e+003,4.3460258789e+003,
6.9531250000e-001,4.5251284180e+003,4.2837177734e+003,4.3112822266e+003,4.3842309570e+003,4.2807690430e+003,4.2970512695e+003,4.3114101563e+003,4.3121796875e+003,4.2826923828e+003,4.2660258789e+003,4.2988461914e+003,4.2723076172e+003,4.3078203125e+003,4.3288461914e+003,
7.0312500000e-001,4.5094873047e+003,4.2743588867e+003,4.3019228516e+003,4.3733334961e+003,4.2648715820e+003,4.2835898438e+003,4.3002563477e+003,4.3050000000e+003,4.2725639648e+003,4.2546152344e+003,4.2860258789e+003,4.2591025391e+003,4.2994873047e+003,4.3153847656e+003,
7.1093750000e-001,4.4834614258e+003,4.2530771484e+003,4.2834614258e+003,4.3498715820e+003,4.2446152344e+003,4.2592309570e+003,4.2775639648e+003,4.2888461914e+003,4.2555126953e+003,4.2329487305e+003,4.2644873047e+003,4.2405126953e+003,4.2805126953e+003,4.2937177734e+003,
7.1875000000e-001,4.4051284180e+003,4.1861538086e+003,4.2216665039e+003,4.2785898438e+003,4.1896152344e+003,4.1815385742e+003,4.2129487305e+003,4.2393588867e+003,4.2132050781e+003,4.1734614258e+003,4.2117949219e+003,4.1932050781e+003,4.2166665039e+003,4.2376923828e+003,
7.2656250000e-001,4.5796152344e+003,4.3889741211e+003,4.4087177734e+003,4.4632050781e+003,4.3765385742e+003,4.3584614258e+003,4.3843588867e+003,4.4266665039e+003,4.3989741211e+003,4.3660258789e+003,4.3975639648e+003,4.3761538086e+003,4.4016665039e+003,4.4200000000e+003,
7.3437500000e-001,4.5543588867e+003,4.3656411133e+003,4.3871796875e+003,4.4351284180e+003,4.3560258789e+003,4.3430771484e+003,4.3626923828e+003,4.4062822266e+003,4.3811538086e+003,4.3482050781e+003,4.3782050781e+003,4.3578203125e+003,4.3810258789e+003,4.4010258789e+003,
7.4218750000e-001,4.3926923828e+003,4.2046152344e+003,4.2344873047e+003,4.2817949219e+003,4.1951284180e+003,4.2085898438e+003,4.2188461914e+003,4.2567949219e+003,4.2352563477e+003,4.2007690430e+003,4.2280771484e+003,4.2065385742e+003,4.2348715820e+003,4.2512822266e+003,
7.5000000000e-001,4.2780771484e+003,4.0911538086e+003,4.1262822266e+003,4.1794873047e+003,4.0797436523e+003,4.1060258789e+003,4.1148715820e+003,4.1460258789e+003,4.1251284180e+003,4.0855129395e+003,4.1100000000e+003,4.0948718262e+003,4.1214101563e+003,4.1405126953e+003,
7.5781250000e-001,4.0184614258e+003,3.8335898438e+003,3.8747436523e+003,3.9383332520e+003,3.8366667480e+003,3.8641025391e+003,3.8765385742e+003,3.8832050781e+003,3.8701281738e+003,3.8083332520e+003,3.8319230957e+003,3.8308974609e+003,3.8453845215e+003,3.8821794434e+003,
7.6562500000e-001,3.8792307129e+003,3.6929487305e+003,3.7306411133e+003,3.7829487305e+003,3.7043588867e+003,3.7407692871e+003,3.7521794434e+003,3.7371794434e+003,3.7335898438e+003,3.6625642090e+003,3.7091025391e+003,3.6858974609e+003,3.7185898438e+003,3.7455129395e+003,
7.7343750000e-001,3.8476923828e+003,3.6591025391e+003,3.6980769043e+003,3.7521794434e+003,3.6688461914e+003,3.7115385742e+003,3.7220512695e+003,3.7017949219e+003,3.6964101563e+003,3.6250000000e+003,3.6702563477e+003,3.6510256348e+003,3.6851281738e+003,3.7123076172e+003,
7.8125000000e-001,3.9192307129e+003,3.7126923828e+003,3.7651281738e+003,3.8185898438e+003,3.7320512695e+003,3.7661538086e+003,3.7838461914e+003,3.7551281738e+003,3.7442307129e+003,3.6762819824e+003,3.7078205566e+003,3.7143588867e+003,3.7302563477e+003,3.7743588867e+003,
7.8906250000e-001,3.9382050781e+003,3.7300000000e+003,3.7824357910e+003,3.8323076172e+003,3.7489743652e+003,3.7814101563e+003,3.7998718262e+003,3.7741025391e+003,3.7624357910e+003,3.6965385742e+003,3.7311538086e+003,3.7360256348e+003,3.7498718262e+003,3.7946154785e+003,
7.9687500000e-001,3.9223076172e+003,3.7156411133e+003,3.7656411133e+003,3.8138461914e+003,3.7302563477e+003,3.7660256348e+003,3.7843588867e+003,3.7621794434e+003,3.7483332520e+003,3.6835898438e+003,3.7242307129e+003,3.7238461914e+003,3.7402563477e+003,3.7814101563e+003,
8.0468750000e-001,3.9224357910e+003,3.7166667480e+003,3.7650000000e+003,3.8166667480e+003,3.7262819824e+003,3.7669230957e+003,3.7878205566e+003,3.7657692871e+003,3.7426923828e+003,3.6796154785e+003,3.7287180176e+003,3.7230769043e+003,3.7473076172e+003,3.7785898438e+003,
8.1250000000e-001,4.3733334961e+003,4.1778203125e+003,4.2073076172e+003,4.2623076172e+003,4.1871796875e+003,4.1906411133e+003,4.2134614258e+003,4.2082050781e+003,4.1785898438e+003,4.1397436523e+003,4.1775639648e+003,4.1676923828e+003,4.1924360352e+003,4.2176923828e+003,
8.2031250000e-001,4.5006411133e+003,4.3171796875e+003,4.3355126953e+003,4.3887177734e+003,4.3115385742e+003,4.3126923828e+003,4.3347436523e+003,4.3425639648e+003,4.3128203125e+003,4.2834614258e+003,4.3164101563e+003,4.3030771484e+003,4.3279487305e+003,4.3497436523e+003,
8.2812500000e-001,4.5715385742e+003,4.3996152344e+003,4.4115385742e+003,4.4623076172e+003,4.3774360352e+003,4.3829487305e+003,4.4064101563e+003,4.4230771484e+003,4.3911538086e+003,4.3685898438e+003,4.3983334961e+003,4.3847436523e+003,4.4103847656e+003,4.4271796875e+003,
8.3593750000e-001,4.6339741211e+003,4.4715385742e+003,4.4803847656e+003,4.5297436523e+003,4.4411538086e+003,4.4465385742e+003,4.4730771484e+003,4.4921796875e+003,4.4564101563e+003,4.4391025391e+003,4.4667949219e+003,4.4555126953e+003,4.4833334961e+003,4.4938461914e+003,
8.4375000000e-001,5.2556411133e+003,5.1494873047e+003,5.1198715820e+003,5.1562822266e+003,5.1429487305e+003,5.0794873047e+003,5.0888461914e+003,5.1323076172e+003,5.0894873047e+003,5.1141025391e+003,5.1437177734e+003,5.1014101563e+003,5.1446152344e+003,5.1252563477e+003,
8.5156250000e-001,5.2938461914e+003,5.2034614258e+003,5.1689741211e+003,5.1987177734e+003,5.1921796875e+003,5.1288461914e+003,5.1320512695e+003,5.1869228516e+003,5.1442309570e+003,5.1778203125e+003,5.2079487305e+003,5.1550000000e+003,5.1997436523e+003,5.1761538086e+003,
8.5937500000e-001,5.0565385742e+003,4.9894873047e+003,4.9615385742e+003,4.9866665039e+003,4.9761538086e+003,4.9385898438e+003,4.9366665039e+003,4.9884614258e+003,4.9484614258e+003,4.9770512695e+003,4.9917949219e+003,4.9498715820e+003,5.0008974609e+003,4.9665385742e+003,
8.6718750000e-001,4.9410258789e+003,4.8876923828e+003,4.8656411133e+003,4.8798715820e+003,4.8803847656e+003,4.8570512695e+003,4.8573076172e+003,4.8861538086e+003,4.8544873047e+003,4.8628203125e+003,4.8806411133e+003,4.8546152344e+003,4.8842309570e+003,4.8579487305e+003,
8.7500000000e-001,4.9307690430e+003,4.8807690430e+003,4.8605126953e+003,4.8714101563e+003,4.8753847656e+003,4.8538461914e+003,4.8547436523e+003,4.8828203125e+003,4.8535898438e+003,4.8596152344e+003,4.8814101563e+003,4.8516665039e+003,4.8775639648e+003,4.8520512695e+003,
8.8281250000e-001,4.7711538086e+003,4.7282050781e+003,4.7141025391e+003,4.7441025391e+003,4.7208974609e+003,4.7207690430e+003,4.7152563477e+003,4.7476923828e+003,4.7157690430e+003,4.7270512695e+003,4.7387177734e+003,4.7065385742e+003,4.7493588867e+003,4.7146152344e+003,
8.9062500000e-001,4.6724360352e+003,4.6321796875e+003,4.6198715820e+003,4.6553847656e+003,4.6158974609e+003,4.6302563477e+003,4.6235898438e+003,4.6514101563e+003,4.6185898438e+003,4.6276923828e+003,4.6389741211e+003,4.6065385742e+003,4.6566665039e+003,4.6220512695e+003,
8.9843750000e-001,4.5291025391e+003,4.4934614258e+003,4.4815385742e+003,4.5093588867e+003,4.4719228516e+003,4.4916665039e+003,4.4910258789e+003,4.5070512695e+003,4.4758974609e+003,4.4728203125e+003,4.4987177734e+003,4.4589741211e+003,4.5126923828e+003,4.4839741211e+003,
9.0625000000e-001,4.4989741211e+003,4.4625639648e+003,4.4519228516e+003,4.4702563477e+003,4.4506411133e+003,4.4585898438e+003,4.4625639648e+003,4.4764101563e+003,4.4461538086e+003,4.4360258789e+003,4.4692309570e+003,4.4311538086e+003,4.4785898438e+003,4.4547436523e+003,
9.1406250000e-001,4.4729487305e+003,4.4132050781e+003,4.4235898438e+003,4.4257690430e+003,4.4242309570e+003,4.4188461914e+003,4.4267949219e+003,4.4419228516e+003,4.4075639648e+003,4.3898715820e+003,4.4188461914e+003,4.4084614258e+003,4.4397436523e+003,4.4232050781e+003,
9.2187500000e-001,4.4706411133e+003,4.4056411133e+003,4.4207690430e+003,4.4230771484e+003,4.4147436523e+003,4.4132050781e+003,4.4215385742e+003,4.4382050781e+003,4.4006411133e+003,4.3851284180e+003,4.4133334961e+003,4.4026923828e+003,4.4371796875e+003,4.4200000000e+003,
9.2968750000e-001,4.4616665039e+003,4.4069228516e+003,4.4161538086e+003,4.4215385742e+003,4.4025639648e+003,4.3919228516e+003,4.4078203125e+003,4.4360258789e+003,4.3994873047e+003,4.3846152344e+003,4.4215385742e+003,4.3958974609e+003,4.4343588867e+003,4.4233334961e+003,
9.3750000000e-001,4.4444873047e+003,4.3914101563e+003,4.4012822266e+003,4.4103847656e+003,4.3843588867e+003,4.3707690430e+003,4.3876923828e+003,4.4223076172e+003,4.3897436523e+003,4.3712822266e+003,4.4055126953e+003,4.3812822266e+003,4.4202563477e+003,4.4097436523e+003,
9.4531250000e-001,4.3711538086e+003,4.3110258789e+003,4.3312822266e+003,4.3462822266e+003,4.3057690430e+003,4.2961538086e+003,4.3107690430e+003,4.3552563477e+003,4.3287177734e+003,4.3007690430e+003,4.3256411133e+003,4.3132050781e+003,4.3471796875e+003,4.3371796875e+003,
9.5312500000e-001,4.3330771484e+003,4.2685898438e+003,4.2926923828e+003,4.3069228516e+003,4.2637177734e+003,4.2591025391e+003,4.2728203125e+003,4.3173076172e+003,4.2917949219e+003,4.2603847656e+003,4.2851284180e+003,4.2774360352e+003,4.3044873047e+003,4.2974360352e+003,
9.6093750000e-001,4.3141025391e+003,4.2483334961e+003,4.2717949219e+003,4.2834614258e+003,4.2393588867e+003,4.2405126953e+003,4.2543588867e+003,4.2960258789e+003,4.2711538086e+003,4.2379487305e+003,4.2662822266e+003,4.2594873047e+003,4.2801284180e+003,4.2769228516e+003,
9.6875000000e-001,4.2323076172e+003,4.1591025391e+003,4.1930771484e+003,4.1962822266e+003,4.1639741211e+003,4.1708974609e+003,4.1785898438e+003,4.2073076172e+003,4.1925639648e+003,4.1529487305e+003,4.1832050781e+003,4.1612822266e+003,4.1974360352e+003,4.1921796875e+003,
9.7656250000e-001,4.1588461914e+003,4.0764101563e+003,4.1200000000e+003,4.1205126953e+003,4.0937180176e+003,4.1023076172e+003,4.1101284180e+003,4.1315385742e+003,4.1184614258e+003,4.0725642090e+003,4.1035898438e+003,4.0864101563e+003,4.1194873047e+003,4.1173076172e+003,
9.8437500000e-001,4.2121796875e+003,4.1325639648e+003,4.1602563477e+003,4.1556411133e+003,4.1216665039e+003,4.1625639648e+003,4.1764101563e+003,4.1734614258e+003,4.1646152344e+003,4.1076923828e+003,4.1428203125e+003,4.1416665039e+003,4.1612822266e+003,4.1651284180e+003,
9.9218750000e-001,4.2907690430e+003,4.2176923828e+003,4.2355126953e+003,4.2288461914e+003,4.2023076172e+003,4.2392309570e+003,4.2521796875e+003,4.2502563477e+003,4.2389741211e+003,4.1894873047e+003,4.2192309570e+003,4.2185898438e+003,4.2397436523e+003,4.2415385742e+003,
1.0000000000e+000,4.3101284180e+003,4.2405126953e+003,4.2558974609e+003,4.2475639648e+003,4.2492309570e+003,4.2526923828e+003,4.2621796875e+003,4.2734614258e+003,4.2564101563e+003,4.2215385742e+003,4.2400000000e+003,4.2348715820e+003,4.2584614258e+003,4.2598715820e+003,
1.0078125000e+000,4.0430769043e+003,3.9491025391e+003,3.9902563477e+003,3.9774357910e+003,3.9488461914e+003,3.9889743652e+003,4.0037180176e+003,3.9939743652e+003,3.9798718262e+003,3.9319230957e+003,3.9705129395e+003,3.9664101563e+003,3.9871794434e+003,4.0032050781e+003,
1.0156250000e+000,4.0702563477e+003,3.9753845215e+003,4.0121794434e+003,4.0025642090e+003,3.9700000000e+003,4.0112819824e+003,4.0273076172e+003,4.0161538086e+003,3.9984614258e+003,3.9524357910e+003,3.9933332520e+003,3.9869230957e+003,4.0116667480e+003,4.0257692871e+003,
1.0234375000e+000,4.1061538086e+003,4.0101281738e+003,4.0432050781e+003,4.0455129395e+003,4.0151281738e+003,4.0320512695e+003,4.0508974609e+003,4.0561538086e+003,4.0307692871e+003,3.9852563477e+003,4.0258974609e+003,4.0179487305e+003,4.0369230957e+003,4.0539743652e+003,
1.0312500000e+000,4.0701281738e+003,3.9716667480e+003,4.0093588867e+003,4.0124357910e+003,3.9808974609e+003,3.9897436523e+003,4.0108974609e+003,4.0235898438e+003,3.9992307129e+003,3.9482050781e+003,3.9901281738e+003,3.9856411133e+003,3.9966667480e+003,4.0202563477e+003,
1.0390625000e+000,3.9462819824e+003,3.8343588867e+003,3.8824357910e+003,3.8629487305e+003,3.8246154785e+003,3.8441025391e+003,3.8676923828e+003,3.8833332520e+003,3.8717949219e+003,3.8125642090e+003,3.8500000000e+003,3.8671794434e+003,3.8702563477e+003,3.9016667480e+003,
1.0468750000e+000,3.9330769043e+003,3.8151281738e+003,3.8660256348e+003,3.8419230957e+003,3.7971794434e+003,3.8216667480e+003,3.8453845215e+003,3.8634614258e+003,3.8524357910e+003,3.7955129395e+003,3.8294870605e+003,3.8507692871e+003,3.8552563477e+003,3.8851281738e+003,
1.0546875000e+000,3.9050000000e+003,3.7782050781e+003,3.8398718262e+003,3.8161538086e+003,3.7557692871e+003,3.7875642090e+003,3.8139743652e+003,3.8385898438e+003,3.8279487305e+003,3.7671794434e+003,3.8060256348e+003,3.8117949219e+003,3.8221794434e+003,3.8491025391e+003,
1.0625000000e+000,3.8829487305e+003,3.7552563477e+003,3.8185898438e+003,3.7971794434e+003,3.7411538086e+003,3.7703845215e+003,3.7979487305e+003,3.8202563477e+003,3.8107692871e+003,3.7480769043e+003,3.7865385742e+003,3.7888461914e+003,3.8000000000e+003,3.8265385742e+003,
1.0703125000e+000,3.8535898438e+003,3.7207692871e+003,3.7819230957e+003,3.7665385742e+003,3.7247436523e+003,3.7482050781e+003,3.7782050781e+003,3.7898718262e+003,3.7811538086e+003,3.7147436523e+003,3.7456411133e+003,3.7560256348e+003,3.7647436523e+003,3.7915385742e+003,
1.0781250000e+000,3.8800000000e+003,3.7464101563e+003,3.8008974609e+003,3.7882050781e+003,3.7530769043e+003,3.7761538086e+003,3.8061538086e+003,3.8128205566e+003,3.8043588867e+003,3.7357692871e+003,3.7632050781e+003,3.7756411133e+003,3.7875642090e+003,3.8114101563e+003,
1.0859375000e+000,3.9270512695e+003,3.7956411133e+003,3.8412819824e+003,3.8300000000e+003,3.8014101563e+003,3.8260256348e+003,3.8537180176e+003,3.8578205566e+003,3.8503845215e+003,3.7803845215e+003,3.8042307129e+003,3.8146154785e+003,3.8341025391e+003,3.8520512695e+003,
1.0937500000e+000,4.0796154785e+003,3.9553845215e+003,3.9888461914e+003,3.9748718262e+003,3.9721794434e+003,3.9865385742e+003,4.0062819824e+003,3.9925642090e+003,3.9916667480e+003,3.9389743652e+003,3.9650000000e+003,3.9655129395e+003,3.9775642090e+003,3.9970512695e+003,
1.1015625000e+000,4.1203847656e+003,4.0001281738e+003,4.0265385742e+003,4.0146154785e+003,4.0105129395e+003,4.0271794434e+003,4.0429487305e+003,4.0346154785e+003,4.0310256348e+003,3.9838461914e+003,4.0103845215e+003,4.0055129395e+003,4.0225642090e+003,4.0371794434e+003,
1.1093750000e+000,3.9657692871e+003,3.8412819824e+003,3.8787180176e+003,3.8598718262e+003,3.8470512695e+003,3.8819230957e+003,3.8923076172e+003,3.8873076172e+003,3.8828205566e+003,3.8315385742e+003,3.8533332520e+003,3.8542307129e+003,3.8847436523e+003,3.8880769043e+003,
1.1171875000e+000,3.9046154785e+003,3.7728205566e+003,3.8157692871e+003,3.7929487305e+003,3.7833332520e+003,3.8179487305e+003,3.8311538086e+003,3.8196154785e+003,3.8150000000e+003,3.7624357910e+003,3.7855129395e+003,3.7915385742e+003,3.8174357910e+003,3.8251281738e+003,
1.1250000000e+000,3.8811538086e+003,3.7435898438e+003,3.7857692871e+003,3.7510256348e+003,3.7532050781e+003,3.7865385742e+003,3.8028205566e+003,3.7883332520e+003,3.7760256348e+003,3.7280769043e+003,3.7497436523e+003,3.7644870605e+003,3.7793588867e+003,3.7964101563e+003,
1.1328125000e+000,3.8334614258e+003,3.6858974609e+003,3.7408974609e+003,3.6789743652e+003,3.6867949219e+003,3.7228205566e+003,3.7505129395e+003,3.7478205566e+003,3.7335898438e+003,3.6706411133e+003,3.7030769043e+003,3.7225642090e+003,3.7276923828e+003,3.7462819824e+003,
1.1406250000e+000,3.8755129395e+003,3.7221794434e+003,3.7767949219e+003,3.7193588867e+003,3.7208974609e+003,3.7520512695e+003,3.7852563477e+003,3.7828205566e+003,3.7714101563e+003,3.7083332520e+003,3.7460256348e+003,3.7620512695e+003,3.7643588867e+003,3.7835898438e+003,
1.1484375000e+000,4.0400000000e+003,3.8842307129e+003,3.9308974609e+003,3.8820512695e+003,3.8843588867e+003,3.8925642090e+003,3.9275642090e+003,3.9312819824e+003,3.9246154785e+003,3.8738461914e+003,3.9042307129e+003,3.9166667480e+003,3.9235898438e+003,3.9397436523e+003,
1.1562500000e+000,4.1026923828e+003,3.9487180176e+003,3.9932050781e+003,3.9444870605e+003,3.9546154785e+003,3.9494870605e+003,3.9807692871e+003,3.9907692871e+003,3.9864101563e+003,3.9425642090e+003,3.9644870605e+003,3.9758974609e+003,3.9880769043e+003,4.0016667480e+003,
1.1640625000e+000,4.0852563477e+003,3.9405129395e+003,3.9847436523e+003,3.9275642090e+003,3.9517949219e+003,3.9350000000e+003,3.9633332520e+003,3.9808974609e+003,3.9778205566e+003,3.9337180176e+003,3.9551281738e+003,3.9655129395e+003,3.9728205566e+003,3.9923076172e+003,
1.1718750000e+000,4.0712819824e+003,3.9314101563e+003,3.9715385742e+003,3.9112819824e+003,3.9371794434e+003,3.9252563477e+003,3.9546154785e+003,3.9701281738e+003,3.9652563477e+003,3.9194870605e+003,3.9414101563e+003,3.9544870605e+003,3.9608974609e+003,3.9801281738e+003,
1.1796875000e+000,4.1098715820e+003,3.9778205566e+003,4.0119230957e+003,3.9453845215e+003,3.9810256348e+003,3.9883332520e+003,4.0096154785e+003,4.0147436523e+003,4.0108974609e+003,3.9693588867e+003,3.9855129395e+003,3.9978205566e+003,4.0085898438e+003,4.0225642090e+003,
1.1875000000e+000,4.1419228516e+003,4.0112819824e+003,4.0476923828e+003,3.9817949219e+003,4.0178205566e+003,4.0292307129e+003,4.0479487305e+003,4.0469230957e+003,4.0435898438e+003,4.0029487305e+003,4.0267949219e+003,4.0316667480e+003,4.0405129395e+003,4.0560256348e+003,
1.1953125000e+000,4.1894873047e+003,4.0621794434e+003,4.0982050781e+003,4.0360256348e+003,4.0714101563e+003,4.0834614258e+003,4.1007690430e+003,4.0942307129e+003,4.0901281738e+003,4.0507692871e+003,4.0826923828e+003,4.0789743652e+003,4.0888461914e+003,4.1034614258e+003,
1.2031250000e+000,4.2492309570e+003,4.1280771484e+003,4.1584614258e+003,4.1038461914e+003,4.1389741211e+003,4.1480771484e+003,4.1644873047e+003,4.1544873047e+003,4.1494873047e+003,4.1132050781e+003,4.1462822266e+003,4.1362822266e+003,4.1524360352e+003,4.1616665039e+003,
1.2109375000e+000,4.3846152344e+003,4.2901284180e+003,4.3012822266e+003,4.2408974609e+003,4.2907690430e+003,4.3015385742e+003,4.3076923828e+003,4.3006411133e+003,4.2891025391e+003,4.2733334961e+003,4.2805126953e+003,4.2796152344e+003,4.3020512695e+003,4.3065385742e+003,
1.2187500000e+000,4.3728203125e+003,4.2879487305e+003,4.3044873047e+003,4.2334614258e+003,4.2875639648e+003,4.2974360352e+003,4.3070512695e+003,4.3034614258e+003,4.2835898438e+003,4.2728203125e+003,4.3074360352e+003,4.2837177734e+003,4.3075639648e+003,4.3080771484e+003,
1.2265625000e+000,4.3615385742e+003,4.2798715820e+003,4.2933334961e+003,4.2312822266e+003,4.2860258789e+003,4.2888461914e+003,4.2994873047e+003,4.2964101563e+003,4.2756411133e+003,4.2673076172e+003,4.2960258789e+003,4.2748715820e+003,4.3055126953e+003,4.2985898438e+003,
1.2343750000e+000,4.4142309570e+003,4.3455126953e+003,4.3451284180e+003,4.2802563477e+003,4.3580771484e+003,4.3403847656e+003,4.3469228516e+003,4.3526923828e+003,4.3244873047e+003,4.3175639648e+003,4.3265385742e+003,4.3297436523e+003,4.3491025391e+003,4.3419228516e+003,
1.2421875000e+000,4.5251284180e+003,4.4638461914e+003,4.4671796875e+003,4.3905126953e+003,4.4648715820e+003,4.4416665039e+003,4.4575639648e+003,4.4726923828e+003,4.4424360352e+003,4.4428203125e+003,4.4693588867e+003,4.4453847656e+003,4.4633334961e+003,4.4617949219e+003,
1.2500000000e+000,4.5376923828e+003,4.4773076172e+003,4.4802563477e+003,4.4087177734e+003,4.4753847656e+003,4.4520512695e+003,4.4692309570e+003,4.4894873047e+003,4.4600000000e+003,4.4632050781e+003,4.4888461914e+003,4.4575639648e+003,4.4864101563e+003,4.4800000000e+003,
1.2578125000e+000,4.5275639648e+003,4.4753847656e+003,4.4747436523e+003,4.3879487305e+003,4.4723076172e+003,4.4383334961e+003,4.4505126953e+003,4.4807690430e+003,4.4588461914e+003,4.4587177734e+003,4.4755126953e+003,4.4553847656e+003,4.4891025391e+003,4.4760258789e+003,
1.2656250000e+000,4.5044873047e+003,4.4560258789e+003,4.4566665039e+003,4.3600000000e+003,4.4516665039e+003,4.4170512695e+003,4.4285898438e+003,4.4556411133e+003,4.4375639648e+003,4.4362822266e+003,4.4541025391e+003,4.4392309570e+003,4.4643588867e+003,4.4565385742e+003,
1.2734375000e+000,4.4669228516e+003,4.4238461914e+003,4.4238461914e+003,4.3291025391e+003,4.4047436523e+003,4.3893588867e+003,4.3985898438e+003,4.4179487305e+003,4.4042309570e+003,4.4050000000e+003,4.4211538086e+003,4.4065385742e+003,4.4288461914e+003,4.4264101563e+003,
1.2812500000e+000,4.4526923828e+003,4.4096152344e+003,4.4103847656e+003,4.3210258789e+003,4.3828203125e+003,4.3807690430e+003,4.3876923828e+003,4.4073076172e+003,4.3932050781e+003,4.3939741211e+003,4.4062822266e+003,4.3915385742e+003,4.4178203125e+003,4.4144873047e+003,
1.2890625000e+000,4.4151284180e+003,4.3694873047e+003,4.3747436523e+003,4.2876923828e+003,4.3421796875e+003,4.3478203125e+003,4.3533334961e+003,4.3748715820e+003,4.3598715820e+003,4.3569228516e+003,4.3667949219e+003,4.3547436523e+003,4.3816665039e+003,4.3785898438e+003,
1.2968750000e+000,4.3394873047e+003,4.2903847656e+003,4.3030771484e+003,4.2152563477e+003,4.2723076172e+003,4.2770512695e+003,4.2830771484e+003,4.3039741211e+003,4.2892309570e+003,4.2784614258e+003,4.2900000000e+003,4.2823076172e+003,4.3041025391e+003,4.3051284180e+003,
1.3046875000e+000,4.7091025391e+003,4.6655126953e+003,4.6623076172e+003,4.5876923828e+003,4.6683334961e+003,4.6557690430e+003,4.6607690430e+003,4.6365385742e+003,4.6247436523e+003,4.6308974609e+003,4.6605126953e+003,4.6356411133e+003,4.6679487305e+003,4.6624360352e+003,
1.3125000000e+000,4.9102563477e+003,4.8769228516e+003,4.8623076172e+003,4.7850000000e+003,4.8664101563e+003,4.8491025391e+003,4.8484614258e+003,4.8374360352e+003,4.8235898438e+003,4.8474360352e+003,4.8669228516e+003,4.8396152344e+003,4.8753847656e+003,4.8646152344e+003,
1.3203125000e+000,4.8391025391e+003,4.8289741211e+003,4.8073076172e+003,4.7215385742e+003,4.8129487305e+003,4.7850000000e+003,4.7738461914e+003,4.7932050781e+003,4.7808974609e+003,4.8141025391e+003,4.8167949219e+003,4.7960258789e+003,4.8193588867e+003,4.8135898438e+003,
1.3281250000e+000,4.6069228516e+003,4.5994873047e+003,4.5878203125e+003,4.4975639648e+003,4.5920512695e+003,4.5674360352e+003,4.5560258789e+003,4.5756411133e+003,4.5643588867e+003,4.5878203125e+003,4.5912822266e+003,4.5766665039e+003,4.5934614258e+003,4.5928203125e+003,
1.3359375000e+000,4.2923076172e+003,4.2632050781e+003,4.2834614258e+003,4.1889741211e+003,4.2712822266e+003,4.2739741211e+003,4.2755126953e+003,4.2685898438e+003,4.2517949219e+003,4.2456411133e+003,4.2662822266e+003,4.2544873047e+003,4.2819228516e+003,4.2803847656e+003,
1.3437500000e+000,4.4410258789e+003,4.4208974609e+003,4.4234614258e+003,4.3503847656e+003,4.4301284180e+003,4.4183334961e+003,4.4214101563e+003,4.4385898438e+003,4.4069228516e+003,4.4006411133e+003,4.4203847656e+003,4.4089741211e+003,4.4147436523e+003,4.4264101563e+003,
1.3515625000e+000,4.4488461914e+003,4.4275639648e+003,4.4303847656e+003,4.3584614258e+003,4.4362822266e+003,4.4229487305e+003,4.4287177734e+003,4.4470512695e+003,4.4114101563e+003,4.4075639648e+003,4.4280771484e+003,4.4158974609e+003,4.4205126953e+003,4.4329487305e+003,
1.3593750000e+000,4.5862822266e+003,4.5615385742e+003,4.5601284180e+003,4.4757690430e+003,4.5357690430e+003,4.5396152344e+003,4.5528203125e+003,4.5755126953e+003,4.5397436523e+003,4.5478203125e+003,4.5603847656e+003,4.5420512695e+003,4.5678203125e+003,4.5620512695e+003,
1.3671875000e+000,4.6034614258e+003,4.5832050781e+003,4.5783334961e+003,4.4902563477e+003,4.5544873047e+003,4.5515385742e+003,4.5630771484e+003,4.5947436523e+003,4.5608974609e+003,4.5703847656e+003,4.5760258789e+003,4.5629487305e+003,4.5867949219e+003,4.5815385742e+003,
1.3750000000e+000,4.5557690430e+003,4.5410258789e+003,4.5369228516e+003,4.4469228516e+003,4.5347436523e+003,4.4966665039e+003,4.5061538086e+003,4.5502563477e+003,4.5201284180e+003,4.5321796875e+003,4.5338461914e+003,4.5237177734e+003,4.5426923828e+003,4.5428203125e+003,
1.3828125000e+000,4.5224360352e+003,4.5074360352e+003,4.5060258789e+003,4.4180771484e+003,4.5098715820e+003,4.4619228516e+003,4.4744873047e+003,4.5170512695e+003,4.4887177734e+003,4.5021796875e+003,4.5087177734e+003,4.4923076172e+003,4.5134614258e+003,4.5130771484e+003,
1.3906250000e+000,4.4137177734e+003,4.4005126953e+003,4.4025639648e+003,4.3171796875e+003,4.3847436523e+003,4.3696152344e+003,4.3857690430e+003,4.4119228516e+003,4.3933334961e+003,4.3939741211e+003,4.4015385742e+003,4.3847436523e+003,4.4041025391e+003,4.4056411133e+003,
1.3984375000e+000,4.3612822266e+003,4.3482050781e+003,4.3521796875e+003,4.2652563477e+003,4.3289741211e+003,4.3265385742e+003,4.3371796875e+003,4.3621796875e+003,4.3465385742e+003,4.3393588867e+003,4.3416665039e+003,4.3321796875e+003,4.3458974609e+003,4.3519228516e+003,
1.4062500000e+000,4.2978203125e+003,4.2820512695e+003,4.2902563477e+003,4.2038461914e+003,4.2655126953e+003,4.2710258789e+003,4.2769228516e+003,4.3008974609e+003,4.2867949219e+003,4.2732050781e+003,4.2743588867e+003,4.2691025391e+003,4.2770512695e+003,4.2883334961e+003,
1.4140625000e+000,4.2350000000e+003,4.2134614258e+003,4.2269228516e+003,4.1444873047e+003,4.2024360352e+003,4.2129487305e+003,4.2176923828e+003,4.2371796875e+003,4.2239741211e+003,4.2057690430e+003,4.2111538086e+003,4.2057690430e+003,4.2097436523e+003,4.2258974609e+003,
1.4218750000e+000,4.2108974609e+003,4.1901284180e+003,4.1864101563e+003,4.1292309570e+003,4.1992309570e+003,4.1978203125e+003,4.1966665039e+003,4.1917949219e+003,4.1898715820e+003,4.1730771484e+003,4.1750000000e+003,4.1666665039e+003,4.1796152344e+003,4.1942309570e+003,
1.4296875000e+000,4.2021796875e+003,4.1852563477e+003,4.1805126953e+003,4.1228203125e+003,4.1982050781e+003,4.1934614258e+003,4.1883334961e+003,4.1846152344e+003,4.1826923828e+003,4.1664101563e+003,4.1655126953e+003,4.1582050781e+003,4.1744873047e+003,4.1871796875e+003,
1.4375000000e+000,4.1289741211e+003,4.0996152344e+003,4.1076923828e+003,4.0437180176e+003,4.0901281738e+003,4.1178203125e+003,4.1170512695e+003,4.1051284180e+003,4.0978203125e+003,4.0735898438e+003,4.0910256348e+003,4.0783332520e+003,4.1042309570e+003,4.1101284180e+003,
1.4453125000e+000,4.0447436523e+003,3.9987180176e+003,4.0132050781e+003,3.9424357910e+003,4.0041025391e+003,4.0196154785e+003,4.0176923828e+003,4.0167949219e+003,4.0003845215e+003,3.9808974609e+003,3.9879487305e+003,3.9939743652e+003,4.0044870605e+003,4.0233332520e+003,
1.4531250000e+000,3.9651281738e+003,3.9094870605e+003,3.9358974609e+003,3.8642307129e+003,3.9252563477e+003,3.9321794434e+003,3.9330769043e+003,3.9367949219e+003,3.9183332520e+003,3.8984614258e+003,3.9007692871e+003,3.9148718262e+003,3.9170512695e+003,3.9443588867e+003,
1.4609375000e+000,3.8412819824e+003,3.7598718262e+003,3.8007692871e+003,3.7444870605e+003,3.7652563477e+003,3.7803845215e+003,3.8046154785e+003,3.8024357910e+003,3.7820512695e+003,3.7487180176e+003,3.7657692871e+003,3.7730769043e+003,3.7744870605e+003,3.8057692871e+003,
1.4687500000e+000,3.9711538086e+003,3.8962819824e+003,3.9201281738e+003,3.8741025391e+003,3.8926923828e+003,3.9035898438e+003,3.9303845215e+003,3.9456411133e+003,3.9220512695e+003,3.8871794434e+003,3.9037180176e+003,3.9026923828e+003,3.9134614258e+003,3.9321794434e+003,
1.4765625000e+000,3.9620512695e+003,3.8862819824e+003,3.9129487305e+003,3.8626923828e+003,3.8832050781e+003,3.8900000000e+003,3.9153845215e+003,3.9415385742e+003,3.9191025391e+003,3.8847436523e+003,3.8964101563e+003,3.8956411133e+003,3.9080769043e+003,3.9239743652e+003,
1.4843750000e+000,3.9114101563e+003,3.8300000000e+003,3.8653845215e+003,3.8076923828e+003,3.8234614258e+003,3.8334614258e+003,3.8589743652e+003,3.8911538086e+003,3.8725642090e+003,3.8353845215e+003,3.8447436523e+003,3.8448718262e+003,3.8569230957e+003,3.8728205566e+003,
1.4921875000e+000,3.7955129395e+003,3.6997436523e+003,3.7505129395e+003,3.6866667480e+003,3.6843588867e+003,3.7119230957e+003,3.7393588867e+003,3.7624357910e+003,3.7564101563e+003,3.7052563477e+003,3.7175642090e+003,3.7205129395e+003,3.7276923828e+003,3.7519230957e+003,
1.5000000000e+000,3.8067949219e+003,3.7062819824e+003,3.7460256348e+003,3.7048718262e+003,3.7147436523e+003,3.7320512695e+003,3.7533332520e+003,3.7614101563e+003,3.7608974609e+003,3.6992307129e+003,3.7025642090e+003,3.7189743652e+003,3.7251281738e+003,3.7533332520e+003,
1.5078125000e+000,3.8250000000e+003,3.7200000000e+003,3.7615385742e+003,3.7210256348e+003,3.7325642090e+003,3.7493588867e+003,3.7707692871e+003,3.7761538086e+003,3.7746154785e+003,3.7133332520e+003,3.7146154785e+003,3.7342307129e+003,3.7398718262e+003,3.7670512695e+003,
1.5156250000e+000,4.0219230957e+003,3.9178205566e+003,3.9533332520e+003,3.9002563477e+003,3.9130769043e+003,3.9407692871e+003,3.9621794434e+003,3.9496154785e+003,3.9558974609e+003,3.9082050781e+003,3.9191025391e+003,3.9148718262e+003,3.9301281738e+003,3.9510256348e+003,
1.5234375000e+000,4.1071796875e+003,4.0130769043e+003,4.0384614258e+003,3.9856411133e+003,4.0089743652e+003,4.0317949219e+003,4.0466667480e+003,4.0329487305e+003,4.0397436523e+003,4.0028205566e+003,4.0117949219e+003,4.0019230957e+003,4.0203845215e+003,4.0378205566e+003,
1.5312500000e+000,4.1552563477e+003,4.0703845215e+003,4.0880769043e+003,4.0379487305e+003,4.0733332520e+003,4.0884614258e+003,4.0946154785e+003,4.0824357910e+003,4.0866667480e+003,4.0593588867e+003,4.0648718262e+003,4.0566667480e+003,4.0751281738e+003,4.0893588867e+003,
1.5390625000e+000,4.1614101563e+003,4.0811538086e+003,4.0960258789e+003,4.0489743652e+003,4.0935898438e+003,4.1019228516e+003,4.1005126953e+003,4.0900000000e+003,4.0907692871e+003,4.0678205566e+003,4.0723076172e+003,4.0701281738e+003,4.0862819824e+003,4.0975639648e+003,
1.5468750000e+000,4.0608974609e+003,3.9705129395e+003,3.9985898438e+003,3.9488461914e+003,3.9821794434e+003,3.9938461914e+003,3.9947436523e+003,3.9826923828e+003,3.9808974609e+003,3.9487180176e+003,3.9574357910e+003,3.9698718262e+003,3.9778205566e+003,3.9852563477e+003,
1.5546875000e+000,3.8344870605e+003,3.7294870605e+003,3.7805129395e+003,3.7410256348e+003,3.7411538086e+003,3.7673076172e+003,3.7694870605e+003,3.7587180176e+003,3.7474357910e+003,3.7151281738e+003,3.7306411133e+003,3.7497436523e+003,3.7588461914e+003,3.7680769043e+003,
1.5625000000e+000,3.8108974609e+003,3.6979487305e+003,3.7538461914e+003,3.7119230957e+003,3.7074357910e+003,3.7364101563e+003,3.7443588867e+003,3.7314101563e+003,3.7205129395e+003,3.6803845215e+003,3.7048718262e+003,3.7239743652e+003,3.7302563477e+003,3.7402563477e+003,
1.5703125000e+000,3.8475642090e+003,3.7291025391e+003,3.7816667480e+003,3.7266667480e+003,3.7269230957e+003,3.7547436523e+003,3.7770512695e+003,3.7624357910e+003,3.7507692871e+003,3.7030769043e+003,3.7358974609e+003,3.7571794434e+003,3.7585898438e+003,3.7710256348e+003,
1.5781250000e+000,3.8692307129e+003,3.7544870605e+003,3.8002563477e+003,3.7406411133e+003,3.7456411133e+003,3.7706411133e+003,3.7967949219e+003,3.7885898438e+003,3.7751281738e+003,3.7289743652e+003,3.7585898438e+003,3.7815385742e+003,3.7819230957e+003,3.7948718262e+003,
1.5859375000e+000,3.7961538086e+003,3.6848718262e+003,3.7265385742e+003,3.6648718262e+003,3.6751281738e+003,3.6961538086e+003,3.7220512695e+003,3.7383332520e+003,3.7229487305e+003,3.6742307129e+003,3.6860256348e+003,3.7223076172e+003,3.7125642090e+003,3.7279487305e+003,
1.5937500000e+000,3.8494870605e+003,3.7274357910e+003,3.7675642090e+003,3.7100000000e+003,3.7385898438e+003,3.7408974609e+003,3.7662819824e+003,3.7773076172e+003,3.7658974609e+003,3.7185898438e+003,3.7280769043e+003,3.7548718262e+003,3.7567949219e+003,3.7617949219e+003,
1.6015625000e+000,3.8930769043e+003,3.7733332520e+003,3.8080769043e+003,3.7534614258e+003,3.7874357910e+003,3.7835898438e+003,3.8074357910e+003,3.8185898438e+003,3.8066667480e+003,3.7630769043e+003,3.7733332520e+003,3.7943588867e+003,3.8034614258e+003,3.8052563477e+003,
1.6093750000e+000,3.9200000000e+003,3.8020512695e+003,3.8362819824e+003,3.7669230957e+003,3.8155129395e+003,3.8230769043e+003,3.8392307129e+003,3.8482050781e+003,3.8396154785e+003,3.7947436523e+003,3.8017949219e+003,3.8252563477e+003,3.8367949219e+003,3.8412819824e+003,
1.6171875000e+000,3.9279487305e+003,3.8103845215e+003,3.8438461914e+003,3.7734614258e+003,3.8241025391e+003,3.8384614258e+003,3.8516667480e+003,3.8552563477e+003,3.8505129395e+003,3.8046154785e+003,3.8105129395e+003,3.8337180176e+003,3.8448718262e+003,3.8491025391e+003,
1.6250000000e+000,3.9373076172e+003,3.8255129395e+003,3.8538461914e+003,3.7965385742e+003,3.8357692871e+003,3.8561538086e+003,3.8651281738e+003,3.8603845215e+003,3.8614101563e+003,3.8153845215e+003,3.8205129395e+003,3.8446154785e+003,3.8515385742e+003,3.8574357910e+003,
1.6328125000e+000,3.9148718262e+003,3.8051281738e+003,3.8326923828e+003,3.7819230957e+003,3.8111538086e+003,3.8328205566e+003,3.8405129395e+003,3.8337180176e+003,3.8358974609e+003,3.7894870605e+003,3.7933332520e+003,3.8219230957e+003,3.8247436523e+003,3.8344870605e+003,
1.6406250000e+000,3.8662819824e+003,3.7516667480e+003,3.7820512695e+003,3.7305129395e+003,3.7558974609e+003,3.7794870605e+003,3.7857692871e+003,3.7624357910e+003,3.7662819824e+003,3.7237180176e+003,3.7273076172e+003,3.7616667480e+003,3.7617949219e+003,3.7766667480e+003,
1.6484375000e+000,3.9179487305e+003,3.8020512695e+003,3.8316667480e+003,3.7789743652e+003,3.8058974609e+003,3.8301281738e+003,3.8370512695e+003,3.8076923828e+003,3.8102563477e+003,3.7724357910e+003,3.7833332520e+003,3.8115385742e+003,3.8107692871e+003,3.8250000000e+003,
1.6562500000e+000,3.9955129395e+003,3.8803845215e+003,3.9066667480e+003,3.8547436523e+003,3.8787180176e+003,3.9050000000e+003,3.9120512695e+003,3.8819230957e+003,3.8821794434e+003,3.8498718262e+003,3.8682050781e+003,3.8885898438e+003,3.8874357910e+003,3.9001281738e+003,
1.6640625000e+000,4.0602563477e+003,3.9473076172e+003,3.9700000000e+003,3.9188461914e+003,3.9366667480e+003,3.9667949219e+003,3.9724357910e+003,3.9474357910e+003,3.9446154785e+003,3.9180769043e+003,3.9394870605e+003,3.9538461914e+003,3.9544870605e+003,3.9638461914e+003,
1.6718750000e+000,3.8744870605e+003,3.7560256348e+003,3.7971794434e+003,3.7325642090e+003,3.7705129395e+003,3.7848718262e+003,3.7889743652e+003,3.7650000000e+003,3.7605129395e+003,3.7370512695e+003,3.7506411133e+003,3.7742307129e+003,3.7788461914e+003,3.7815385742e+003,
1.6796875000e+000,3.8537180176e+003,3.7353845215e+003,3.7743588867e+003,3.7126923828e+003,3.7605129395e+003,3.7614101563e+003,3.7705129395e+003,3.7442307129e+003,3.7387180176e+003,3.7124357910e+003,3.7307692871e+003,3.7546154785e+003,3.7576923828e+003,3.7633332520e+003,
1.6875000000e+000,3.8908974609e+003,3.7750000000e+003,3.8048718262e+003,3.7420512695e+003,3.7808974609e+003,3.7824357910e+003,3.7980769043e+003,3.7983332520e+003,3.7829487305e+003,3.7524357910e+003,3.7643588867e+003,3.7962819824e+003,3.7942307129e+003,3.8075642090e+003,
1.6953125000e+000,3.7597436523e+003,3.6265385742e+003,3.6771794434e+003,3.6101281738e+003,3.6321794434e+003,3.6405129395e+003,3.6603845215e+003,3.6751281738e+003,3.6687180176e+003,3.6285898438e+003,3.6370512695e+003,3.6607692871e+003,3.6579487305e+003,3.6697436523e+003,
1.7031250000e+000,3.7303845215e+003,3.5938461914e+003,3.6458974609e+003,3.5839743652e+003,3.5994870605e+003,3.6079487305e+003,3.6330769043e+003,3.6460256348e+003,3.6437180176e+003,3.6012819824e+003,3.6098718262e+003,3.6319230957e+003,3.6282050781e+003,3.6387180176e+003,
1.7109375000e+000,3.6337180176e+003,3.4889743652e+003,3.5443588867e+003,3.4926923828e+003,3.4828205566e+003,3.5096154785e+003,3.5334614258e+003,3.5558974609e+003,3.5592307129e+003,3.5020512695e+003,3.5030769043e+003,3.5392307129e+003,3.5257692871e+003,3.5405129395e+003,
1.7187500000e+000,3.3191025391e+003,3.1528205566e+003,3.2253845215e+003,3.2001281738e+003,3.1662819824e+003,3.2144870605e+003,3.2338461914e+003,3.2416667480e+003,3.2567949219e+003,3.1653845215e+003,3.1705129395e+003,3.2111538086e+003,3.1958974609e+003,3.2243588867e+003,
1.7265625000e+000,3.2457692871e+003,3.0743588867e+003,3.1464101563e+003,3.1285898438e+003,3.0915385742e+003,3.1437180176e+003,3.1665385742e+003,3.1606411133e+003,3.1806411133e+003,3.0851281738e+003,3.0855129395e+003,3.1288461914e+003,3.1189743652e+003,3.1487180176e+003,
1.7343750000e+000,3.2226923828e+003,3.0476923828e+003,3.1158974609e+003,3.1023076172e+003,3.0625642090e+003,3.1201281738e+003,3.1442307129e+003,3.1278205566e+003,3.1517949219e+003,3.0574357910e+003,3.0524357910e+003,3.0966667480e+003,3.0934614258e+003,3.1211538086e+003,
1.7421875000e+000,3.2688461914e+003,3.0851281738e+003,3.1491025391e+003,3.1391025391e+003,3.0871794434e+003,3.1616667480e+003,3.1810256348e+003,3.1557692871e+003,3.1833332520e+003,3.0958974609e+003,3.0926923828e+003,3.1330769043e+003,3.1330769043e+003,3.1556411133e+003,
1.7500000000e+000,3.3255129395e+003,3.1303845215e+003,3.1944870605e+003,3.1908974609e+003,3.1462819824e+003,3.2073076172e+003,3.2261538086e+003,3.1906411133e+003,3.2169230957e+003,3.1400000000e+003,3.1462819824e+003,3.1817949219e+003,3.1770512695e+003,3.2015385742e+003,
1.7578125000e+000,3.3285898438e+003,3.1356411133e+003,3.1942307129e+003,3.1910256348e+003,3.1556411133e+003,3.2067949219e+003,3.2257692871e+003,3.1912819824e+003,3.2165385742e+003,3.1448718262e+003,3.1482050781e+003,3.1803845215e+003,3.1791025391e+003,3.2014101563e+003,
1.7656250000e+000,3.3153845215e+003,3.1238461914e+003,3.1788461914e+003,3.1737180176e+003,3.1432050781e+003,3.1914101563e+003,3.2097436523e+003,3.1784614258e+003,3.2025642090e+003,3.1338461914e+003,3.1338461914e+003,3.1652563477e+003,3.1655129395e+003,3.1853845215e+003,
1.7734375000e+000,3.2776923828e+003,3.0762819824e+003,3.1391025391e+003,3.1289743652e+003,3.0948718262e+003,3.1505129395e+003,3.1688461914e+003,3.1375642090e+003,3.1567949219e+003,3.0861538086e+003,3.0873076172e+003,3.1291025391e+003,3.1228205566e+003,3.1446154785e+003,
1.7812500000e+000,3.3115385742e+003,3.1034614258e+003,3.1706411133e+003,3.1628205566e+003,3.1278205566e+003,3.1803845215e+003,3.2006411133e+003,3.1638461914e+003,3.1805129395e+003,3.1110256348e+003,3.1158974609e+003,3.1620512695e+003,3.1530769043e+003,3.1765385742e+003,
1.7890625000e+000,3.4017949219e+003,3.1910256348e+003,3.2578205566e+003,3.2548718262e+003,3.2221794434e+003,3.2642307129e+003,3.2862819824e+003,3.2458974609e+003,3.2607692871e+003,3.1975642090e+003,3.2047436523e+003,3.2497436523e+003,3.2414101563e+003,3.2643588867e+003,
1.7968750000e+000,3.5896154785e+003,3.3820512695e+003,3.4451281738e+003,3.4344870605e+003,3.3912819824e+003,3.4150000000e+003,3.4396154785e+003,3.4401281738e+003,3.4497436523e+003,3.4043588867e+003,3.4025642090e+003,3.4325642090e+003,3.4346154785e+003,3.4417949219e+003,
1.8046875000e+000,3.5776923828e+003,3.3700000000e+003,3.4332050781e+003,3.4225642090e+003,3.3816667480e+003,3.4011538086e+003,3.4271794434e+003,3.4287180176e+003,3.4356411133e+003,3.3907692871e+003,3.3864101563e+003,3.4200000000e+003,3.4229487305e+003,3.4289743652e+003,
1.8125000000e+000,3.8111538086e+003,3.6267949219e+003,3.6583332520e+003,3.6669230957e+003,3.6325642090e+003,3.6397436523e+003,3.6594870605e+003,3.6693588867e+003,3.6684614258e+003,3.6365385742e+003,3.6325642090e+003,3.6552563477e+003,3.6593588867e+003,3.6624357910e+003,
1.8203125000e+000,3.9214101563e+003,3.7596154785e+003,3.7692307129e+003,3.7735898438e+003,3.7406411133e+003,3.7661538086e+003,3.7828205566e+003,3.7998718262e+003,3.8029487305e+003,3.7730769043e+003,3.7526923828e+003,3.7765385742e+003,3.7883332520e+003,3.7808974609e+003,
1.8281250000e+000,3.9335898438e+003,3.7738461914e+003,3.7860256348e+003,3.7858974609e+003,3.7655129395e+003,3.7861538086e+003,3.8008974609e+003,3.8137180176e+003,3.8180769043e+003,3.7898718262e+003,3.7700000000e+003,3.7906411133e+003,3.8028205566e+003,3.7951281738e+003,
1.8359375000e+000,4.0174357910e+003,3.8682050781e+003,3.8758974609e+003,3.8879487305e+003,3.8996154785e+003,3.8892307129e+003,3.8924357910e+003,3.8984614258e+003,3.9023076172e+003,3.8882050781e+003,3.8760256348e+003,3.8752563477e+003,3.8903845215e+003,3.8802563477e+003,
1.8437500000e+000,3.7976923828e+003,3.6469230957e+003,3.6670512695e+003,3.6712819824e+003,3.6676923828e+003,3.6862819824e+003,3.6861538086e+003,3.6791025391e+003,3.6865385742e+003,3.6696154785e+003,3.6507692871e+003,3.6646154785e+003,3.6684614258e+003,3.6665385742e+003,
1.8515625000e+000,3.7124357910e+003,3.5602563477e+003,3.5844870605e+003,3.5833332520e+003,3.5751281738e+003,3.6058974609e+003,3.6046154785e+003,3.5911538086e+003,3.6032050781e+003,3.5800000000e+003,3.5615385742e+003,3.5785898438e+003,3.5835898438e+003,3.5825642090e+003,
1.8593750000e+000,3.6476923828e+003,3.4956411133e+003,3.5210256348e+003,3.5196154785e+003,3.5057692871e+003,3.5447436523e+003,3.5433332520e+003,3.5239743652e+003,3.5400000000e+003,3.5096154785e+003,3.4924357910e+003,3.5130769043e+003,3.5208974609e+003,3.5194870605e+003,
1.8671875000e+000,3.5793588867e+003,3.4261538086e+003,3.4547436523e+003,3.4625642090e+003,3.4326923828e+003,3.4757692871e+003,3.4794870605e+003,3.4506411133e+003,3.4674357910e+003,3.4308974609e+003,3.4146154785e+003,3.4460256348e+003,3.4534614258e+003,3.4551281738e+003,
1.8750000000e+000,3.5676923828e+003,3.4097436523e+003,3.4432050781e+003,3.4534614258e+003,3.4196154785e+003,3.4587180176e+003,3.4653845215e+003,3.4351281738e+003,3.4500000000e+003,3.4165385742e+003,3.4006411133e+003,3.4341025391e+003,3.4378205566e+003,3.4435898438e+003,
1.8828125000e+000,3.5400000000e+003,3.3680769043e+003,3.4121794434e+003,3.4194870605e+003,3.3930769043e+003,3.4182050781e+003,3.4241025391e+003,3.3979487305e+003,3.4116667480e+003,3.3837180176e+003,3.3771794434e+003,3.4035898438e+003,3.4011538086e+003,3.4126923828e+003,
1.8906250000e+000,3.5142307129e+003,3.3371794434e+003,3.3842307129e+003,3.3920512695e+003,3.3665385742e+003,3.3880769043e+003,3.3924357910e+003,3.3679487305e+003,3.3828205566e+003,3.3524357910e+003,3.3538461914e+003,3.3771794434e+003,3.3743588867e+003,3.3858974609e+003,
1.8984375000e+000,3.5155129395e+003,3.3360256348e+003,3.3743588867e+003,3.4024357910e+003,3.3364101563e+003,3.3689743652e+003,3.3870512695e+003,3.3638461914e+003,3.3773076172e+003,3.3411538086e+003,3.3453845215e+003,3.3751281738e+003,3.3746154785e+003,3.3825642090e+003,
1.9062500000e+000,3.5479487305e+003,3.3667949219e+003,3.4023076172e+003,3.4335898438e+003,3.3562819824e+003,3.3907692871e+003,3.4162819824e+003,3.3976923828e+003,3.4079487305e+003,3.3743588867e+003,3.3723076172e+003,3.4051281738e+003,3.4033332520e+003,3.4101281738e+003,
1.9140625000e+000,3.5706411133e+003,3.3861538086e+003,3.4226923828e+003,3.4515385742e+003,3.3726923828e+003,3.4048718262e+003,3.4346154785e+003,3.4225642090e+003,3.4301281738e+003,3.3975642090e+003,3.3906411133e+003,3.4276923828e+003,3.4226923828e+003,3.4285898438e+003,
1.9218750000e+000,3.5564101563e+003,3.3711538086e+003,3.4078205566e+003,3.4279487305e+003,3.3782050781e+003,3.3750000000e+003,3.3994870605e+003,3.4114101563e+003,3.4173076172e+003,3.3850000000e+003,3.3917949219e+003,3.4210256348e+003,3.4121794434e+003,3.4180769043e+003,
1.9296875000e+000,3.5338461914e+003,3.3483332520e+003,3.3853845215e+003,3.4096154785e+003,3.3511538086e+003,3.3535898438e+003,3.3801281738e+003,3.3930769043e+003,3.3980769043e+003,3.3646154785e+003,3.3685898438e+003,3.3956411133e+003,3.3866667480e+003,3.3957692871e+003,
1.9375000000e+000,3.4641025391e+003,3.2770512695e+003,3.3178205566e+003,3.3465385742e+003,3.2873076172e+003,3.3098718262e+003,3.3333332520e+003,3.3307692871e+003,3.3430769043e+003,3.2991025391e+003,3.2876923828e+003,3.3191025391e+003,3.3175642090e+003,3.3226923828e+003,
1.9453125000e+000,3.5626923828e+003,3.3694870605e+003,3.4121794434e+003,3.4353845215e+003,3.3810256348e+003,3.4200000000e+003,3.4358974609e+003,3.4197436523e+003,3.4329487305e+003,3.3988461914e+003,3.3714101563e+003,3.4101281738e+003,3.4108974609e+003,3.4141025391e+003,
1.9531250000e+000,3.6167949219e+003,3.4251281738e+003,3.4612819824e+003,3.4885898438e+003,3.4389743652e+003,3.4734614258e+003,3.4891025391e+003,3.4700000000e+003,3.4842307129e+003,3.4523076172e+003,3.4267949219e+003,3.4589743652e+003,3.4632050781e+003,3.4648718262e+003,
1.9609375000e+000,3.7656411133e+003,3.5874357910e+003,3.6026923828e+003,3.6352563477e+003,3.6055129395e+003,3.6252563477e+003,3.6358974609e+003,3.6096154785e+003,3.6307692871e+003,3.6042307129e+003,3.5930769043e+003,3.6012819824e+003,3.6153845215e+003,3.6051281738e+003,
1.9687500000e+000,3.8187180176e+003,3.6421794434e+003,3.6580769043e+003,3.6830769043e+003,3.6555129395e+003,3.6780769043e+003,3.6861538086e+003,3.6578205566e+003,3.6773076172e+003,3.6564101563e+003,3.6442307129e+003,3.6542307129e+003,3.6662819824e+003,3.6561538086e+003,
1.9765625000e+000,3.8975642090e+003,3.7262819824e+003,3.7426923828e+003,3.7633332520e+003,3.7397436523e+003,3.7570512695e+003,3.7574357910e+003,3.7330769043e+003,3.7456411133e+003,3.7403845215e+003,3.7211538086e+003,3.7375642090e+003,3.7420512695e+003,3.7378205566e+003,
1.9843750000e+000,3.8838461914e+003,3.7167949219e+003,3.7317949219e+003,3.7598718262e+003,3.7378205566e+003,3.7458974609e+003,3.7429487305e+003,3.7225642090e+003,3.7334614258e+003,3.7337180176e+003,3.7108974609e+003,3.7298718262e+003,3.7324357910e+003,3.7298718262e+003,
1.9921875000e+000,3.7278205566e+003,3.5692307129e+003,3.5857692871e+003,3.6235898438e+003,3.5903845215e+003,3.5943588867e+003,3.5973076172e+003,3.5737180176e+003,3.5785898438e+003,3.5816667480e+003,3.5594870605e+003,3.5898718262e+003,3.5905129395e+003,3.5883332520e+003,
2.0000000000e+000,3.7085898438e+003,3.5532050781e+003,3.5685898438e+003,3.6019230957e+003,3.5632050781e+003,3.5742307129e+003,3.5811538086e+003,3.5558974609e+003,3.5560256348e+003,3.5600000000e+003,3.5447436523e+003,3.5752563477e+003,3.5711538086e+003,3.5720512695e+003,
2.0078125000e+000,3.6800000000e+003,3.5262819824e+003,3.5434614258e+003,3.5741025391e+003,3.5261538086e+003,3.5417949219e+003,3.5546154785e+003,3.5355129395e+003,3.5298718262e+003,3.5330769043e+003,3.5317949219e+003,3.5566667480e+003,3.5433332520e+003,3.5516667480e+003,
2.0156250000e+000,3.6467949219e+003,3.4889743652e+003,3.5116667480e+003,3.5452563477e+003,3.4923076172e+003,3.5050000000e+003,3.5200000000e+003,3.5084614258e+003,3.5041025391e+003,3.5029487305e+003,3.5011538086e+003,3.5250000000e+003,3.5119230957e+003,3.5216667480e+003,
2.0234375000e+000,3.5338461914e+003,3.3630769043e+003,3.3979487305e+003,3.4362819824e+003,3.3717949219e+003,3.3829487305e+003,3.4039743652e+003,3.4126923828e+003,3.4166667480e+003,3.3970512695e+003,3.3782050781e+003,3.4043588867e+003,3.4024357910e+003,3.4070512695e+003,
2.0312500000e+000,3.5200000000e+003,3.3479487305e+003,3.3825642090e+003,3.4196154785e+003,3.3550000000e+003,3.3657692871e+003,3.3898718262e+003,3.4000000000e+003,3.4042307129e+003,3.3812819824e+003,3.3626923828e+003,3.3892307129e+003,3.3873076172e+003,3.3930769043e+003,
2.0390625000e+000,3.5260256348e+003,3.3537180176e+003,3.3853845215e+003,3.4229487305e+003,3.3569230957e+003,3.3665385742e+003,3.3934614258e+003,3.4044870605e+003,3.4083332520e+003,3.3841025391e+003,3.3662819824e+003,3.3942307129e+003,3.3910256348e+003,3.3993588867e+003,
2.0468750000e+000,3.5452563477e+003,3.3732050781e+003,3.4001281738e+003,3.4410256348e+003,3.3701281738e+003,3.3812819824e+003,3.4096154785e+003,3.4223076172e+003,3.4266667480e+003,3.4023076172e+003,3.3815385742e+003,3.4123076172e+003,3.4088461914e+003,3.4183332520e+003,
2.0546875000e+000,3.4608974609e+003,3.2860256348e+003,3.3184614258e+003,3.3566667480e+003,3.3015385742e+003,3.3355129395e+003,3.3480769043e+003,3.3628205566e+003,3.3732050781e+003,3.3370512695e+003,3.3016667480e+003,3.3323076172e+003,3.3255129395e+003,3.3325642090e+003,
2.0625000000e+000,3.4011538086e+003,3.2228205566e+003,3.2602563477e+003,3.3010256348e+003,3.2503845215e+003,3.2846154785e+003,3.2950000000e+003,3.3047436523e+003,3.3179487305e+003,3.2767949219e+003,3.2452563477e+003,3.2716667480e+003,3.2603845215e+003,3.2734614258e+003,
2.0703125000e+000,3.2955129395e+003,3.1110256348e+003,3.1464101563e+003,3.2208974609e+003,3.1346154785e+003,3.1794870605e+003,3.1951281738e+003,3.1897436523e+003,3.2100000000e+003,3.1658974609e+003,3.1314101563e+003,3.1580769043e+003,3.1508974609e+003,3.1662819824e+003,
2.0781250000e+000,3.3219230957e+003,3.1398718262e+003,3.1693588867e+003,3.2371794434e+003,3.1770512695e+003,3.2123076172e+003,3.2220512695e+003,3.2008974609e+003,3.2271794434e+003,3.1858974609e+003,3.1473076172e+003,3.1835898438e+003,3.1766667480e+003,3.1874357910e+003,
2.0859375000e+000,3.3784614258e+003,3.1773076172e+003,3.2215385742e+003,3.2946154785e+003,3.2123076172e+003,3.2397436523e+003,3.2494870605e+003,3.2080769043e+003,3.2356411133e+003,3.2064101563e+003,3.1785898438e+003,3.2088461914e+003,3.2084614258e+003,3.2224357910e+003,
2.0937500000e+000,3.3465385742e+003,3.1500000000e+003,3.1878205566e+003,3.2688461914e+003,3.1770512695e+003,3.2079487305e+003,3.2147436523e+003,3.1705129395e+003,3.1989743652e+003,3.1706411133e+003,3.1452563477e+003,3.1751281738e+003,3.1780769043e+003,3.1905129395e+003,
2.1015625000e+000,3.3607692871e+003,3.1684614258e+003,3.1944870605e+003,3.2808974609e+003,3.1853845215e+003,3.2235898438e+003,3.2280769043e+003,3.1806411133e+003,3.2043588867e+003,3.1789743652e+003,3.1578205566e+003,3.1928205566e+003,3.1855129395e+003,3.2039743652e+003,
2.1093750000e+000,3.4315385742e+003,3.2351281738e+003,3.2607692871e+003,3.3448718262e+003,3.2508974609e+003,3.2874357910e+003,3.2962819824e+003,3.2497436523e+003,3.2673076172e+003,3.2465385742e+003,3.2294870605e+003,3.2656411133e+003,3.2484614258e+003,3.2725642090e+003,
2.1171875000e+000,3.6496154785e+003,3.4507692871e+003,3.4779487305e+003,3.5580769043e+003,3.4710256348e+003,3.4762819824e+003,3.4984614258e+003,3.4751281738e+003,3.4784614258e+003,3.4764101563e+003,3.4510256348e+003,3.4876923828e+003,3.4723076172e+003,3.4874357910e+003,
2.1250000000e+000,3.6638461914e+003,3.4725642090e+003,3.4960256348e+003,3.5775642090e+003,3.4921794434e+003,3.4884614258e+003,3.5111538086e+003,3.4957692871e+003,3.4985898438e+003,3.4996154785e+003,3.4656411133e+003,3.5048718262e+003,3.4960256348e+003,3.5029487305e+003,
2.1328125000e+000,3.7123076172e+003,3.5335898438e+003,3.5474357910e+003,3.6316667480e+003,3.5479487305e+003,3.5344870605e+003,3.5570512695e+003,3.5500000000e+003,3.5533332520e+003,3.5576923828e+003,3.5242307129e+003,3.5543588867e+003,3.5524357910e+003,3.5496154785e+003,
2.1406250000e+000,3.7752563477e+003,3.5988461914e+003,3.6087180176e+003,3.6951281738e+003,3.6112819824e+003,3.5925642090e+003,3.6156411133e+003,3.6134614258e+003,3.6160256348e+003,3.6226923828e+003,3.5971794434e+003,3.6169230957e+003,3.6126923828e+003,3.6102563477e+003,
2.1484375000e+000,3.8641025391e+003,3.6998718262e+003,3.7010256348e+003,3.7894870605e+003,3.7075642090e+003,3.6793588867e+003,3.7026923828e+003,3.7200000000e+003,3.7185898438e+003,3.7280769043e+003,3.7046154785e+003,3.7234614258e+003,3.7029487305e+003,3.7112819824e+003,
2.1562500000e+000,3.8400000000e+003,3.6814101563e+003,3.6814101563e+003,3.7628205566e+003,3.6878205566e+003,3.6644870605e+003,3.6857692871e+003,3.7024357910e+003,3.7020512695e+003,3.7098718262e+003,3.6806411133e+003,3.7028205566e+003,3.6874357910e+003,3.6921794434e+003,
2.1640625000e+000,3.8198718262e+003,3.6646154785e+003,3.6653845215e+003,3.7374357910e+003,3.6710256348e+003,3.6561538086e+003,3.6732050781e+003,3.6857692871e+003,3.6874357910e+003,3.6943588867e+003,3.6615385742e+003,3.6821794434e+003,3.6748718262e+003,3.6729487305e+003,
2.1718750000e+000,3.8097436523e+003,3.6544870605e+003,3.6588461914e+003,3.7229487305e+003,3.6625642090e+003,3.6571794434e+003,3.6691025391e+003,3.6767949219e+003,3.6802563477e+003,3.6873076172e+003,3.6533332520e+003,3.6710256348e+003,3.6666667480e+003,3.6603845215e+003,
2.1796875000e+000,3.7170512695e+003,3.5578205566e+003,3.5741025391e+003,3.6350000000e+003,3.5812819824e+003,3.5850000000e+003,3.5911538086e+003,3.5862819824e+003,3.5924357910e+003,3.5933332520e+003,3.5574357910e+003,3.5852563477e+003,3.5617949219e+003,3.5726923828e+003,
2.1875000000e+000,3.7085898438e+003,3.5537180176e+003,3.5633332520e+003,3.6287180176e+003,3.5702563477e+003,3.5806411133e+003,3.5856411133e+003,3.5743588867e+003,3.5850000000e+003,3.5860256348e+003,3.5519230957e+003,3.5751281738e+003,3.5624357910e+003,3.5691025391e+003,
2.1953125000e+000,3.7474357910e+003,3.5980769043e+003,3.5989743652e+003,3.6769230957e+003,3.5855129395e+003,3.6212819824e+003,3.6201281738e+003,3.5921794434e+003,3.6112819824e+003,3.6242307129e+003,3.5941025391e+003,3.6089743652e+003,3.6065385742e+003,3.6066667480e+003,
2.2031250000e+000,3.6869230957e+003,3.5474357910e+003,3.5510256348e+003,3.6142307129e+003,3.5796154785e+003,3.5678205566e+003,3.5687180176e+003,3.5471794434e+003,3.5671794434e+003,3.5748718262e+003,3.5358974609e+003,3.5538461914e+003,3.5498718262e+003,3.5523076172e+003,
2.2109375000e+000,3.6867949219e+003,3.5430769043e+003,3.5485898438e+003,3.6162819824e+003,3.5555129395e+003,3.5578205566e+003,3.5658974609e+003,3.5464101563e+003,3.5583332520e+003,3.5711538086e+003,3.5316667480e+003,3.5571794434e+003,3.5567949219e+003,3.5593588867e+003,
2.2187500000e+000,3.7337180176e+003,3.5901281738e+003,3.5955129395e+003,3.6610256348e+003,3.5985898438e+003,3.5989743652e+003,3.6102563477e+003,3.5966667480e+003,3.6034614258e+003,3.6171794434e+003,3.5811538086e+003,3.6028205566e+003,3.6025642090e+003,3.6034614258e+003,
2.2265625000e+000,3.8265385742e+003,3.6879487305e+003,3.6933332520e+003,3.7483332520e+003,3.7030769043e+003,3.6893588867e+003,3.7047436523e+003,3.6980769043e+003,3.6962819824e+003,3.7124357910e+003,3.6856411133e+003,3.7029487305e+003,3.6902563477e+003,3.6942307129e+003,
2.2343750000e+000,3.8761538086e+003,3.7425642090e+003,3.7443588867e+003,3.7978205566e+003,3.7579487305e+003,3.7397436523e+003,3.7537180176e+003,3.7483332520e+003,3.7446154785e+003,3.7655129395e+003,3.7405129395e+003,3.7589743652e+003,3.7382050781e+003,3.7448718262e+003,
2.2421875000e+000,3.9432050781e+003,3.8207692871e+003,3.8153845215e+003,3.8634614258e+003,3.8216667480e+003,3.8057692871e+003,3.8134614258e+003,3.8205129395e+003,3.8187180176e+003,3.8456411133e+003,3.8103845215e+003,3.8326923828e+003,3.8270512695e+003,3.8197436523e+003,
2.2500000000e+000,3.9293588867e+003,3.8064101563e+003,3.8044870605e+003,3.8439743652e+003,3.8053845215e+003,3.7911538086e+003,3.7997436523e+003,3.8085898438e+003,3.8091025391e+003,3.8319230957e+003,3.7946154785e+003,3.8170512695e+003,3.8221794434e+003,3.8064101563e+003,
2.2578125000e+000,3.8802563477e+003,3.7533332520e+003,3.7584614258e+003,3.7834614258e+003,3.7521794434e+003,3.7430769043e+003,3.7489743652e+003,3.7556411133e+003,3.7608974609e+003,3.7826923828e+003,3.7430769043e+003,3.7706411133e+003,3.7728205566e+003,3.7555129395e+003,
2.2656250000e+000,3.8287180176e+003,3.7002563477e+003,3.7084614258e+003,3.7301281738e+003,3.7016667480e+003,3.6946154785e+003,3.6964101563e+003,3.7020512695e+003,3.7089743652e+003,3.7323076172e+003,3.6916667480e+003,3.7247436523e+003,3.7161538086e+003,3.7058974609e+003,
2.2734375000e+000,3.6252563477e+003,3.4960256348e+003,3.5061538086e+003,3.5317949219e+003,3.5137180176e+003,3.4992307129e+003,3.5008974609e+003,3.4966667480e+003,3.5111538086e+003,3.5189743652e+003,3.4853845215e+003,3.5256411133e+003,3.5144870605e+003,3.5111538086e+003,
2.2812500000e+000,3.6193588867e+003,3.4910256348e+003,3.4958974609e+003,3.5278205566e+003,3.5120512695e+003,3.4930769043e+003,3.4980769043e+003,3.4874357910e+003,3.5044870605e+003,3.5075642090e+003,3.4794870605e+003,3.5146154785e+003,3.5107692871e+003,3.5020512695e+003,
2.2890625000e+000,3.6557692871e+003,3.5292307129e+003,3.5273076172e+003,3.5657692871e+003,3.5502563477e+003,3.5297436523e+003,3.5352563477e+003,3.5192307129e+003,3.5376923828e+003,3.5408974609e+003,3.5176923828e+003,3.5471794434e+003,3.5461538086e+003,3.5335898438e+003,
2.2968750000e+000,3.7116667480e+003,3.5869230957e+003,3.5797436523e+003,3.6228205566e+003,3.6050000000e+003,3.5876923828e+003,3.5896154785e+003,3.5703845215e+003,3.5903845215e+003,3.5974357910e+003,3.5758974609e+003,3.6023076172e+003,3.5987180176e+003,3.5860256348e+003,
2.3046875000e+000,3.6785898438e+003,3.5570512695e+003,3.5458974609e+003,3.5911538086e+003,3.5662819824e+003,3.5680769043e+003,3.5614101563e+003,3.5423076172e+003,3.5692307129e+003,3.5787180176e+003,3.5303845215e+003,3.5723076172e+003,3.5728205566e+003,3.5546154785e+003,
2.3125000000e+000,3.5569230957e+003,3.4215385742e+003,3.4253845215e+003,3.4552563477e+003,3.4228205566e+003,3.4428205566e+003,3.4448718262e+003,3.4212819824e+003,3.4429487305e+003,3.4402563477e+003,3.4011538086e+003,3.4416667480e+003,3.4388461914e+003,3.4255129395e+003,
2.3203125000e+000,3.5257692871e+003,3.3848718262e+003,3.3973076172e+003,3.4235898438e+003,3.3829487305e+003,3.4097436523e+003,3.4124357910e+003,3.3941025391e+003,3.4126923828e+003,3.4084614258e+003,3.3737180176e+003,3.4121794434e+003,3.4043588867e+003,3.3975642090e+003,
2.3281250000e+000,3.4321794434e+003,3.2869230957e+003,3.3044870605e+003,3.3315385742e+003,3.2897436523e+003,3.3142307129e+003,3.3226923828e+003,3.3080769043e+003,3.3220512695e+003,3.3123076172e+003,3.2774357910e+003,3.3221794434e+003,3.3078205566e+003,3.3079487305e+003,
2.3359375000e+000,3.2419230957e+003,3.0875642090e+003,3.1062819824e+003,3.1539743652e+003,3.0930769043e+003,3.1155129395e+003,3.1256411133e+003,3.1256411133e+003,3.1400000000e+003,3.1166667480e+003,3.0724357910e+003,3.1343588867e+003,3.1132050781e+003,3.1178205566e+003,
2.3437500000e+000,3.2237180176e+003,3.0615385742e+003,3.0901281738e+003,3.1369230957e+003,3.0723076172e+003,3.0894870605e+003,3.1032050781e+003,3.0993588867e+003,3.1148718262e+003,3.0902563477e+003,3.0535898438e+003,3.1148718262e+003,3.0905129395e+003,3.0993588867e+003,
2.3515625000e+000,3.4092307129e+003,3.2448718262e+003,3.2669230957e+003,3.3119230957e+003,3.2675642090e+003,3.2555129395e+003,3.2773076172e+003,3.2596154785e+003,3.2797436523e+003,3.2656411133e+003,3.2388461914e+003,3.2834614258e+003,3.2723076172e+003,3.2717949219e+003,
2.3593750000e+000,3.5730769043e+003,3.4165385742e+003,3.4224357910e+003,3.4694870605e+003,3.4361538086e+003,3.4115385742e+003,3.4334614258e+003,3.4161538086e+003,3.4389743652e+003,3.4355129395e+003,3.4044870605e+003,3.4396154785e+003,3.4400000000e+003,3.4278205566e+003,
2.3671875000e+000,3.7639743652e+003,3.6253845215e+003,3.6128205566e+003,3.6594870605e+003,3.6166667480e+003,3.5955129395e+003,3.6057692871e+003,3.6082050781e+003,3.6389743652e+003,3.6532050781e+003,3.6050000000e+003,3.6415385742e+003,3.6394870605e+003,3.6200000000e+003,
2.3750000000e+000,3.7228205566e+003,3.5824357910e+003,3.5762819824e+003,3.6179487305e+003,3.5755129395e+003,3.5557692871e+003,3.5628205566e+003,3.5637180176e+003,3.5982050781e+003,3.6096154785e+003,3.5651281738e+003,3.6041025391e+003,3.5935898438e+003,3.5820512695e+003,
2.3828125000e+000,3.6526923828e+003,3.5065385742e+003,3.5103845215e+003,3.5441025391e+003,3.5105129395e+003,3.4935898438e+003,3.4966667480e+003,3.4824357910e+003,3.5224357910e+003,3.5275642090e+003,3.4924357910e+003,3.5307692871e+003,3.5165385742e+003,3.5120512695e+003,
2.3906250000e+000,3.6365385742e+003,3.4910256348e+003,3.4956411133e+003,3.5293588867e+003,3.4921794434e+003,3.4848718262e+003,3.4851281738e+003,3.4637180176e+003,3.5048718262e+003,3.5103845215e+003,3.4733332520e+003,3.5119230957e+003,3.5032050781e+003,3.4951281738e+003,
2.3984375000e+000,3.5771794434e+003,3.4452563477e+003,3.4438461914e+003,3.4796154785e+003,3.4353845215e+003,3.4529487305e+003,3.4444870605e+003,3.4180769043e+003,3.4579487305e+003,3.4685898438e+003,3.4160256348e+003,3.4570512695e+003,3.4552563477e+003,3.4437180176e+003,
2.4062500000e+000,3.5407692871e+003,3.4087180176e+003,3.4082050781e+003,3.4412819824e+003,3.4097436523e+003,3.4215385742e+003,3.4130769043e+003,3.3882050781e+003,3.4247436523e+003,3.4338461914e+003,3.3860256348e+003,3.4229487305e+003,3.4155129395e+003,3.4094870605e+003,
2.4140625000e+000,3.4991025391e+003,3.3639743652e+003,3.3664101563e+003,3.3973076172e+003,3.3793588867e+003,3.3826923828e+003,3.3753845215e+003,3.3521794434e+003,3.3837180176e+003,3.3894870605e+003,3.3498718262e+003,3.3816667480e+003,3.3694870605e+003,3.3676923828e+003,
2.4218750000e+000,3.4580769043e+003,3.3202563477e+003,3.3251281738e+003,3.3569230957e+003,3.3465385742e+003,3.3447436523e+003,3.3387180176e+003,3.3174357910e+003,3.3432050781e+003,3.3447436523e+003,3.3106411133e+003,3.3398718262e+003,3.3269230957e+003,3.3248718262e+003,
2.4296875000e+000,3.3944870605e+003,3.2635898438e+003,3.2638461914e+003,3.3150000000e+003,3.2746154785e+003,3.3005129395e+003,3.3073076172e+003,3.2757692871e+003,3.2903845215e+003,3.2782050781e+003,3.2215385742e+003,3.2796154785e+003,3.2665385742e+003,3.2589743652e+003,
2.4375000000e+000,3.4025642090e+003,3.2653845215e+003,3.2648718262e+003,3.3089743652e+003,3.2874357910e+003,3.2875642090e+003,3.2997436523e+003,3.2808974609e+003,3.3003845215e+003,3.2938461914e+003,3.2546154785e+003,3.2832050781e+003,3.2758974609e+003,3.2717949219e+003,
2.4453125000e+000,3.3793588867e+003,3.2408974609e+003,3.2426923828e+003,3.2829487305e+003,3.2621794434e+003,3.2594870605e+003,3.2728205566e+003,3.2564101563e+003,3.2789743652e+003,3.2711538086e+003,3.2352563477e+003,3.2647436523e+003,3.2575642090e+003,3.2530769043e+003,
2.4531250000e+000,3.3619230957e+003,3.2125642090e+003,3.2215385742e+003,3.2511538086e+003,3.2300000000e+003,3.2262819824e+003,3.2423076172e+003,3.2255129395e+003,3.2543588867e+003,3.2443588867e+003,3.2057692871e+003,3.2465385742e+003,3.2343588867e+003,3.2361538086e+003,
2.4609375000e+000,3.3532050781e+003,3.1971794434e+003,3.2078205566e+003,3.2364101563e+003,3.2106411133e+003,3.2080769043e+003,3.2228205566e+003,3.2098718262e+003,3.2419230957e+003,3.2326923828e+003,3.1907692871e+003,3.2329487305e+003,3.2178205566e+003,3.2233332520e+003,
2.4687500000e+000,3.1567949219e+003,2.9939743652e+003,3.0108974609e+003,3.0450000000e+003,2.9847436523e+003,2.9991025391e+003,3.0079487305e+003,3.0084614258e+003,3.0553845215e+003,3.0396154785e+003,2.9906411133e+003,3.0374357910e+003,3.0150000000e+003,3.0250000000e+003,
2.4765625000e+000,3.0196154785e+003,2.8417949219e+003,2.8697436523e+003,2.8971794434e+003,2.8525642090e+003,2.8598718262e+003,2.8701281738e+003,2.8592307129e+003,2.9103845215e+003,2.8858974609e+003,2.8287180176e+003,2.8964101563e+003,2.8707692871e+003,2.8866667480e+003,
2.4843750000e+000,3.0082050781e+003,2.8230769043e+003,2.8534614258e+003,2.8834614258e+003,2.8425642090e+003,2.8457692871e+003,2.8556411133e+003,2.8407692871e+003,2.8925642090e+003,2.8676923828e+003,2.8126923828e+003,2.8794870605e+003,2.8539743652e+003,2.8708974609e+003,
2.4921875000e+000,3.0615385742e+003,2.8657692871e+003,2.8955129395e+003,2.9347436523e+003,2.8782050781e+003,2.8914101563e+003,2.9025642090e+003,2.8683332520e+003,2.9320512695e+003,2.9025642090e+003,2.8666667480e+003,2.9156411133e+003,2.8943588867e+003,2.9067949219e+003,
2.5000000000e+000,3.1444870605e+003,2.9471794434e+003,2.9756411133e+003,3.0146154785e+003,2.9557692871e+003,2.9753845215e+003,2.9870512695e+003,2.9447436523e+003,3.0078205566e+003,2.9803845215e+003,2.9430769043e+003,2.9941025391e+003,2.9724357910e+003,2.9839743652e+003,
2.5078125000e+000,3.3628205566e+003,3.1702563477e+003,3.1896154785e+003,3.2326923828e+003,3.1843588867e+003,3.2023076172e+003,3.2102563477e+003,3.1638461914e+003,3.2105129395e+003,3.1983332520e+003,3.1514101563e+003,3.2097436523e+003,3.1862819824e+003,3.1951281738e+003,
2.5156250000e+000,3.4583332520e+003,3.2748718262e+003,3.2834614258e+003,3.3333332520e+003,3.2930769043e+003,3.3029487305e+003,3.3084614258e+003,3.2665385742e+003,3.3034614258e+003,3.2992307129e+003,3.2526923828e+003,3.3073076172e+003,3.2848718262e+003,3.2902563477e+003,
2.5234375000e+000,3.6266667480e+003,3.4729487305e+003,3.4585898438e+003,3.5097436523e+003,3.4838461914e+003,3.4871794434e+003,3.4960256348e+003,3.4600000000e+003,3.4807692871e+003,3.4898718262e+003,3.4458974609e+003,3.4882050781e+003,3.4706411133e+003,3.4665385742e+003,
2.5312500000e+000,3.6823076172e+003,3.5323076172e+003,3.5197436523e+003,3.5616667480e+003,3.5429487305e+003,3.5484614258e+003,3.5584614258e+003,3.5202563477e+003,3.5351281738e+003,3.5507692871e+003,3.4997436523e+003,3.5457692871e+003,3.5294870605e+003,3.5232050781e+003,
2.5390625000e+000,3.7483332520e+003,3.6015385742e+003,3.5905129395e+003,3.6250000000e+003,3.6165385742e+003,3.6193588867e+003,3.6279487305e+003,3.5903845215e+003,3.5987180176e+003,3.6229487305e+003,3.5648718262e+003,3.6128205566e+003,3.5988461914e+003,3.5888461914e+003,
2.5468750000e+000,3.8055129395e+003,3.6633332520e+003,3.6514101563e+003,3.6837180176e+003,3.6855129395e+003,3.6798718262e+003,3.6858974609e+003,3.6528205566e+003,3.6562819824e+003,3.6885898438e+003,3.6275642090e+003,3.6729487305e+003,3.6610256348e+003,3.6467949219e+003,
2.5546875000e+000,3.8587180176e+003,3.7464101563e+003,3.7088461914e+003,3.7548718262e+003,3.7603845215e+003,3.7323076172e+003,3.7424357910e+003,3.7211538086e+003,3.7362819824e+003,3.7666667480e+003,3.7169230957e+003,3.7505129395e+003,3.7329487305e+003,3.7235898438e+003,
2.5625000000e+000,3.9655129395e+003,3.8615385742e+003,3.8152563477e+003,3.8583332520e+003,3.8660256348e+003,3.8355129395e+003,3.8461538086e+003,3.8265385742e+003,3.8462819824e+003,3.8784614258e+003,3.8265385742e+003,3.8573076172e+003,3.8450000000e+003,3.8302563477e+003,
2.5703125000e+000,4.1112822266e+003,4.0271794434e+003,3.9887180176e+003,4.0130769043e+003,4.0300000000e+003,3.9852563477e+003,3.9851281738e+003,3.9976923828e+003,4.0224357910e+003,4.0753845215e+003,4.0087180176e+003,4.0269230957e+003,4.0232050781e+003,3.9919230957e+003,
2.5781250000e+000,3.4533332520e+003,3.3656411133e+003,3.3506411133e+003,3.3717949219e+003,3.3653845215e+003,3.3474357910e+003,3.3466667480e+003,3.3624357910e+003,3.3983332520e+003,3.4184614258e+003,3.3571794434e+003,3.3952563477e+003,3.3646154785e+003,3.3630769043e+003,
2.5859375000e+000,3.3008974609e+003,3.2055129395e+003,3.1978205566e+003,3.2191025391e+003,3.2008974609e+003,3.1946154785e+003,3.1969230957e+003,3.2001281738e+003,3.2426923828e+003,3.2480769043e+003,3.1948718262e+003,3.2384614258e+003,3.2060256348e+003,3.2102563477e+003,
2.5937500000e+000,3.1584614258e+003,3.0341025391e+003,3.0507692871e+003,3.0794870605e+003,3.0233332520e+003,3.0405129395e+003,3.0429487305e+003,3.0246154785e+003,3.0879487305e+003,3.0797436523e+003,3.0291025391e+003,3.0760256348e+003,3.0543588867e+003,3.0605129395e+003,
2.6015625000e+000,2.6432050781e+003,2.4929487305e+003,2.5279487305e+003,2.5719230957e+003,2.5151281738e+003,2.5414101563e+003,2.5466667480e+003,2.5228205566e+003,2.5911538086e+003,2.5493588867e+003,2.4906411133e+003,2.5648718262e+003,2.5292307129e+003,2.5519230957e+003,
2.6093750000e+000,2.5205129395e+003,2.3557692871e+003,2.3960256348e+003,2.4484614258e+003,2.3919230957e+003,2.4164101563e+003,2.4256411133e+003,2.3923076172e+003,2.4611538086e+003,2.4058974609e+003,2.3503845215e+003,2.4302563477e+003,2.3935898438e+003,2.4192307129e+003,
2.6171875000e+000,2.4912819824e+003,2.3119230957e+003,2.3550000000e+003,2.4153845215e+003,2.3555129395e+003,2.3792307129e+003,2.3924357910e+003,2.3496154785e+003,2.4179487305e+003,2.3558974609e+003,2.3032050781e+003,2.3837180176e+003,2.3503845215e+003,2.3750000000e+003,
2.6250000000e+000,2.6050000000e+003,2.4085898438e+003,2.4524357910e+003,2.5135898438e+003,2.4462819824e+003,2.4789743652e+003,2.4994870605e+003,2.4457692871e+003,2.5066667480e+003,2.4474357910e+003,2.3974357910e+003,2.4770512695e+003,2.4455129395e+003,2.4696154785e+003,
2.6328125000e+000,2.6652563477e+003,2.4664101563e+003,2.5096154785e+003,2.5648718262e+003,2.4979487305e+003,2.5374357910e+003,2.5610256348e+003,2.5067949219e+003,2.5619230957e+003,2.5071794434e+003,2.4579487305e+003,2.5380769043e+003,2.5020512695e+003,2.5300000000e+003,
2.6406250000e+000,2.6723076172e+003,2.4658974609e+003,2.5073076172e+003,2.5591025391e+003,2.4958974609e+003,2.5396154785e+003,2.5661538086e+003,2.5205129395e+003,2.5648718262e+003,2.5182050781e+003,2.4696154785e+003,2.5437180176e+003,2.5038461914e+003,2.5371794434e+003,
2.6484375000e+000,2.6106411133e+003,2.3957692871e+003,2.4387180176e+003,2.4946154785e+003,2.4288461914e+003,2.4724357910e+003,2.4992307129e+003,2.4587180176e+003,2.4989743652e+003,2.4526923828e+003,2.4033332520e+003,2.4747436523e+003,2.4355129395e+003,2.4694870605e+003,
2.6562500000e+000,2.3642307129e+003,2.1221794434e+003,2.1812819824e+003,2.2361538086e+003,2.1534614258e+003,2.2156411133e+003,2.2480769043e+003,2.2035898438e+003,2.2435898438e+003,2.1750000000e+003,2.1187180176e+003,2.2103845215e+003,2.1628205566e+003,2.2033332520e+003,
2.6640625000e+000,2.3083332520e+003,2.0601281738e+003,2.1216667480e+003,2.1770512695e+003,2.0903845215e+003,2.1584614258e+003,2.1930769043e+003,2.1488461914e+003,2.1935898438e+003,2.1169230957e+003,2.0547436523e+003,2.1542307129e+003,2.1061538086e+003,2.1469230957e+003,
2.6718750000e+000,2.2546154785e+003,1.9991025391e+003,2.0617949219e+003,2.1228205566e+003,2.0314102783e+003,2.1005129395e+003,2.1367949219e+003,2.0956411133e+003,2.1460256348e+003,2.0646154785e+003,1.9966666260e+003,2.0997436523e+003,2.0524357910e+003,2.0932050781e+003,
2.6796875000e+000,2.1317949219e+003,1.8294871826e+003,1.9006409912e+003,1.9769230957e+003,1.8362821045e+003,1.9193590088e+003,1.9592307129e+003,1.9161538086e+003,1.9933333740e+003,1.9034615479e+003,1.8514102783e+003,1.9338461914e+003,1.8919230957e+003,1.9342307129e+003,
2.6875000000e+000,2.1302563477e+003,1.8237178955e+003,1.8908974609e+003,1.9773077393e+003,1.8303846436e+003,1.9111538086e+003,1.9515384521e+003,1.9058974609e+003,1.9880769043e+003,1.9002564697e+003,1.8421794434e+003,1.9266666260e+003,1.8910256348e+003,1.9287178955e+003,
2.6953125000e+000,2.0596154785e+003,1.7383333740e+003,1.7958974609e+003,1.9015384521e+003,1.7773077393e+003,1.8124359131e+003,1.8494871826e+003,1.7978205566e+003,1.8908974609e+003,1.8011538086e+003,1.7341025391e+003,1.8371794434e+003,1.7967949219e+003,1.8415384521e+003,
2.7031250000e+000,2.0596154785e+003,1.7224359131e+003,1.7832050781e+003,1.8674359131e+003,1.7507692871e+003,1.7947435303e+003,1.8266666260e+003,1.7697435303e+003,1.8712821045e+003,1.7746153564e+003,1.7151281738e+003,1.8185897217e+003,1.7692307129e+003,1.8228205566e+003,
2.7109375000e+000,2.0648718262e+003,1.7215384521e+003,1.7848718262e+003,1.8671794434e+003,1.7484615479e+003,1.7997435303e+003,1.8311538086e+003,1.7741025391e+003,1.8779487305e+003,1.7833333740e+003,1.7187178955e+003,1.8193590088e+003,1.7737178955e+003,1.8238461914e+003,
2.7187500000e+000,2.0115384521e+003,1.6487178955e+003,1.7224359131e+003,1.8117949219e+003,1.6930769043e+003,1.7529487305e+003,1.7806409912e+003,1.7266666260e+003,1.8257692871e+003,1.7364102783e+003,1.6555128174e+003,1.7603846436e+003,1.7116666260e+003,1.7593590088e+003,
2.7265625000e+000,1.9393590088e+003,1.5602564697e+003,1.6387178955e+003,1.7394871826e+003,1.6014102783e+003,1.6753846436e+003,1.7120512695e+003,1.6466666260e+003,1.7271794434e+003,1.6398718262e+003,1.5629487305e+003,1.6757692871e+003,1.6221794434e+003,1.6800000000e+003,
2.7343750000e+000,1.9266666260e+003,1.5461538086e+003,1.6219230957e+003,1.7248718262e+003,1.5875640869e+003,1.6616666260e+003,1.7038461914e+003,1.6338461914e+003,1.7067949219e+003,1.6225640869e+003,1.5444871826e+003,1.6579487305e+003,1.6082050781e+003,1.6641025391e+003,
2.7421875000e+000,1.8775640869e+003,1.4878205566e+003,1.5564102783e+003,1.6578205566e+003,1.5260256348e+003,1.6041025391e+003,1.6598718262e+003,1.5793590088e+003,1.6378205566e+003,1.5511538086e+003,1.4764102783e+003,1.5978205566e+003,1.5367949219e+003,1.5965384521e+003,
2.7500000000e+000,1.9047435303e+003,1.5091025391e+003,1.5753846436e+003,1.6776922607e+003,1.5411538086e+003,1.6230769043e+003,1.6808974609e+003,1.5993590088e+003,1.6596153564e+003,1.5706409912e+003,1.5021794434e+003,1.6169230957e+003,1.5574359131e+003,1.6170512695e+003,
2.7578125000e+000,1.9955128174e+003,1.5894871826e+003,1.6588461914e+003,1.7589743652e+003,1.6110256348e+003,1.7020512695e+003,1.7583333740e+003,1.6839743652e+003,1.7507692871e+003,1.6616666260e+003,1.5985897217e+003,1.6967949219e+003,1.6512821045e+003,1.7014102783e+003,
2.7656250000e+000,2.0015384521e+003,1.5917949219e+003,1.6656409912e+003,1.7638461914e+003,1.6147435303e+003,1.7064102783e+003,1.7608974609e+003,1.6928205566e+003,1.7606409912e+003,1.6714102783e+003,1.6056409912e+003,1.7039743652e+003,1.6592307129e+003,1.7065384521e+003,
2.7734375000e+000,1.9697435303e+003,1.5582050781e+003,1.6334615479e+003,1.7324359131e+003,1.5878205566e+003,1.6733333740e+003,1.7267949219e+003,1.6644871826e+003,1.7324359131e+003,1.6411538086e+003,1.5714102783e+003,1.6744871826e+003,1.6239743652e+003,1.6729487305e+003,
2.7812500000e+000,1.8926922607e+003,1.4821794434e+003,1.5470512695e+003,1.6592307129e+003,1.5305128174e+003,1.5879487305e+003,1.6410256348e+003,1.5869230957e+003,1.6603846436e+003,1.5608974609e+003,1.4853846436e+003,1.5952564697e+003,1.5310256348e+003,1.5898718262e+003,
2.7890625000e+000,1.8950000000e+003,1.4834615479e+003,1.5442307129e+003,1.6629487305e+003,1.5370512695e+003,1.5830769043e+003,1.6352564697e+003,1.5842307129e+003,1.6635897217e+003,1.5617949219e+003,1.4834615479e+003,1.5939743652e+003,1.5303846436e+003,1.5894871826e+003,
2.7968750000e+000,1.9244871826e+003,1.5093590088e+003,1.5710256348e+003,1.6919230957e+003,1.5625640869e+003,1.6046153564e+003,1.6555128174e+003,1.6069230957e+003,1.6920512695e+003,1.5921794434e+003,1.5083333740e+003,1.6205128174e+003,1.5630769043e+003,1.6173077393e+003,
2.8046875000e+000,1.9153846436e+003,1.4946153564e+003,1.5519230957e+003,1.6661538086e+003,1.5275640869e+003,1.5633333740e+003,1.6137178955e+003,1.5666666260e+003,1.6594871826e+003,1.5889743652e+003,1.5050000000e+003,1.6112821045e+003,1.5512821045e+003,1.6042307129e+003,
2.8125000000e+000,1.9202564697e+003,1.4948718262e+003,1.5544871826e+003,1.6639743652e+003,1.5239743652e+003,1.5624359131e+003,1.6123077393e+003,1.5592307129e+003,1.6560256348e+003,1.5824359131e+003,1.5057692871e+003,1.6107692871e+003,1.5466666260e+003,1.6037178955e+003,
2.8203125000e+000,2.0794870605e+003,1.6501281738e+003,1.7097435303e+003,1.7960256348e+003,1.6620512695e+003,1.7132050781e+003,1.7574359131e+003,1.6944871826e+003,1.7957692871e+003,1.7371794434e+003,1.6460256348e+003,1.7580769043e+003,1.7144871826e+003,1.7516666260e+003,
2.8281250000e+000,2.1643588867e+003,1.7517949219e+003,1.7975640869e+003,1.8905128174e+003,1.7841025391e+003,1.8078205566e+003,1.8420512695e+003,1.7744871826e+003,1.8694871826e+003,1.8296153564e+003,1.7370512695e+003,1.8502564697e+003,1.8001281738e+003,1.8380769043e+003,
2.8359375000e+000,2.2020512695e+003,1.7926922607e+003,1.8355128174e+003,1.9303846436e+003,1.8242307129e+003,1.8482050781e+003,1.8794871826e+003,1.8055128174e+003,1.8984615479e+003,1.8624359131e+003,1.7756409912e+003,1.8858974609e+003,1.8287178955e+003,1.8707692871e+003,
2.8437500000e+000,2.3094870605e+003,1.9134615479e+003,1.9464102783e+003,2.0393590088e+003,1.9247435303e+003,1.9566666260e+003,1.9937178955e+003,1.9057692871e+003,1.9824359131e+003,1.9679487305e+003,1.8915384521e+003,1.9962821045e+003,1.9376922607e+003,1.9761538086e+003,
2.8515625000e+000,2.3284614258e+003,1.9402564697e+003,1.9733333740e+003,2.0676923828e+003,1.9783333740e+003,1.9880769043e+003,2.0294871826e+003,1.9479487305e+003,2.0116666260e+003,2.0085897217e+003,1.9202564697e+003,2.0265384521e+003,1.9743590088e+003,2.0030769043e+003,
2.8593750000e+000,2.3250000000e+003,1.9365384521e+003,1.9706409912e+003,2.0656411133e+003,1.9778205566e+003,1.9921794434e+003,2.0334615479e+003,1.9533333740e+003,2.0150000000e+003,2.0096153564e+003,1.9206409912e+003,2.0258974609e+003,1.9706409912e+003,2.0010256348e+003,
2.8671875000e+000,2.3229487305e+003,1.9355128174e+003,1.9692307129e+003,2.0630769043e+003,1.9715384521e+003,1.9955128174e+003,2.0385897217e+003,1.9580769043e+003,2.0191025391e+003,2.0100000000e+003,1.9208974609e+003,2.0270512695e+003,1.9684615479e+003,2.0005128174e+003,
2.8750000000e+000,2.3375642090e+003,1.9565384521e+003,1.9844871826e+003,2.0719230957e+003,1.9780769043e+003,2.0107692871e+003,2.0612819824e+003,1.9835897217e+003,2.0474359131e+003,2.0330769043e+003,1.9352564697e+003,2.0475640869e+003,1.9891025391e+003,2.0165384521e+003,
2.8828125000e+000,2.3417949219e+003,1.9628205566e+003,1.9887178955e+003,2.0724357910e+003,1.9853846436e+003,2.0141025391e+003,2.0664101563e+003,1.9953846436e+003,2.0612819824e+003,2.0455128174e+003,1.9405128174e+003,2.0539743652e+003,1.9980769043e+003,2.0214102783e+003,
2.8906250000e+000,2.3020512695e+003,1.9206409912e+003,1.9530769043e+003,2.0232050781e+003,1.9528205566e+003,1.9769230957e+003,2.0258974609e+003,1.9725640869e+003,2.0435897217e+003,2.0205128174e+003,1.9144871826e+003,2.0187178955e+003,1.9648718262e+003,1.9870512695e+003,
2.8984375000e+000,2.2679487305e+003,1.8853846436e+003,1.9214102783e+003,1.9842307129e+003,1.9151281738e+003,1.9433333740e+003,1.9889743652e+003,1.9432050781e+003,2.0185897217e+003,1.9903846436e+003,1.8906409912e+003,1.9866666260e+003,1.9317949219e+003,1.9569230957e+003,
2.9062500000e+000,2.2219230957e+003,1.8465384521e+003,1.8733333740e+003,1.9474359131e+003,1.8541025391e+003,1.8915384521e+003,1.9320512695e+003,1.8925640869e+003,1.9811538086e+003,1.9558974609e+003,1.8534615479e+003,1.9465384521e+003,1.8965384521e+003,1.9165384521e+003,
2.9140625000e+000,2.2546154785e+003,1.8820512695e+003,1.9042307129e+003,1.9850000000e+003,1.8930769043e+003,1.9214102783e+003,1.9623077393e+003,1.9202564697e+003,2.0092307129e+003,1.9896153564e+003,1.8803846436e+003,1.9794871826e+003,1.9365384521e+003,1.9492307129e+003,
2.9218750000e+000,2.3091025391e+003,1.9393590088e+003,1.9576922607e+003,2.0403846436e+003,1.9579487305e+003,1.9719230957e+003,2.0129487305e+003,1.9698718262e+003,2.0583332520e+003,2.0435897217e+003,1.9289743652e+003,2.0338461914e+003,1.9965384521e+003,2.0037178955e+003,
2.9296875000e+000,2.5373076172e+003,2.1864101563e+003,2.1847436523e+003,2.2703845215e+003,2.2046154785e+003,2.1991025391e+003,2.2367949219e+003,2.1712819824e+003,2.2583332520e+003,2.2664101563e+003,2.1720512695e+003,2.2637180176e+003,2.2160256348e+003,2.2302563477e+003,
2.9375000000e+000,2.7060256348e+003,2.3629487305e+003,2.3520512695e+003,2.4339743652e+003,2.3841025391e+003,2.3719230957e+003,2.4064101563e+003,2.3335898438e+003,2.4180769043e+003,2.4379487305e+003,2.3453845215e+003,2.4293588867e+003,2.3955129395e+003,2.3952563477e+003,
2.9453125000e+000,3.1079487305e+003,2.8029487305e+003,2.7762819824e+003,2.8321794434e+003,2.8243588867e+003,2.7935898438e+003,2.8123076172e+003,2.7489743652e+003,2.8269230957e+003,2.8833332520e+003,2.7683332520e+003,2.8547436523e+003,2.8330769043e+003,2.8047436523e+003,
2.9531250000e+000,3.0924357910e+003,2.8005129395e+003,2.7696154785e+003,2.8241025391e+003,2.8176923828e+003,2.7882050781e+003,2.8044870605e+003,2.7429487305e+003,2.8176923828e+003,2.8803845215e+003,2.7621794434e+003,2.8524357910e+003,2.8201281738e+003,2.7961538086e+003,
2.9609375000e+000,3.0373076172e+003,2.7602563477e+003,2.7221794434e+003,2.7791025391e+003,2.7752563477e+003,2.7516667480e+003,2.7698718262e+003,2.6953845215e+003,2.7614101563e+003,2.8282050781e+003,2.7156411133e+003,2.8102563477e+003,2.7644870605e+003,2.7464101563e+003,
2.9687500000e+000,3.1083332520e+003,2.8358974609e+003,2.7969230957e+003,2.8501281738e+003,2.8506411133e+003,2.8287180176e+003,2.8508974609e+003,2.7665385742e+003,2.8260256348e+003,2.8969230957e+003,2.7883332520e+003,2.8829487305e+003,2.8392307129e+003,2.8171794434e+003,
2.9765625000e+000,3.6373076172e+003,3.4085898438e+003,3.3473076172e+003,3.3888461914e+003,3.4071794434e+003,3.3658974609e+003,3.3926923828e+003,3.3270512695e+003,3.3603845215e+003,3.4684614258e+003,3.3665385742e+003,3.4328205566e+003,3.4003845215e+003,3.3585898438e+003,
2.9843750000e+000,3.3587180176e+003,3.1648718262e+003,3.1110256348e+003,3.1365385742e+003,3.1714101563e+003,3.1273076172e+003,3.1432050781e+003,3.1287180176e+003,3.1564101563e+003,3.2634614258e+003,3.1460256348e+003,3.2146154785e+003,3.1661538086e+003,3.1235898438e+003,
2.9921875000e+000,3.0841025391e+003,2.8832050781e+003,2.8484614258e+003,2.8680769043e+003,2.9001281738e+003,2.8662819824e+003,2.8832050781e+003,2.8701281738e+003,2.9047436523e+003,2.9935898438e+003,2.8694870605e+003,2.9497436523e+003,2.8993588867e+003,2.8614101563e+003,
3.0000000000e+000,2.8443588867e+003,2.6339743652e+003,2.6138461914e+003,2.6342307129e+003,2.6565385742e+003,2.6335898438e+003,2.6544870605e+003,2.6378205566e+003,2.6814101563e+003,2.7494870605e+003,2.6220512695e+003,2.7097436523e+003,2.6607692871e+003,2.6280769043e+003,
3.0078125000e+000,2.6820512695e+003,2.4656411133e+003,2.4508974609e+003,2.4778205566e+003,2.4855129395e+003,2.4714101563e+003,2.4976923828e+003,2.4769230957e+003,2.5298718262e+003,2.5789743652e+003,2.4521794434e+003,2.5424357910e+003,2.4935898438e+003,2.4669230957e+003,
3.0156250000e+000,2.4351281738e+003,2.2017949219e+003,2.1975642090e+003,2.2301281738e+003,2.2108974609e+003,2.2062819824e+003,2.2446154785e+003,2.2144870605e+003,2.2903845215e+003,2.3088461914e+003,2.1905129395e+003,2.2920512695e+003,2.2239743652e+003,2.2187180176e+003,
3.0234375000e+000,2.4133332520e+003,2.1715385742e+003,2.1712819824e+003,2.2038461914e+003,2.1893588867e+003,2.1823076172e+003,2.2198718262e+003,2.1879487305e+003,2.2647436523e+003,2.2817949219e+003,2.1642307129e+003,2.2651281738e+003,2.2044870605e+003,2.1965385742e+003,
3.0312500000e+000,2.4637180176e+003,2.2192307129e+003,2.2046154785e+003,2.2555129395e+003,2.2365385742e+003,2.2225642090e+003,2.2579487305e+003,2.2189743652e+003,2.3015385742e+003,2.3173076172e+003,2.2039743652e+003,2.2998718262e+003,2.2525642090e+003,2.2356411133e+003,
3.0390625000e+000,2.5319230957e+003,2.2869230957e+003,2.2716667480e+003,2.3146154785e+003,2.2916667480e+003,2.2903845215e+003,2.3238461914e+003,2.2703845215e+003,2.3532050781e+003,2.3828205566e+003,2.2569230957e+003,2.3591025391e+003,2.3108974609e+003,2.2928205566e+003,
3.0468750000e+000,2.5794870605e+003,2.3344870605e+003,2.3203845215e+003,2.3587180176e+003,2.3411538086e+003,2.3396154785e+003,2.3741025391e+003,2.3139743652e+003,2.3951281738e+003,2.4275642090e+003,2.3030769043e+003,2.4065385742e+003,2.3565385742e+003,2.3412819824e+003,
3.0546875000e+000,2.8826923828e+003,2.6541025391e+003,2.6244870605e+003,2.6661538086e+003,2.6708974609e+003,2.6442307129e+003,2.6732050781e+003,2.5975642090e+003,2.6851281738e+003,2.7384614258e+003,2.6341025391e+003,2.7161538086e+003,2.6685898438e+003,2.6456411133e+003,
3.0625000000e+000,2.9238461914e+003,2.6996154785e+003,2.6705129395e+003,2.7106411133e+003,2.7201281738e+003,2.6874357910e+003,2.7112819824e+003,2.6394870605e+003,2.7261538086e+003,2.7908974609e+003,2.6861538086e+003,2.7646154785e+003,2.7176923828e+003,2.6905129395e+003,
3.0703125000e+000,2.6769230957e+003,2.4451281738e+003,2.4393588867e+003,2.4725642090e+003,2.4757692871e+003,2.4524357910e+003,2.4732050781e+003,2.4010256348e+003,2.4738461914e+003,2.5401281738e+003,2.4316667480e+003,2.5361538086e+003,2.4693588867e+003,2.4555129395e+003,
3.0781250000e+000,2.6447436523e+003,2.4135898438e+003,2.4053845215e+003,2.4424357910e+003,2.4448718262e+003,2.4241025391e+003,2.4487180176e+003,2.3671794434e+003,2.4376923828e+003,2.5001281738e+003,2.3966667480e+003,2.5017949219e+003,2.4314101563e+003,2.4207692871e+003,
3.0859375000e+000,2.7787180176e+003,2.5598718262e+003,2.5357692871e+003,2.5833332520e+003,2.5787180176e+003,2.5647436523e+003,2.5982050781e+003,2.5142307129e+003,2.5753845215e+003,2.6424357910e+003,2.5370512695e+003,2.6305129395e+003,2.5706411133e+003,2.5505129395e+003,
3.0937500000e+000,2.8491025391e+003,2.6366667480e+003,2.6085898438e+003,2.6583332520e+003,2.6462819824e+003,2.6388461914e+003,2.6751281738e+003,2.6038461914e+003,2.6561538086e+003,2.7278205566e+003,2.6101281738e+003,2.7037180176e+003,2.6508974609e+003,2.6233332520e+003,
3.1015625000e+000,2.7111538086e+003,2.5044870605e+003,2.4807692871e+003,2.5296154785e+003,2.5280769043e+003,2.5130769043e+003,2.5515385742e+003,2.5185898438e+003,2.5646154785e+003,2.6238461914e+003,2.4869230957e+003,2.5848718262e+003,2.5248718262e+003,2.5026923828e+003,
3.1093750000e+000,2.6289743652e+003,2.4219230957e+003,2.3997436523e+003,2.4471794434e+003,2.4528205566e+003,2.4325642090e+003,2.4726923828e+003,2.4392307129e+003,2.4924357910e+003,2.5421794434e+003,2.4152563477e+003,2.5046154785e+003,2.4403845215e+003,2.4252563477e+003,
3.1171875000e+000,2.5698718262e+003,2.3629487305e+003,2.3429487305e+003,2.3860256348e+003,2.3774357910e+003,2.3717949219e+003,2.4160256348e+003,2.3789743652e+003,2.4437180176e+003,2.4808974609e+003,2.3662819824e+003,2.4430769043e+003,2.3817949219e+003,2.3716667480e+003,
3.1250000000e+000,2.5607692871e+003,2.3535898438e+003,2.3361538086e+003,2.3776923828e+003,2.3564101563e+003,2.3612819824e+003,2.4061538086e+003,2.3723076172e+003,2.4392307129e+003,2.4742307129e+003,2.3542307129e+003,2.4334614258e+003,2.3765385742e+003,2.3641025391e+003,
3.1328125000e+000,2.5301281738e+003,2.3211538086e+003,2.3082050781e+003,2.3502563477e+003,2.3225642090e+003,2.3293588867e+003,2.3741025391e+003,2.3439743652e+003,2.4125642090e+003,2.4473076172e+003,2.3179487305e+003,2.4037180176e+003,2.3487180176e+003,2.3346154785e+003,
3.1406250000e+000,2.4738461914e+003,2.2607692871e+003,2.2532050781e+003,2.2988461914e+003,2.2732050781e+003,2.2706411133e+003,2.3150000000e+003,2.2857692871e+003,2.3575642090e+003,2.3926923828e+003,2.2553845215e+003,2.3478205566e+003,2.2912819824e+003,2.2784614258e+003,
3.1484375000e+000,2.2812819824e+003,2.0561538086e+003,2.0521794434e+003,2.1169230957e+003,2.0841025391e+003,2.0617949219e+003,2.1083332520e+003,2.0646154785e+003,2.1561538086e+003,2.1807692871e+003,2.0462821045e+003,2.1443588867e+003,2.0816667480e+003,2.0764101563e+003,
3.1562500000e+000,2.0752563477e+003,1.8335897217e+003,1.8414102783e+003,1.8988461914e+003,1.8579487305e+003,1.8533333740e+003,1.8943590088e+003,1.8330769043e+003,1.9258974609e+003,1.9503846436e+003,1.8226922607e+003,1.9320512695e+003,1.8670512695e+003,1.8632050781e+003,
3.1640625000e+000,1.9838461914e+003,1.7291025391e+003,1.7397435303e+003,1.8175640869e+003,1.7320512695e+003,1.7543590088e+003,1.7980769043e+003,1.7196153564e+003,1.8132050781e+003,1.8269230957e+003,1.7075640869e+003,1.8320512695e+003,1.7526922607e+003,1.7635897217e+003,
3.1718750000e+000,1.9664102783e+003,1.7062821045e+003,1.7194871826e+003,1.8005128174e+003,1.7100000000e+003,1.7334615479e+003,1.7773077393e+003,1.6957692871e+003,1.7889743652e+003,1.8005128174e+003,1.6825640869e+003,1.8129487305e+003,1.7239743652e+003,1.7429487305e+003,
3.1796875000e+000,2.0029487305e+003,1.7224359131e+003,1.7419230957e+003,1.8330769043e+003,1.7592307129e+003,1.7632050781e+003,1.8061538086e+003,1.7120512695e+003,1.7997435303e+003,1.8165384521e+003,1.6898718262e+003,1.8271794434e+003,1.7446153564e+003,1.7626922607e+003,
3.1875000000e+000,2.0293590088e+003,1.7433333740e+003,1.7646153564e+003,1.8589743652e+003,1.7788461914e+003,1.7916666260e+003,1.8356409912e+003,1.7367949219e+003,1.8207692871e+003,1.8360256348e+003,1.7123077393e+003,1.8460256348e+003,1.7682050781e+003,1.7832050781e+003,
3.1953125000e+000,2.0406409912e+003,1.7580769043e+003,1.7714102783e+003,1.8701281738e+003,1.7857692871e+003,1.8102564697e+003,1.8612821045e+003,1.7738461914e+003,1.8484615479e+003,1.8575640869e+003,1.7387178955e+003,1.8594871826e+003,1.7776922607e+003,1.7932050781e+003,
3.2031250000e+000,2.0173077393e+003,1.7382050781e+003,1.7480769043e+003,1.8464102783e+003,1.7760256348e+003,1.7885897217e+003,1.8421794434e+003,1.7594871826e+003,1.8330769043e+003,1.8406409912e+003,1.7165384521e+003,1.8407692871e+003,1.7584615479e+003,1.7710256348e+003,
3.2109375000e+000,2.0898718262e+003,1.8189743652e+003,1.8146153564e+003,1.9194871826e+003,1.8702564697e+003,1.8634615479e+003,1.9196153564e+003,1.8311538086e+003,1.9033333740e+003,1.9124359131e+003,1.7784615479e+003,1.9069230957e+003,1.8378205566e+003,1.8348718262e+003,
3.2187500000e+000,2.2444870605e+003,1.9819230957e+003,1.9625640869e+003,2.0761538086e+003,2.0271794434e+003,2.0178205566e+003,2.0738461914e+003,1.9806409912e+003,2.0498718262e+003,2.0682050781e+003,1.9302564697e+003,2.0535898438e+003,1.9939743652e+003,1.9828205566e+003,
3.2265625000e+000,2.9067949219e+003,2.6764101563e+003,2.6244870605e+003,2.7342307129e+003,2.7003845215e+003,2.6693588867e+003,2.7205129395e+003,2.6476923828e+003,2.7029487305e+003,2.7725642090e+003,2.6176923828e+003,2.7207692871e+003,2.6638461914e+003,2.6458974609e+003,
3.2343750000e+000,3.0526923828e+003,2.8311538086e+003,2.7766667480e+003,2.8721794434e+003,2.8552563477e+003,2.8110256348e+003,2.8578205566e+003,2.7976923828e+003,2.8529487305e+003,2.9352563477e+003,2.7765385742e+003,2.8730769043e+003,2.8170512695e+003,2.7950000000e+003,
3.2421875000e+000,3.1988461914e+003,3.0019230957e+003,2.9306411133e+003,3.0093588867e+003,3.0170512695e+003,2.9608974609e+003,2.9961538086e+003,2.9510256348e+003,3.0112819824e+003,3.1064101563e+003,2.9502563477e+003,3.0274357910e+003,2.9837180176e+003,2.9441025391e+003,
3.2500000000e+000,3.2564101563e+003,3.0744870605e+003,2.9911538086e+003,3.0702563477e+003,3.0806411133e+003,3.0226923828e+003,3.0544870605e+003,3.0120512695e+003,3.0721794434e+003,3.1724357910e+003,3.0206411133e+003,3.0892307129e+003,3.0485898438e+003,3.0026923828e+003,
3.2578125000e+000,3.3362819824e+003,3.1683332520e+003,3.0756411133e+003,3.1558974609e+003,3.1662819824e+003,3.1033332520e+003,3.1339743652e+003,3.0941025391e+003,3.1516667480e+003,3.2589743652e+003,3.1111538086e+003,3.1750000000e+003,3.1317949219e+003,3.0848718262e+003,
3.2656250000e+000,3.9173076172e+003,3.8073076172e+003,3.6985898438e+003,3.7514101563e+003,3.7930769043e+003,3.6912819824e+003,3.7044870605e+003,3.6756411133e+003,3.7301281738e+003,3.8874357910e+003,3.7352563477e+003,3.8092307129e+003,3.7557692871e+003,3.7029487305e+003,
3.2734375000e+000,3.9856411133e+003,3.8882050781e+003,3.7779487305e+003,3.8317949219e+003,3.8805129395e+003,3.7678205566e+003,3.7774357910e+003,3.7507692871e+003,3.8043588867e+003,3.9708974609e+003,3.8219230957e+003,3.8950000000e+003,3.8403845215e+003,3.7844870605e+003,
3.2812500000e+000,3.9426923828e+003,3.8934614258e+003,3.7752563477e+003,3.8219230957e+003,3.8919230957e+003,3.7707692871e+003,3.7738461914e+003,3.7471794434e+003,3.7912819824e+003,3.9697436523e+003,3.8471794434e+003,3.8928205566e+003,3.8344870605e+003,3.7760256348e+003,
3.2890625000e+000,3.9360256348e+003,3.9030769043e+003,3.7794870605e+003,3.8178205566e+003,3.8955129395e+003,3.7832050781e+003,3.7856411133e+003,3.7507692871e+003,3.7916667480e+003,3.9717949219e+003,3.8492307129e+003,3.8928205566e+003,3.8367949219e+003,3.7760256348e+003,
3.2968750000e+000,4.0735898438e+003,4.0671794434e+003,3.9335898438e+003,3.9616667480e+003,4.0533332520e+003,3.9480769043e+003,3.9516667480e+003,3.9062819824e+003,3.9425642090e+003,4.1316665039e+003,3.9951281738e+003,4.0417949219e+003,3.9976923828e+003,3.9241025391e+003,
3.3046875000e+000,4.1947436523e+003,4.2310258789e+003,4.0989741211e+003,4.1266665039e+003,4.2289741211e+003,4.1246152344e+003,4.1297436523e+003,4.1075639648e+003,4.1326923828e+003,4.3180771484e+003,4.1720512695e+003,4.2015385742e+003,4.1619228516e+003,4.0807692871e+003,
3.3125000000e+000,4.1806411133e+003,4.2285898438e+003,4.0908974609e+003,4.1217949219e+003,4.2289741211e+003,4.1278203125e+003,4.1319228516e+003,4.1097436523e+003,4.1344873047e+003,4.3166665039e+003,4.1637177734e+003,4.1943588867e+003,4.1551284180e+003,4.0755129395e+003,
3.3203125000e+000,4.1847436523e+003,4.2432050781e+003,4.0988461914e+003,4.1362822266e+003,4.2448715820e+003,4.1452563477e+003,4.1479487305e+003,4.1266665039e+003,4.1515385742e+003,4.3330771484e+003,4.1742309570e+003,4.2044873047e+003,4.1675639648e+003,4.0875642090e+003,
3.3281250000e+000,4.1794873047e+003,4.2533334961e+003,4.1084614258e+003,4.1543588867e+003,4.2473076172e+003,4.1552563477e+003,4.1574360352e+003,4.1446152344e+003,4.1671796875e+003,4.3497436523e+003,4.1933334961e+003,4.2166665039e+003,4.1806411133e+003,4.1012822266e+003,
3.3359375000e+000,4.0842307129e+003,4.1803847656e+003,4.0429487305e+003,4.0679487305e+003,4.1616665039e+003,4.0767949219e+003,4.0817949219e+003,4.0729487305e+003,4.0915385742e+003,4.2691025391e+003,4.1175639648e+003,4.1434614258e+003,4.1034614258e+003,4.0296154785e+003,
3.3437500000e+000,4.0752563477e+003,4.1780771484e+003,4.0380769043e+003,4.0576923828e+003,4.1651284180e+003,4.0720512695e+003,4.0765385742e+003,4.0684614258e+003,4.0874357910e+003,4.2617949219e+003,4.1053847656e+003,4.1384614258e+003,4.0991025391e+003,4.0244870605e+003,
3.3515625000e+000,4.0767949219e+003,4.1828203125e+003,4.0432050781e+003,4.0611538086e+003,4.1784614258e+003,4.0765385742e+003,4.0808974609e+003,4.0741025391e+003,4.0937180176e+003,4.2644873047e+003,4.1044873047e+003,4.1451284180e+003,4.1053847656e+003,4.0296154785e+003,
3.3593750000e+000,4.0860256348e+003,4.1911538086e+003,4.0560256348e+003,4.0753845215e+003,4.1953847656e+003,4.0869230957e+003,4.0917949219e+003,4.0866667480e+003,4.1069228516e+003,4.2747436523e+003,4.1158974609e+003,4.1597436523e+003,4.1191025391e+003,4.0428205566e+003,
3.3671875000e+000,4.1439741211e+003,4.2570512695e+003,4.1288461914e+003,4.1524360352e+003,4.2651284180e+003,4.1492309570e+003,4.1553847656e+003,4.1562822266e+003,4.1826923828e+003,4.3587177734e+003,4.2197436523e+003,4.2364101563e+003,4.1941025391e+003,4.1262822266e+003,
3.3750000000e+000,4.1435898438e+003,4.2650000000e+003,4.1341025391e+003,4.1573076172e+003,4.2687177734e+003,4.1521796875e+003,4.1585898438e+003,4.1564101563e+003,4.1853847656e+003,4.3619228516e+003,4.2229487305e+003,4.2410258789e+003,4.1991025391e+003,4.1334614258e+003,
3.3828125000e+000,4.2029487305e+003,4.3437177734e+003,4.2082050781e+003,4.2239741211e+003,4.3215385742e+003,4.2100000000e+003,4.2129487305e+003,4.2003847656e+003,4.2337177734e+003,4.4221796875e+003,4.2823076172e+003,4.3162822266e+003,4.2743588867e+003,4.2073076172e+003,
3.3906250000e+000,4.1196152344e+003,4.2673076172e+003,4.1414101563e+003,4.1343588867e+003,4.2461538086e+003,4.1356411133e+003,4.1330771484e+003,4.1088461914e+003,4.1405126953e+003,4.3538461914e+003,4.2226923828e+003,4.2476923828e+003,4.2110258789e+003,4.1444873047e+003,
3.3984375000e+000,4.0614101563e+003,4.2087177734e+003,4.0896154785e+003,4.0774357910e+003,4.1866665039e+003,4.0866667480e+003,4.0832050781e+003,4.0538461914e+003,4.0856411133e+003,4.2961538086e+003,4.1684614258e+003,4.1911538086e+003,4.1578203125e+003,4.0901281738e+003,
3.4062500000e+000,3.9953845215e+003,4.1541025391e+003,4.0379487305e+003,4.0269230957e+003,4.1135898438e+003,4.0464101563e+003,4.0443588867e+003,4.0048718262e+003,4.0344870605e+003,4.2193588867e+003,4.1092309570e+003,4.1329487305e+003,4.0873076172e+003,4.0260256348e+003,
3.4140625000e+000,4.0626923828e+003,4.2376923828e+003,4.1060258789e+003,4.1043588867e+003,4.2357690430e+003,4.1307690430e+003,4.1296152344e+003,4.0943588867e+003,4.1211538086e+003,4.2944873047e+003,4.1748715820e+003,4.2001284180e+003,4.1612822266e+003,4.1001284180e+003,
3.4218750000e+000,4.0364101563e+003,4.2112822266e+003,4.0814101563e+003,4.0793588867e+003,4.2176923828e+003,4.1132050781e+003,4.1103847656e+003,4.0812819824e+003,4.1071796875e+003,4.2743588867e+003,4.1420512695e+003,4.1753847656e+003,4.1414101563e+003,4.0773076172e+003,
3.4296875000e+000,3.9851281738e+003,4.1587177734e+003,4.0312819824e+003,4.0288461914e+003,4.1633334961e+003,4.0688461914e+003,4.0653845215e+003,4.0423076172e+003,4.0679487305e+003,4.2271796875e+003,4.0853845215e+003,4.1257690430e+003,4.0938461914e+003,4.0292307129e+003,
