Time (s);AF3;F7;F3;FC5;T7;P7;O1;O2;P8;T8;FC6;F4;F8;AF4;Sampling Rate
0.0000000000e+000;4.2587177734e+003;4.2560258789e+003;4.2792309570e+003;4.2847436523e+003;4.2730771484e+003;4.2896152344e+003;4.2874360352e+003;4.2932050781e+003;4.2861538086e+003;4.2658974609e+003;4.2833334961e+003;4.2797436523e+003;4.2869228516e+003;4.2733334961e+003;128
7.8125000000e-003;4.2566665039e+003;4.2515385742e+003;4.2752563477e+003;4.2838461914e+003;4.2702563477e+003;4.2879487305e+003;4.2834614258e+003;4.2850000000e+003;4.2788461914e+003;4.2608974609e+003;4.2758974609e+003;4.2711538086e+003;4.2851284180e+003;4.2683334961e+003;
1.5625000000e-002;4.2705126953e+003;4.2652563477e+003;4.2835898438e+003;4.2885898438e+003;4.2803847656e+003;4.2876923828e+003;4.2801284180e+003;4.2787177734e+003;4.2796152344e+003;4.2617949219e+003;4.2808974609e+003;4.2919228516e+003;4.2911538086e+003;4.2866665039e+003;
2.3437500000e-002;4.3055126953e+003;4.3008974609e+003;4.3180771484e+003;4.3205126953e+003;4.3132050781e+003;4.3165385742e+003;4.3119228516e+003;4.3124360352e+003;4.3124360352e+003;4.2982050781e+003;4.3174360352e+003;4.3247436523e+003;4.3283334961e+003;4.3208974609e+003;
3.1250000000e-002;4.2912822266e+003;4.2828203125e+003;4.3073076172e+003;4.3071796875e+003;4.2970512695e+003;4.3032050781e+003;4.2920512695e+003;4.3079487305e+003;4.2970512695e+003;4.2887177734e+003;4.3058974609e+003;4.3037177734e+003;4.3220512695e+003;4.3020512695e+003;
3.9062500000e-002;4.3117949219e+003;4.3061538086e+003;4.3193588867e+003;4.3303847656e+003;4.3130771484e+003;4.3216665039e+003;4.3126923828e+003;4.3278203125e+003;4.3165385742e+003;4.3044873047e+003;4.3217949219e+003;4.3225639648e+003;4.3389741211e+003;4.3215385742e+003;
4.6875000000e-002;4.3092309570e+003;4.3037177734e+003;4.3153847656e+003;4.3303847656e+003;4.3088461914e+003;4.3200000000e+003;4.3103847656e+003;4.3278203125e+003;4.3162822266e+003;4.3035898438e+003;4.3191025391e+003;4.3225639648e+003;4.3339741211e+003;4.3210258789e+003;
5.4687500000e-002;4.3152563477e+003;4.3135898438e+003;4.3274360352e+003;4.3356411133e+003;4.3217949219e+003;4.3302563477e+003;4.3201284180e+003;4.3328203125e+003;4.3228203125e+003;4.3064101563e+003;4.3255126953e+003;4.3243588867e+003;4.3403847656e+003;4.3253847656e+003;
6.2500000000e-002;4.3008974609e+003;4.2989741211e+003;4.3188461914e+003;4.3202563477e+003;4.3029487305e+003;4.3193588867e+003;4.3150000000e+003;4.3261538086e+003;4.3169228516e+003;4.3056411133e+003;4.3247436523e+003;4.3242309570e+003;4.3333334961e+003;4.3207690430e+003;
7.0312500000e-002;4.2864101563e+003;4.2794873047e+003;4.3014101563e+003;4.3047436523e+003;4.2826923828e+003;4.3047436523e+003;4.3011538086e+003;4.3065385742e+003;4.2993588867e+003;4.2847436523e+003;4.3062822266e+003;4.3055126953e+003;4.3151284180e+003;4.3039741211e+003;
7.8125000000e-002;4.3174360352e+003;4.3038461914e+003;4.3317949219e+003;4.3274360352e+003;4.3156411133e+003;4.3312822266e+003;4.3243588867e+003;4.3307690430e+003;4.3262822266e+003;4.3106411133e+003;4.3291025391e+003;4.3215385742e+003;4.3412822266e+003;4.3257690430e+003;
8.5937500000e-002;4.2853847656e+003;4.2714101563e+003;4.3025639648e+003;4.3002563477e+003;4.2870512695e+003;4.3037177734e+003;4.2955126953e+003;4.3011538086e+003;4.2938461914e+003;4.2819228516e+003;4.3001284180e+003;4.2930771484e+003;4.3114101563e+003;4.2943588867e+003;
9.3750000000e-002;4.2578203125e+003;4.2501284180e+003;4.2725639648e+003;4.2823076172e+003;4.2598715820e+003;4.2844873047e+003;4.2775639648e+003;4.2771796875e+003;4.2687177734e+003;4.2574360352e+003;4.2816665039e+003;4.2742309570e+003;4.2916665039e+003;4.2717949219e+003;
1.0156250000e-001;4.2679487305e+003;4.2648715820e+003;4.2794873047e+003;4.2929487305e+003;4.2678203125e+003;4.2958974609e+003;4.2887177734e+003;4.2897436523e+003;4.2832050781e+003;4.2684614258e+003;4.2941025391e+003;4.2864101563e+003;4.3041025391e+003;4.2844873047e+003;
1.0937500000e-001;4.2567949219e+003;4.2450000000e+003;4.2678203125e+003;4.2767949219e+003;4.2612822266e+003;4.2773076172e+003;4.2656411133e+003;4.2696152344e+003;4.2616665039e+003;4.2466665039e+003;4.2625639648e+003;4.2593588867e+003;4.2783334961e+003;4.2625639648e+003;
1.1718750000e-001;4.2885898438e+003;4.2738461914e+003;4.2996152344e+003;4.3051284180e+003;4.2983334961e+003;4.3029487305e+003;4.2915385742e+003;4.2962822266e+003;4.2888461914e+003;4.2780771484e+003;4.2906411133e+003;4.2856411133e+003;4.3073076172e+003;4.2901284180e+003;
1.2500000000e-001;4.3214101563e+003;4.3069228516e+003;4.3325639648e+003;4.3348715820e+003;4.3338461914e+003;4.3326923828e+003;4.3214101563e+003;4.3287177734e+003;4.3243588867e+003;4.3153847656e+003;4.3266665039e+003;4.3191025391e+003;4.3410258789e+003;4.3234614258e+003;
1.3281250000e-001;4.3226923828e+003;4.3085898438e+003;4.3335898438e+003;4.3348715820e+003;4.3328203125e+003;4.3352563477e+003;4.3237177734e+003;4.3328203125e+003;4.3323076172e+003;4.3202563477e+003;4.3329487305e+003;4.3243588867e+003;4.3434614258e+003;4.3276923828e+003;
1.4062500000e-001;4.3226923828e+003;4.3053847656e+003;4.3266665039e+003;4.3307690430e+003;4.3207690430e+003;4.3312822266e+003;4.3256411133e+003;4.3358974609e+003;4.3324360352e+003;4.3089741211e+003;4.3291025391e+003;4.3200000000e+003;4.3405126953e+003;4.3250000000e+003;
1.4843750000e-001;4.3232050781e+003;4.3087177734e+003;4.3289741211e+003;4.3315385742e+003;4.3238461914e+003;4.3324360352e+003;4.3262822266e+003;4.3421796875e+003;4.3344873047e+003;4.3151284180e+003;4.3315385742e+003;4.3239741211e+003;4.3434614258e+003;4.3270512695e+003;
1.5625000000e-001;4.2351284180e+003;4.2175639648e+003;4.2373076172e+003;4.2416665039e+003;4.2323076172e+003;4.2542309570e+003;4.2462822266e+003;4.2544873047e+003;4.2437177734e+003;4.2228203125e+003;4.2361538086e+003;4.2326923828e+003;4.2503847656e+003;4.2316665039e+003;
1.6406250000e-001;4.2242309570e+003;4.2051284180e+003;4.2203847656e+003;4.2337177734e+003;4.2216665039e+003;4.2443588867e+003;4.2387177734e+003;4.2443588867e+003;4.2300000000e+003;4.2060258789e+003;4.2266665039e+003;4.2153847656e+003;4.2311538086e+003;4.2203847656e+003;
1.7187500000e-001;4.2220512695e+003;4.2011538086e+003;4.2193588867e+003;4.2301284180e+003;4.2194873047e+003;4.2414101563e+003;4.2375639648e+003;4.2388461914e+003;4.2226923828e+003;4.1965385742e+003;4.2214101563e+003;4.2106411133e+003;4.2239741211e+003;4.2158974609e+003;
1.7968750000e-001;4.2806411133e+003;4.2498715820e+003;4.2819228516e+003;4.2797436523e+003;4.2729487305e+003;4.2908974609e+003;4.2858974609e+003;4.2910258789e+003;4.2787177734e+003;4.2561538086e+003;4.2764101563e+003;4.2688461914e+003;4.2811538086e+003;4.2685898438e+003;
1.8750000000e-001;4.1694873047e+003;4.1329487305e+003;4.1588461914e+003;4.1685898438e+003;4.1576923828e+003;4.1835898438e+003;4.1761538086e+003;4.1785898438e+003;4.1621796875e+003;4.1373076172e+003;4.1697436523e+003;4.1566665039e+003;4.1612822266e+003;4.1546152344e+003;
1.9531250000e-001;4.1998715820e+003;4.1621796875e+003;4.1884614258e+003;4.1970512695e+003;4.1876923828e+003;4.2091025391e+003;4.2032050781e+003;4.2055126953e+003;4.1888461914e+003;4.1664101563e+003;4.1969228516e+003;4.1816665039e+003;4.1908974609e+003;4.1833334961e+003;
2.0312500000e-001;4.2321796875e+003;4.1933334961e+003;4.2243588867e+003;4.2294873047e+003;4.2184614258e+003;4.2375639648e+003;4.2324360352e+003;4.2366665039e+003;4.2217949219e+003;4.2029487305e+003;4.2252563477e+003;4.2114101563e+003;4.2250000000e+003;4.2165385742e+003;
2.1093750000e-001;4.2264101563e+003;4.1906411133e+003;4.2235898438e+003;4.2282050781e+003;4.2106411133e+003;4.2344873047e+003;4.2293588867e+003;4.2303847656e+003;4.2238461914e+003;4.2042309570e+003;4.2157690430e+003;4.2073076172e+003;4.2211538086e+003;4.2156411133e+003;
2.1875000000e-001;4.2166665039e+003;4.1850000000e+003;4.2023076172e+003;4.2092309570e+003;4.2044873047e+003;4.2264101563e+003;4.2192309570e+003;4.2235898438e+003;4.2167949219e+003;4.1937177734e+003;4.2162822266e+003;4.2034614258e+003;4.2058974609e+003;4.2067949219e+003;
2.2656250000e-001;4.1805126953e+003;4.1442309570e+003;4.1688461914e+003;4.1724360352e+003;4.1653847656e+003;4.1907690430e+003;4.1825639648e+003;4.1892309570e+003;4.1794873047e+003;4.1560258789e+003;4.1784614258e+003;4.1673076172e+003;4.1703847656e+003;4.1701284180e+003;
2.3437500000e-001;4.1446152344e+003;4.1044873047e+003;4.1367949219e+003;4.1383334961e+003;4.1260258789e+003;4.1544873047e+003;4.1470512695e+003;4.1520512695e+003;4.1412822266e+003;4.1160258789e+003;4.1375639648e+003;4.1282050781e+003;4.1357690430e+003;4.1325639648e+003;
2.4218750000e-001;4.1567949219e+003;4.1193588867e+003;4.1489741211e+003;4.1547436523e+003;4.1379487305e+003;4.1620512695e+003;4.1578203125e+003;4.1606411133e+003;4.1544873047e+003;4.1255126953e+003;4.1460258789e+003;4.1364101563e+003;4.1493588867e+003;4.1443588867e+003;
2.5000000000e-001;4.1670512695e+003;4.1314101563e+003;4.1571796875e+003;4.1657690430e+003;4.1489741211e+003;4.1734614258e+003;4.1670512695e+003;4.1725639648e+003;4.1678203125e+003;4.1388461914e+003;4.1600000000e+003;4.1498715820e+003;4.1589741211e+003;4.1571796875e+003;
2.5781250000e-001;4.1489741211e+003;4.1117949219e+003;4.1378203125e+003;4.1475639648e+003;4.1298715820e+003;4.1594873047e+003;4.1496152344e+003;4.1561538086e+003;4.1501284180e+003;4.1219228516e+003;4.1452563477e+003;4.1351284180e+003;4.1398715820e+003;4.1411538086e+003;
2.6562500000e-001;4.0957692871e+003;4.0547436523e+003;4.0837180176e+003;4.1002563477e+003;4.0775642090e+003;4.1085898438e+003;4.1003847656e+003;4.1005126953e+003;4.0850000000e+003;4.0603845215e+003;4.0825642090e+003;4.0789743652e+003;4.0853845215e+003;4.0848718262e+003;
2.7343750000e-001;4.0751281738e+003;4.0311538086e+003;4.0611538086e+003;4.0806411133e+003;4.0546154785e+003;4.0887180176e+003;4.0784614258e+003;4.0753845215e+003;4.0611538086e+003;4.0355129395e+003;4.0583332520e+003;4.0562819824e+003;4.0587180176e+003;4.0614101563e+003;
2.8125000000e-001;4.1512822266e+003;4.0985898438e+003;4.1257690430e+003;4.1367949219e+003;4.1187177734e+003;4.1474360352e+003;4.1408974609e+003;4.1403847656e+003;4.1285898438e+003;4.1069228516e+003;4.1329487305e+003;4.1202563477e+003;4.1287177734e+003;4.1280771484e+003;
2.8906250000e-001;4.0864101563e+003;4.0280769043e+003;4.0673076172e+003;4.0858974609e+003;4.0497436523e+003;4.0821794434e+003;4.0765385742e+003;4.0746154785e+003;4.0650000000e+003;4.0343588867e+003;4.0737180176e+003;4.0641025391e+003;4.0632050781e+003;4.0674357910e+003;
2.9687500000e-001;4.1074360352e+003;4.0471794434e+003;4.0875642090e+003;4.1057690430e+003;4.0706411133e+003;4.0997436523e+003;4.0951281738e+003;4.0907692871e+003;4.0829487305e+003;4.0555129395e+003;4.0951281738e+003;4.0828205566e+003;4.0835898438e+003;4.0883332520e+003;
3.0468750000e-001;4.0964101563e+003;4.0398718262e+003;4.0752563477e+003;4.0846154785e+003;4.0447436523e+003;4.0878205566e+003;4.0815385742e+003;4.0774357910e+003;4.0702563477e+003;4.0483332520e+003;4.0810256348e+003;4.0671794434e+003;4.0682050781e+003;4.0752563477e+003;
3.1250000000e-001;4.0825642090e+003;4.0237180176e+003;4.0597436523e+003;4.0680769043e+003;4.0269230957e+003;4.0730769043e+003;4.0664101563e+003;4.0594870605e+003;4.0519230957e+003;4.0264101563e+003;4.0642307129e+003;4.0502563477e+003;4.0514101563e+003;4.0571794434e+003;
3.2031250000e-001;4.1091025391e+003;4.0382050781e+003;4.0811538086e+003;4.0869230957e+003;4.0562819824e+003;4.0903845215e+003;4.0812819824e+003;4.0788461914e+003;4.0710256348e+003;4.0455129395e+003;4.0915385742e+003;4.0728205566e+003;4.0797436523e+003;4.0798718262e+003;
3.2812500000e-001;4.0955129395e+003;4.0200000000e+003;4.0671794434e+003;4.0711538086e+003;4.0458974609e+003;4.0739743652e+003;4.0634614258e+003;4.0651281738e+003;4.0564101563e+003;4.0335898438e+003;4.0787180176e+003;4.0601281738e+003;4.0679487305e+003;4.0678205566e+003;
3.3593750000e-001;4.0562819824e+003;3.9878205566e+003;4.0284614258e+003;4.0344870605e+003;4.0029487305e+003;4.0292307129e+003;4.0253845215e+003;4.0248718262e+003;4.0116667480e+003;3.9897436523e+003;4.0288461914e+003;4.0197436523e+003;4.0219230957e+003;4.0283332520e+003;
3.4375000000e-001;4.0666667480e+003;4.0000000000e+003;4.0400000000e+003;4.0471794434e+003;4.0106411133e+003;4.0374357910e+003;4.0358974609e+003;4.0375642090e+003;4.0234614258e+003;4.0016667480e+003;4.0397436523e+003;4.0312819824e+003;4.0305129395e+003;4.0374357910e+003;
3.5156250000e-001;4.0169230957e+003;3.9403845215e+003;3.9925642090e+003;3.9992307129e+003;3.9584614258e+003;3.9897436523e+003;3.9876923828e+003;3.9889743652e+003;3.9734614258e+003;3.9497436523e+003;3.9915385742e+003;3.9824357910e+003;3.9760256348e+003;3.9824357910e+003;
3.5937500000e-001;4.0062819824e+003;3.9257692871e+003;3.9794870605e+003;3.9858974609e+003;3.9480769043e+003;3.9794870605e+003;3.9773076172e+003;3.9742307129e+003;3.9587180176e+003;3.9330769043e+003;3.9776923828e+003;3.9676923828e+003;3.9635898438e+003;3.9678205566e+003;
3.6718750000e-001;4.0801281738e+003;4.0075642090e+003;4.0469230957e+003;4.0535898438e+003;4.0202563477e+003;4.0491025391e+003;4.0470512695e+003;4.0507692871e+003;4.0346154785e+003;4.0096154785e+003;4.0457692871e+003;4.0323076172e+003;4.0434614258e+003;4.0392307129e+003;
3.7500000000e-001;4.0576923828e+003;3.9835898438e+003;4.0255129395e+003;4.0324357910e+003;3.9961538086e+003;4.0266667480e+003;4.0250000000e+003;4.0303845215e+003;4.0128205566e+003;3.9887180176e+003;4.0224357910e+003;4.0106411133e+003;4.0184614258e+003;4.0167949219e+003;
3.8281250000e-001;4.0391025391e+003;3.9619230957e+003;4.0060256348e+003;4.0142307129e+003;3.9756411133e+003;4.0055129395e+003;4.0048718262e+003;4.0085898438e+003;3.9906411133e+003;3.9680769043e+003;4.0029487305e+003;3.9934614258e+003;3.9939743652e+003;3.9974357910e+003;
3.9062500000e-001;4.0366667480e+003;3.9592307129e+003;3.9989743652e+003;4.0142307129e+003;3.9661538086e+003;3.9952563477e+003;3.9903845215e+003;3.9860256348e+003;3.9710256348e+003;3.9524357910e+003;3.9953845215e+003;3.9889743652e+003;3.9894870605e+003;3.9896154785e+003;
3.9843750000e-001;4.0634614258e+003;3.9834614258e+003;4.0248718262e+003;4.0385898438e+003;3.9939743652e+003;4.0170512695e+003;4.0151281738e+003;4.0071794434e+003;3.9929487305e+003;3.9746154785e+003;4.0160256348e+003;4.0069230957e+003;4.0107692871e+003;4.0124357910e+003;
4.0625000000e-001;4.0915385742e+003;4.0162819824e+003;4.0542307129e+003;4.0665385742e+003;4.0305129395e+003;4.0515385742e+003;4.0485898438e+003;4.0455129395e+003;4.0346154785e+003;4.0171794434e+003;4.0525642090e+003;4.0433332520e+003;4.0361538086e+003;4.0515385742e+003;
4.1406250000e-001;4.1182050781e+003;4.0555129395e+003;4.0805129395e+003;4.0935898438e+003;4.0678205566e+003;4.0944870605e+003;4.0935898438e+003;4.0888461914e+003;4.0782050781e+003;4.0623076172e+003;4.0898718262e+003;4.0753845215e+003;4.0820512695e+003;4.0808974609e+003;
4.2187500000e-001;4.1361538086e+003;4.0717949219e+003;4.1020512695e+003;4.1125639648e+003;4.0865385742e+003;4.1108974609e+003;4.1105126953e+003;4.1117949219e+003;4.1010258789e+003;4.0866667480e+003;4.1106411133e+003;4.0932050781e+003;4.0992309570e+003;4.0998715820e+003;
4.2968750000e-001;4.1278203125e+003;4.0542307129e+003;4.0915385742e+003;4.1080771484e+003;4.0689743652e+003;4.0910256348e+003;4.0910256348e+003;4.0924357910e+003;4.0837180176e+003;4.0661538086e+003;4.1041025391e+003;4.0841025391e+003;4.0765385742e+003;4.0962822266e+003;
4.3750000000e-001;4.1784614258e+003;4.1084614258e+003;4.1388461914e+003;4.1565385742e+003;4.1191025391e+003;4.1382050781e+003;4.1388461914e+003;4.1394873047e+003;4.1314101563e+003;4.1175639648e+003;4.1562822266e+003;4.1376923828e+003;4.1312822266e+003;4.1497436523e+003;
4.4531250000e-001;4.2611538086e+003;4.2001284180e+003;4.2248715820e+003;4.2362822266e+003;4.2042309570e+003;4.2219228516e+003;4.2238461914e+003;4.2256411133e+003;4.2151284180e+003;4.2110258789e+003;4.2393588867e+003;4.2265385742e+003;4.2246152344e+003;4.2335898438e+003;
4.5312500000e-001;4.2857690430e+003;4.2282050781e+003;4.2530771484e+003;4.2589741211e+003;4.2310258789e+003;4.2464101563e+003;4.2505126953e+003;4.2514101563e+003;4.2396152344e+003;4.2379487305e+003;4.2623076172e+003;4.2489741211e+003;4.2505126953e+003;4.2552563477e+003;
4.6093750000e-001;4.3297436523e+003;4.2815385742e+003;4.3060258789e+003;4.2975639648e+003;4.2837177734e+003;4.2875639648e+003;4.2932050781e+003;4.3000000000e+003;4.2924360352e+003;4.2939741211e+003;4.3151284180e+003;4.2957690430e+003;4.2997436523e+003;4.3071796875e+003;
4.6875000000e-001;4.2825639648e+003;4.2344873047e+003;4.2612822266e+003;4.2543588867e+003;4.2384614258e+003;4.2471796875e+003;4.2484614258e+003;4.2551284180e+003;4.2473076172e+003;4.2478203125e+003;4.2700000000e+003;4.2541025391e+003;4.2551284180e+003;4.2660258789e+003;
4.7656250000e-001;4.2333334961e+003;4.1875639648e+003;4.2102563477e+003;4.2164101563e+003;4.1961538086e+003;4.2105126953e+003;4.2061538086e+003;4.2071796875e+003;4.1962822266e+003;4.1943588867e+003;4.2203847656e+003;4.2064101563e+003;4.2128203125e+003;4.2215385742e+003;
4.8437500000e-001;4.2610258789e+003;4.2178203125e+003;4.2361538086e+003;4.2480771484e+003;4.2275639648e+003;4.2383334961e+003;4.2333334961e+003;4.2369228516e+003;4.2255126953e+003;4.2250000000e+003;4.2507690430e+003;4.2342309570e+003;4.2439741211e+003;4.2502563477e+003;
4.9218750000e-001;4.2216665039e+003;4.1710258789e+003;4.2029487305e+003;4.2094873047e+003;4.1803847656e+003;4.1973076172e+003;4.1910258789e+003;4.1994873047e+003;4.1860258789e+003;4.1882050781e+003;4.2138461914e+003;4.2010258789e+003;4.1960258789e+003;4.2083334961e+003;
5.0000000000e-001;4.1951284180e+003;4.1430771484e+003;4.1782050781e+003;4.1805126953e+003;4.1520512695e+003;4.1708974609e+003;4.1658974609e+003;4.1694873047e+003;4.1557690430e+003;4.1544873047e+003;4.1834614258e+003;4.1723076172e+003;4.1671796875e+003;4.1794873047e+003;
5.0781250000e-001;4.1843588867e+003;4.1361538086e+003;4.1692309570e+003;4.1698715820e+003;4.1453847656e+003;4.1615385742e+003;4.1576923828e+003;4.1588461914e+003;4.1460258789e+003;4.1405126953e+003;4.1719228516e+003;4.1606411133e+003;4.1596152344e+003;4.1700000000e+003;
5.1562500000e-001;4.1670512695e+003;4.1257690430e+003;4.1551284180e+003;4.1564101563e+003;4.1358974609e+003;4.1491025391e+003;4.1451284180e+003;4.1465385742e+003;4.1350000000e+003;4.1260258789e+003;4.1582050781e+003;4.1460258789e+003;4.1492309570e+003;4.1582050781e+003;
5.2343750000e-001;4.1952563477e+003;4.1471796875e+003;4.1803847656e+003;4.1764101563e+003;4.1471796875e+003;4.1746152344e+003;4.1760258789e+003;4.1688461914e+003;4.1561538086e+003;4.1470512695e+003;4.1808974609e+003;4.1684614258e+003;4.1735898438e+003;4.1879487305e+003;
5.3125000000e-001;4.2250000000e+003;4.1867949219e+003;4.2138461914e+003;4.2183334961e+003;4.1979487305e+003;4.2016665039e+003;4.2041025391e+003;4.2008974609e+003;4.1857690430e+003;4.1887177734e+003;4.2196152344e+003;4.2061538086e+003;4.2101284180e+003;4.2203847656e+003;
5.3906250000e-001;4.2514101563e+003;4.2165385742e+003;4.2391025391e+003;4.2435898438e+003;4.2325639648e+003;4.2271796875e+003;4.2283334961e+003;4.2267949219e+003;4.2161538086e+003;4.2198715820e+003;4.2501284180e+003;4.2335898438e+003;4.2383334961e+003;4.2487177734e+003;
5.4687500000e-001;4.2653847656e+003;4.2301284180e+003;4.2525639648e+003;4.2529487305e+003;4.2423076172e+003;4.2412822266e+003;4.2398715820e+003;4.2446152344e+003;4.2369228516e+003;4.2374360352e+003;4.2647436523e+003;4.2467949219e+003;4.2496152344e+003;4.2623076172e+003;
5.5468750000e-001;4.4161538086e+003;4.3910258789e+003;4.4112822266e+003;4.3960258789e+003;4.4006411133e+003;4.3856411133e+003;4.3928203125e+003;4.3939741211e+003;4.3820512695e+003;4.3905126953e+003;4.4153847656e+003;4.3916665039e+003;4.4033334961e+003;4.4043588867e+003;
5.6250000000e-001;4.4355126953e+003;4.4132050781e+003;4.4317949219e+003;4.4157690430e+003;4.4203847656e+003;4.4069228516e+003;4.4123076172e+003;4.4184614258e+003;4.4078203125e+003;4.4167949219e+003;4.4369228516e+003;4.4137177734e+003;4.4273076172e+003;4.4264101563e+003;
5.7031250000e-001;4.3794873047e+003;4.3593588867e+003;4.3724360352e+003;4.3696152344e+003;4.3610258789e+003;4.3596152344e+003;4.3624360352e+003;4.3688461914e+003;4.3573076172e+003;4.3610258789e+003;4.3779487305e+003;4.3576923828e+003;4.3716665039e+003;4.3705126953e+003;
5.7812500000e-001;4.3656411133e+003;4.3474360352e+003;4.3589741211e+003;4.3615385742e+003;4.3497436523e+003;4.3483334961e+003;4.3512822266e+003;4.3573076172e+003;4.3443588867e+003;4.3483334961e+003;4.3650000000e+003;4.3450000000e+003;4.3578203125e+003;4.3576923828e+003;
5.8593750000e-001;4.3482050781e+003;4.3370512695e+003;4.3573076172e+003;4.3496152344e+003;4.3437177734e+003;4.3384614258e+003;4.3447436523e+003;4.3488461914e+003;4.3365385742e+003;4.3423076172e+003;4.3601284180e+003;4.3451284180e+003;4.3500000000e+003;4.3541025391e+003;
5.9375000000e-001;4.3694873047e+003;4.3621796875e+003;4.3784614258e+003;4.3670512695e+003;4.3661538086e+003;4.3602563477e+003;4.3685898438e+003;4.3701284180e+003;4.3596152344e+003;4.3629487305e+003;4.3823076172e+003;4.3661538086e+003;4.3737177734e+003;4.3750000000e+003;
6.0156250000e-001;4.4432050781e+003;4.4412822266e+003;4.4483334961e+003;4.4335898438e+003;4.4406411133e+003;4.4325639648e+003;4.4398715820e+003;4.4496152344e+003;4.4407690430e+003;4.4437177734e+003;4.4574360352e+003;4.4341025391e+003;4.4516665039e+003;4.4439741211e+003;
6.0937500000e-001;4.4325639648e+003;4.4282050781e+003;4.4394873047e+003;4.4244873047e+003;4.4291025391e+003;4.4229487305e+003;4.4273076172e+003;4.4417949219e+003;4.4328203125e+003;4.4365385742e+003;4.4458974609e+003;4.4223076172e+003;4.4411538086e+003;4.4319228516e+003;
6.1718750000e-001;4.3905126953e+003;4.3811538086e+003;4.4046152344e+003;4.3875639648e+003;4.3919228516e+003;4.3812822266e+003;4.3838461914e+003;4.3914101563e+003;4.3874360352e+003;4.3866665039e+003;4.4011538086e+003;4.3819228516e+003;4.3930771484e+003;4.3900000000e+003;
6.2500000000e-001;4.4092309570e+003;4.4039741211e+003;4.4243588867e+003;4.4071796875e+003;4.4152563477e+003;4.4034614258e+003;4.4052563477e+003;4.4152563477e+003;4.4111538086e+003;4.4094873047e+003;4.4257690430e+003;4.4061538086e+003;4.4152563477e+003;4.4126923828e+003;
6.3281250000e-001;4.3989741211e+003;4.3966665039e+003;4.4157690430e+003;4.4008974609e+003;4.4087177734e+003;4.4007690430e+003;4.4011538086e+003;4.4144873047e+003;4.4076923828e+003;4.4056411133e+003;4.4226923828e+003;4.4032050781e+003;4.4106411133e+003;4.4065385742e+003;
6.4062500000e-001;4.3646152344e+003;4.3624360352e+003;4.3826923828e+003;4.3717949219e+003;4.3764101563e+003;4.3735898438e+003;4.3738461914e+003;4.3873076172e+003;4.3767949219e+003;4.3743588867e+003;4.3926923828e+003;4.3744873047e+003;4.3811538086e+003;4.3737177734e+003;
6.4843750000e-001;4.3682050781e+003;4.3700000000e+003;4.3897436523e+003;4.3815385742e+003;4.3843588867e+003;4.3738461914e+003;4.3757690430e+003;4.3891025391e+003;4.3792309570e+003;4.3773076172e+003;4.3980771484e+003;4.3841025391e+003;4.3920512695e+003;4.3776923828e+003;
6.5625000000e-001;4.3053847656e+003;4.3003847656e+003;4.3230771484e+003;4.3150000000e+003;4.3175639648e+003;4.3180771484e+003;4.3183334961e+003;4.3216665039e+003;4.3093588867e+003;4.2993588867e+003;4.3312822266e+003;4.3137177734e+003;4.3234614258e+003;4.3132050781e+003;
6.6406250000e-001;4.3047436523e+003;4.2970512695e+003;4.3217949219e+003;4.3128203125e+003;4.3142309570e+003;4.3167949219e+003;4.3180771484e+003;4.3210258789e+003;4.3096152344e+003;4.2996152344e+003;4.3307690430e+003;4.3144873047e+003;4.3221796875e+003;4.3119228516e+003;
6.7187500000e-001;4.2857690430e+003;4.2710258789e+003;4.3006411133e+003;4.2973076172e+003;4.2929487305e+003;4.2969228516e+003;4.2994873047e+003;4.2953847656e+003;4.2894873047e+003;4.2752563477e+003;4.3023076172e+003;4.2908974609e+003;4.2984614258e+003;4.2878203125e+003;
6.7968750000e-001;4.3138461914e+003;4.3019228516e+003;4.3260258789e+003;4.3185898438e+003;4.3058974609e+003;4.3185898438e+003;4.3192309570e+003;4.3302563477e+003;4.3194873047e+003;4.3091025391e+003;4.3341025391e+003;4.3198715820e+003;4.3267949219e+003;4.3144873047e+003;
6.8750000000e-001;4.2832050781e+003;4.2723076172e+003;4.2975639648e+003;4.2874360352e+003;4.2744873047e+003;4.2893588867e+003;4.2888461914e+003;4.2989741211e+003;4.2870512695e+003;4.2760258789e+003;4.3020512695e+003;4.2891025391e+003;4.2962822266e+003;4.2842309570e+003;
6.9531250000e-001;4.3125639648e+003;4.3033334961e+003;4.3243588867e+003;4.3165385742e+003;4.3182050781e+003;4.3153847656e+003;4.3137177734e+003;4.3205126953e+003;4.3137177734e+003;4.3043588867e+003;4.3235898438e+003;4.3114101563e+003;4.3294873047e+003;4.3139741211e+003;
7.0312500000e-001;4.3300000000e+003;4.3217949219e+003;4.3403847656e+003;4.3351284180e+003;4.3434614258e+003;4.3328203125e+003;4.3306411133e+003;4.3374360352e+003;4.3330771484e+003;4.3269228516e+003;4.3419228516e+003;4.3294873047e+003;4.3497436523e+003;4.3337177734e+003;
7.1093750000e-001;4.3784614258e+003;4.3680771484e+003;4.3856411133e+003;4.3803847656e+003;4.3857690430e+003;4.3787177734e+003;4.3807690430e+003;4.3817949219e+003;4.3766665039e+003;4.3770512695e+003;4.3982050781e+003;4.3774360352e+003;4.3970512695e+003;4.3808974609e+003;
7.1875000000e-001;4.4334614258e+003;4.4226923828e+003;4.4387177734e+003;4.4334614258e+003;4.4374360352e+003;4.4276923828e+003;4.4320512695e+003;4.4362822266e+003;4.4312822266e+003;4.4324360352e+003;4.4524360352e+003;4.4291025391e+003;4.4526923828e+003;4.4347436523e+003;
7.2656250000e-001;4.4606411133e+003;4.4551284180e+003;4.4669228516e+003;4.4653847656e+003;4.4710258789e+003;4.4566665039e+003;4.4616665039e+003;4.4714101563e+003;4.4682050781e+003;4.4643588867e+003;4.4764101563e+003;4.4576923828e+003;4.4830771484e+003;4.4657690430e+003;
7.3437500000e-001;4.4542309570e+003;4.4542309570e+003;4.4617949219e+003;4.4612822266e+003;4.4711538086e+003;4.4571796875e+003;4.4621796875e+003;4.4697436523e+003;4.4667949219e+003;4.4587177734e+003;4.4705126953e+003;4.4538461914e+003;4.4771796875e+003;4.4615385742e+003;
7.4218750000e-001;4.5516665039e+003;4.5601284180e+003;4.5684614258e+003;4.5528203125e+003;4.5762822266e+003;4.5626923828e+003;4.5703847656e+003;4.5853847656e+003;4.5792309570e+003;4.5761538086e+003;4.5898715820e+003;4.5657690430e+003;4.5870512695e+003;4.5725639648e+003;
7.5000000000e-001;4.5358974609e+003;4.5405126953e+003;4.5573076172e+003;4.5383334961e+003;4.5600000000e+003;4.5484614258e+003;4.5562822266e+003;4.5734614258e+003;4.5658974609e+003;4.5655126953e+003;4.5784614258e+003;4.5550000000e+003;4.5770512695e+003;4.5619228516e+003;
7.5781250000e-001;4.5011538086e+003;4.5041025391e+003;4.5250000000e+003;4.5078203125e+003;4.5264101563e+003;4.5161538086e+003;4.5242309570e+003;4.5384614258e+003;4.5307690430e+003;4.5298715820e+003;4.5429487305e+003;4.5216665039e+003;4.5458974609e+003;4.5292309570e+003;
7.6562500000e-001;4.4848715820e+003;4.4916665039e+003;4.5094873047e+003;4.4974360352e+003;4.5142309570e+003;4.5025639648e+003;4.5111538086e+003;4.5217949219e+003;4.5146152344e+003;4.5119228516e+003;4.5251284180e+003;4.5051284180e+003;4.5317949219e+003;4.5130771484e+003;
7.7343750000e-001;4.4053847656e+003;4.4191025391e+003;4.4375639648e+003;4.4300000000e+003;4.4365385742e+003;4.4387177734e+003;4.4425639648e+003;4.4606411133e+003;4.4473076172e+003;4.4410258789e+003;4.4558974609e+003;4.4347436523e+003;4.4462822266e+003;4.4369228516e+003;
7.8125000000e-001;4.3670512695e+003;4.3732050781e+003;4.3989741211e+003;4.3892309570e+003;4.3935898438e+003;4.3994873047e+003;4.4044873047e+003;4.4161538086e+003;4.4037177734e+003;4.3965385742e+003;4.4162822266e+003;4.3946152344e+003;4.4037177734e+003;4.3965385742e+003;
7.8906250000e-001;4.2811538086e+003;4.2897436523e+003;4.3208974609e+003;4.3128203125e+003;4.3155126953e+003;4.3230771484e+003;4.3207690430e+003;4.3288461914e+003;4.3189741211e+003;4.3097436523e+003;4.3312822266e+003;4.3174360352e+003;4.3225639648e+003;4.3170512695e+003;
7.9687500000e-001;4.2462822266e+003;4.2519228516e+003;4.2724360352e+003;4.2735898438e+003;4.2730771484e+003;4.2837177734e+003;4.2798715820e+003;4.2869228516e+003;4.2724360352e+003;4.2605126953e+003;4.2860258789e+003;4.2634614258e+003;4.2776923828e+003;4.2711538086e+003;
8.0468750000e-001;4.2565385742e+003;4.2566665039e+003;4.2780771484e+003;4.2791025391e+003;4.2789741211e+003;4.2882050781e+003;4.2850000000e+003;4.2939741211e+003;4.2808974609e+003;4.2689741211e+003;4.2962822266e+003;4.2705126953e+003;4.2857690430e+003;4.2785898438e+003;
8.1250000000e-001;4.1926923828e+003;4.1848715820e+003;4.2184614258e+003;4.2188461914e+003;4.2062822266e+003;4.2183334961e+003;4.2138461914e+003;4.2141025391e+003;4.2061538086e+003;4.1900000000e+003;4.2207690430e+003;4.2076923828e+003;4.2148715820e+003;4.2055126953e+003;
8.2031250000e-001;4.2057690430e+003;4.1971796875e+003;4.2202563477e+003;4.2188461914e+003;4.2088461914e+003;4.2193588867e+003;4.2139741211e+003;4.2200000000e+003;4.2139741211e+003;4.1973076172e+003;4.2230771484e+003;4.2114101563e+003;4.2226923828e+003;4.2196152344e+003;
8.2812500000e-001;4.1825639648e+003;4.1678203125e+003;4.1929487305e+003;4.1919228516e+003;4.1846152344e+003;4.1979487305e+003;4.1907690430e+003;4.1961538086e+003;4.1900000000e+003;4.1703847656e+003;4.1985898438e+003;4.1842309570e+003;4.1969228516e+003;4.1956411133e+003;
8.3593750000e-001;4.2703847656e+003;4.2558974609e+003;4.2774360352e+003;4.2821796875e+003;4.2683334961e+003;4.2821796875e+003;4.2792309570e+003;4.2861538086e+003;4.2771796875e+003;4.2617949219e+003;4.2912822266e+003;4.2729487305e+003;4.2828203125e+003;4.2780771484e+003;
8.4375000000e-001;4.2793588867e+003;4.2680771484e+003;4.2857690430e+003;4.2934614258e+003;4.2715385742e+003;4.2889741211e+003;4.2871796875e+003;4.2965385742e+003;4.2879487305e+003;4.2737177734e+003;4.3000000000e+003;4.2838461914e+003;4.2897436523e+003;4.2880771484e+003;
8.5156250000e-001;4.2582050781e+003;4.2461538086e+003;4.2598715820e+003;4.2725639648e+003;4.2524360352e+003;4.2661538086e+003;4.2650000000e+003;4.2691025391e+003;4.2632050781e+003;4.2457690430e+003;4.2691025391e+003;4.2552563477e+003;4.2660258789e+003;4.2661538086e+003;
8.5937500000e-001;4.2808974609e+003;4.2679487305e+003;4.2819228516e+003;4.2933334961e+003;4.2851284180e+003;4.2878203125e+003;4.2871796875e+003;4.2901284180e+003;4.2850000000e+003;4.2685898438e+003;4.2902563477e+003;4.2743588867e+003;4.2919228516e+003;4.2876923828e+003;
8.6718750000e-001;4.2758974609e+003;4.2620512695e+003;4.2921796875e+003;4.2821796875e+003;4.2924360352e+003;4.2856411133e+003;4.2878203125e+003;4.2962822266e+003;4.2875639648e+003;4.2750000000e+003;4.2991025391e+003;4.2807690430e+003;4.2910258789e+003;4.2851284180e+003;
8.7500000000e-001;4.2628203125e+003;4.2483334961e+003;4.2798715820e+003;4.2664101563e+003;4.2743588867e+003;4.2717949219e+003;4.2755126953e+003;4.2819228516e+003;4.2720512695e+003;4.2558974609e+003;4.2865385742e+003;4.2680771484e+003;4.2747436523e+003;4.2738461914e+003;
8.8281250000e-001;4.2789741211e+003;4.2646152344e+003;4.2926923828e+003;4.2808974609e+003;4.2861538086e+003;4.2858974609e+003;4.2892309570e+003;4.2956411133e+003;4.2858974609e+003;4.2666665039e+003;4.3012822266e+003;4.2820512695e+003;4.2903847656e+003;4.2924360352e+003;
8.9062500000e-001;4.2988461914e+003;4.2850000000e+003;4.3094873047e+003;4.3023076172e+003;4.3043588867e+003;4.3061538086e+003;4.3057690430e+003;4.3156411133e+003;4.3062822266e+003;4.2867949219e+003;4.3198715820e+003;4.3007690430e+003;4.3139741211e+003;4.3156411133e+003;
8.9843750000e-001;4.2383334961e+003;4.2151284180e+003;4.2508974609e+003;4.2435898438e+003;4.2434614258e+003;4.2482050781e+003;4.2455126953e+003;4.2485898438e+003;4.2397436523e+003;4.2230771484e+003;4.2550000000e+003;4.2391025391e+003;4.2543588867e+003;4.2439741211e+003;
9.0625000000e-001;4.2651284180e+003;4.2393588867e+003;4.2773076172e+003;4.2674360352e+003;4.2693588867e+003;4.2682050781e+003;4.2696152344e+003;4.2723076172e+003;4.2657690430e+003;4.2474360352e+003;4.2824360352e+003;4.2633334961e+003;4.2779487305e+003;4.2682050781e+003;
9.1406250000e-001;4.2783334961e+003;4.2489741211e+003;4.2911538086e+003;4.2880771484e+003;4.2837177734e+003;4.2847436523e+003;4.2875639648e+003;4.2901284180e+003;4.2806411133e+003;4.2647436523e+003;4.2971796875e+003;4.2803847656e+003;4.2908974609e+003;4.2875639648e+003;
9.2187500000e-001;4.3247436523e+003;4.3001284180e+003;4.3438461914e+003;4.3269228516e+003;4.3415385742e+003;4.3382050781e+003;4.3384614258e+003;4.3470512695e+003;4.3361538086e+003;4.3242309570e+003;4.3544873047e+003;4.3346152344e+003;4.3388461914e+003;4.3380771484e+003;
9.2968750000e-001;4.3082050781e+003;4.2848715820e+003;4.3273076172e+003;4.3144873047e+003;4.3248715820e+003;4.3228203125e+003;4.3241025391e+003;4.3307690430e+003;4.3197436523e+003;4.3060258789e+003;4.3388461914e+003;4.3173076172e+003;4.3220512695e+003;4.3217949219e+003;
9.3750000000e-001;4.4108974609e+003;4.4024360352e+003;4.4191025391e+003;4.4224360352e+003;4.4270512695e+003;4.4188461914e+003;4.4225639648e+003;4.4275639648e+003;4.4232050781e+003;4.4112822266e+003;4.4398715820e+003;4.4088461914e+003;4.4339741211e+003;4.4228203125e+003;
9.4531250000e-001;4.3675639648e+003;4.3647436523e+003;4.3894873047e+003;4.3796152344e+003;4.3867949219e+003;4.3862822266e+003;4.3785898438e+003;4.3847436523e+003;4.3860258789e+003;4.3733334961e+003;4.3989741211e+003;4.3735898438e+003;4.3879487305e+003;4.3802563477e+003;
9.5312500000e-001;4.3738461914e+003;4.3689741211e+003;4.3939741211e+003;4.3834614258e+003;4.3889741211e+003;4.3883334961e+003;4.3824360352e+003;4.3852563477e+003;4.3855126953e+003;4.3730771484e+003;4.4020512695e+003;4.3769228516e+003;4.3901284180e+003;4.3852563477e+003;
9.6093750000e-001;4.4171796875e+003;4.4125639648e+003;4.4305126953e+003;4.4175639648e+003;4.4262822266e+003;4.4206411133e+003;4.4203847656e+003;4.4271796875e+003;4.4264101563e+003;4.4192309570e+003;4.4470512695e+003;4.4183334961e+003;4.4401284180e+003;4.4319228516e+003;
9.6875000000e-001;4.4033334961e+003;4.3997436523e+003;4.4176923828e+003;4.4029487305e+003;4.4108974609e+003;4.4082050781e+003;4.4079487305e+003;4.4125639648e+003;4.4119228516e+003;4.4048715820e+003;4.4328203125e+003;4.4029487305e+003;4.4264101563e+003;4.4147436523e+003;
9.7656250000e-001;4.4239741211e+003;4.4237177734e+003;4.4391025391e+003;4.4252563477e+003;4.4239741211e+003;4.4282050781e+003;4.4287177734e+003;4.4341025391e+003;4.4311538086e+003;4.4274360352e+003;4.4548715820e+003;4.4210258789e+003;4.4444873047e+003;4.4300000000e+003;
9.8437500000e-001;4.4165385742e+003;4.4175639648e+003;4.4321796875e+003;4.4224360352e+003;4.4150000000e+003;4.4234614258e+003;4.4237177734e+003;4.4316665039e+003;4.4262822266e+003;4.4239741211e+003;4.4506411133e+003;4.4173076172e+003;4.4383334961e+003;4.4257690430e+003;
9.9218750000e-001;4.3811538086e+003;4.3823076172e+003;4.3971796875e+003;4.3929487305e+003;4.3835898438e+003;4.3938461914e+003;4.3941025391e+003;4.4006411133e+003;4.3933334961e+003;4.3897436523e+003;4.4170512695e+003;4.3866665039e+003;4.4048715820e+003;4.3958974609e+003;
1.0000000000e+000;4.3641025391e+003;4.3676923828e+003;4.3783334961e+003;4.3794873047e+003;4.3870512695e+003;4.3838461914e+003;4.3862822266e+003;4.3832050781e+003;4.3770512695e+003;4.3684614258e+003;4.3979487305e+003;4.3721796875e+003;4.3902563477e+003;4.3867949219e+003;
1.0078125000e+000;4.4089741211e+003;4.4158974609e+003;4.4230771484e+003;4.4212822266e+003;4.4389741211e+003;4.4270512695e+003;4.4293588867e+003;4.4279487305e+003;4.4239741211e+003;4.4165385742e+003;4.4434614258e+003;4.4166665039e+003;4.4360258789e+003;4.4329487305e+003;
1.0156250000e+000;4.4446152344e+003;4.4538461914e+003;4.4603847656e+003;4.4532050781e+003;4.4742309570e+003;4.4606411133e+003;4.4608974609e+003;4.4658974609e+003;4.4628203125e+003;4.4584614258e+003;4.4817949219e+003;4.4520512695e+003;4.4716665039e+003;4.4680771484e+003;
1.0234375000e+000;4.4550000000e+003;4.4691025391e+003;4.4798715820e+003;4.4592309570e+003;4.4857690430e+003;4.4782050781e+003;4.4753847656e+003;4.4869228516e+003;4.4761538086e+003;4.4738461914e+003;4.4956411133e+003;4.4621796875e+003;4.4891025391e+003;4.4842309570e+003;
1.0312500000e+000;4.4315385742e+003;4.4488461914e+003;4.4591025391e+003;4.4405126953e+003;4.4661538086e+003;4.4608974609e+003;4.4552563477e+003;4.4696152344e+003;4.4566665039e+003;4.4547436523e+003;4.4726923828e+003;4.4453847656e+003;4.4671796875e+003;4.4658974609e+003;
1.0390625000e+000;4.3517949219e+003;4.3685898438e+003;4.3711538086e+003;4.3632050781e+003;4.3771796875e+003;4.3769228516e+003;4.3733334961e+003;4.3817949219e+003;4.3738461914e+003;4.3670512695e+003;4.3969228516e+003;4.3655126953e+003;4.3757690430e+003;4.3838461914e+003;
1.0468750000e+000;4.2874360352e+003;4.2973076172e+003;4.3087177734e+003;4.2973076172e+003;4.3064101563e+003;4.3126923828e+003;4.3056411133e+003;4.3139741211e+003;4.3083334961e+003;4.2978203125e+003;4.3308974609e+003;4.3011538086e+003;4.3089741211e+003;4.3169228516e+003;
1.0546875000e+000;4.2882050781e+003;4.2957690430e+003;4.3096152344e+003;4.2944873047e+003;4.3066665039e+003;4.3142309570e+003;4.3076923828e+003;4.3124360352e+003;4.3065385742e+003;4.2966665039e+003;4.3256411133e+003;4.2973076172e+003;4.3105126953e+003;4.3129487305e+003;
1.0625000000e+000;4.2793588867e+003;4.2853847656e+003;4.2973076172e+003;4.2879487305e+003;4.2939741211e+003;4.3039741211e+003;4.2958974609e+003;4.3043588867e+003;4.2997436523e+003;4.2924360352e+003;4.3223076172e+003;4.2917949219e+003;4.3011538086e+003;4.3056411133e+003;
1.0703125000e+000;4.2462822266e+003;4.2438461914e+003;4.2607690430e+003;4.2548715820e+003;4.2546152344e+003;4.2639741211e+003;4.2596152344e+003;4.2648715820e+003;4.2579487305e+003;4.2407690430e+003;4.2842309570e+003;4.2550000000e+003;4.2629487305e+003;4.2693588867e+003;
1.0781250000e+000;4.2739741211e+003;4.2660258789e+003;4.2871796875e+003;4.2788461914e+003;4.2792309570e+003;4.2869228516e+003;4.2834614258e+003;4.2893588867e+003;4.2824360352e+003;4.2667949219e+003;4.3048715820e+003;4.2778203125e+003;4.2912822266e+003;4.2947436523e+003;
1.0859375000e+000;4.2766665039e+003;4.2652563477e+003;4.2893588867e+003;4.2812822266e+003;4.2783334961e+003;4.2878203125e+003;4.2843588867e+003;4.2898715820e+003;4.2817949219e+003;4.2693588867e+003;4.3029487305e+003;4.2783334961e+003;4.2941025391e+003;4.2970512695e+003;
1.0937500000e+000;4.2687177734e+003;4.2653847656e+003;4.2789741211e+003;4.2761538086e+003;4.2684614258e+003;4.2811538086e+003;4.2770512695e+003;4.2788461914e+003;4.2674360352e+003;4.2601284180e+003;4.2994873047e+003;4.2714101563e+003;4.2858974609e+003;4.2912822266e+003;
1.1015625000e+000;4.2971796875e+003;4.3023076172e+003;4.3060258789e+003;4.3020512695e+003;4.3001284180e+003;4.3092309570e+003;4.3044873047e+003;4.3091025391e+003;4.2973076172e+003;4.2915385742e+003;4.3350000000e+003;4.3023076172e+003;4.3171796875e+003;4.3214101563e+003;
1.1093750000e+000;4.3193588867e+003;4.3282050781e+003;4.3294873047e+003;4.3189741211e+003;4.3261538086e+003;4.3305126953e+003;4.3242309570e+003;4.3362822266e+003;4.3264101563e+003;4.3219228516e+003;4.3615385742e+003;4.3287177734e+003;4.3429487305e+003;4.3453847656e+003;
1.1171875000e+000;4.3021796875e+003;4.3053847656e+003;4.3132050781e+003;4.3021796875e+003;4.3053847656e+003;4.3119228516e+003;4.3062822266e+003;4.3152563477e+003;4.3074360352e+003;4.3020512695e+003;4.3378203125e+003;4.3096152344e+003;4.3225639648e+003;4.3266665039e+003;
1.1250000000e+000;4.3542309570e+003;4.3520512695e+003;4.3651284180e+003;4.3501284180e+003;4.3503847656e+003;4.3542309570e+003;4.3507690430e+003;4.3623076172e+003;4.3566665039e+003;4.3547436523e+003;4.3861538086e+003;4.3619228516e+003;4.3728203125e+003;4.3851284180e+003;
1.1328125000e+000;4.3365385742e+003;4.3342309570e+003;4.3500000000e+003;4.3319228516e+003;4.3338461914e+003;4.3383334961e+003;4.3334614258e+003;4.3514101563e+003;4.3439741211e+003;4.3421796875e+003;4.3741025391e+003;4.3493588867e+003;4.3579487305e+003;4.3723076172e+003;
1.1406250000e+000;4.2894873047e+003;4.2853847656e+003;4.3052563477e+003;4.2876923828e+003;4.2857690430e+003;4.2946152344e+003;4.2888461914e+003;4.3085898438e+003;4.2992309570e+003;4.2944873047e+003;4.3289741211e+003;4.3042309570e+003;4.3101284180e+003;4.3264101563e+003;
1.1484375000e+000;4.1888461914e+003;4.1835898438e+003;4.2034614258e+003;4.1943588867e+003;4.1861538086e+003;4.2150000000e+003;4.2064101563e+003;4.2228203125e+003;4.2148715820e+003;4.1947436523e+003;4.2217949219e+003;4.1989741211e+003;4.2051284180e+003;4.2162822266e+003;
1.1562500000e+000;4.1632050781e+003;4.1558974609e+003;4.1785898438e+003;4.1669228516e+003;4.1721796875e+003;4.1932050781e+003;4.1857690430e+003;4.1989741211e+003;4.1878203125e+003;4.1667949219e+003;4.1923076172e+003;4.1703847656e+003;4.1783334961e+003;4.1876923828e+003;
1.1640625000e+000;4.2084614258e+003;4.2048715820e+003;4.2217949219e+003;4.2171796875e+003;4.2205126953e+003;4.2294873047e+003;4.2289741211e+003;4.2414101563e+003;4.2225639648e+003;4.2137177734e+003;4.2332050781e+003;4.2071796875e+003;4.2192309570e+003;4.2285898438e+003;
1.1718750000e+000;4.1773076172e+003;4.1667949219e+003;4.1732050781e+003;4.1801284180e+003;4.1714101563e+003;4.1932050781e+003;4.1824360352e+003;4.1907690430e+003;4.1832050781e+003;4.1688461914e+003;4.1923076172e+003;4.1624360352e+003;4.1848715820e+003;4.1897436523e+003;
1.1796875000e+000;4.1876923828e+003;4.1751284180e+003;4.1806411133e+003;4.1865385742e+003;4.1839741211e+003;4.1998715820e+003;4.1876923828e+003;4.1970512695e+003;4.1920512695e+003;4.1766665039e+003;4.2034614258e+003;4.1710258789e+003;4.1957690430e+003;4.2001284180e+003;
1.1875000000e+000;4.1289741211e+003;4.1111538086e+003;4.1248715820e+003;4.1257690430e+003;4.1205126953e+003;4.1396152344e+003;4.1305126953e+003;4.1362822266e+003;4.1324360352e+003;4.1132050781e+003;4.1483334961e+003;4.1184614258e+003;4.1326923828e+003;4.1442309570e+003;
1.1953125000e+000;4.1351284180e+003;4.1166665039e+003;4.1289741211e+003;4.1317949219e+003;4.1252563477e+003;4.1432050781e+003;4.1347436523e+003;4.1406411133e+003;4.1393588867e+003;4.1180771484e+003;4.1530771484e+003;4.1232050781e+003;4.1392309570e+003;4.1479487305e+003;
1.2031250000e+000;4.1469228516e+003;4.1312822266e+003;4.1394873047e+003;4.1469228516e+003;4.1369228516e+003;4.1506411133e+003;4.1394873047e+003;4.1521796875e+003;4.1553847656e+003;4.1332050781e+003;4.1616665039e+003;4.1311538086e+003;4.1505126953e+003;4.1557690430e+003;
1.2109375000e+000;4.1230771484e+003;4.1080771484e+003;4.1164101563e+003;4.1237177734e+003;4.1103847656e+003;4.1269228516e+003;4.1156411133e+003;4.1262822266e+003;4.1289741211e+003;4.1058974609e+003;4.1342309570e+003;4.1046152344e+003;4.1206411133e+003;4.1297436523e+003;
1.2187500000e+000;4.1628203125e+003;4.1367949219e+003;4.1476923828e+003;4.1498715820e+003;4.1361538086e+003;4.1547436523e+003;4.1515385742e+003;4.1521796875e+003;4.1493588867e+003;4.1283334961e+003;4.1628203125e+003;4.1366665039e+003;4.1439741211e+003;4.1593588867e+003;
1.2265625000e+000;4.1660258789e+003;4.1344873047e+003;4.1482050781e+003;4.1512822266e+003;4.1347436523e+003;4.1532050781e+003;4.1503847656e+003;4.1570512695e+003;4.1517949219e+003;4.1323076172e+003;4.1641025391e+003;4.1412822266e+003;4.1458974609e+003;4.1602563477e+003;
1.2343750000e+000;4.0997436523e+003;4.0630769043e+003;4.0789743652e+003;4.0848718262e+003;4.0634614258e+003;4.0838461914e+003;4.0814101563e+003;4.0935898438e+003;4.0847436523e+003;4.0606411133e+003;4.0912819824e+003;4.0708974609e+003;4.0747436523e+003;4.0878205566e+003;
1.2421875000e+000;4.0983334961e+003;4.0634614258e+003;4.0756411133e+003;4.0807692871e+003;4.0632050781e+003;4.0814101563e+003;4.0802563477e+003;4.0917949219e+003;4.0830769043e+003;4.0561538086e+003;4.0883332520e+003;4.0641025391e+003;4.0725642090e+003;4.0839743652e+003;
1.2500000000e+000;4.1024360352e+003;4.0716667480e+003;4.0814101563e+003;4.0929487305e+003;4.0738461914e+003;4.0971796875e+003;4.0917949219e+003;4.1048715820e+003;4.0991025391e+003;4.0719230957e+003;4.0983334961e+003;4.0738461914e+003;4.0825642090e+003;4.0923076172e+003;
1.2578125000e+000;4.0775642090e+003;4.0439743652e+003;4.0551281738e+003;4.0723076172e+003;4.0502563477e+003;4.0757692871e+003;4.0702563477e+003;4.0789743652e+003;4.0732050781e+003;4.0457692871e+003;4.0701281738e+003;4.0492307129e+003;4.0555129395e+003;4.0660256348e+003;
1.2656250000e+000;4.0797436523e+003;4.0441025391e+003;4.0537180176e+003;4.0723076172e+003;4.0547436523e+003;4.0767949219e+003;4.0729487305e+003;4.0782050781e+003;4.0723076172e+003;4.0452563477e+003;4.0689743652e+003;4.0487180176e+003;4.0555129395e+003;4.0657692871e+003;
1.2734375000e+000;3.9526923828e+003;3.9029487305e+003;3.9176923828e+003;3.9408974609e+003;3.9062819824e+003;3.9551281738e+003;3.9433332520e+003;3.9398718262e+003;3.9387180176e+003;3.9039743652e+003;3.9378205566e+003;3.9147436523e+003;3.9201281738e+003;3.9393588867e+003;
1.2812500000e+000;3.9546154785e+003;3.8996154785e+003;3.9146154785e+003;3.9416667480e+003;3.9047436523e+003;3.9510256348e+003;3.9411538086e+003;3.9353845215e+003;3.9356411133e+003;3.9025642090e+003;3.9341025391e+003;3.9091025391e+003;3.9162819824e+003;3.9348718262e+003;
1.2890625000e+000;3.9171794434e+003;3.8551281738e+003;3.8730769043e+003;3.8960256348e+003;3.8796154785e+003;3.9073076172e+003;3.8974357910e+003;3.8908974609e+003;3.8897436523e+003;3.8624357910e+003;3.8919230957e+003;3.8682050781e+003;3.8771794434e+003;3.8871794434e+003;
1.2968750000e+000;3.9242307129e+003;3.8638461914e+003;3.8782050781e+003;3.9002563477e+003;3.8844870605e+003;3.9121794434e+003;3.8975642090e+003;3.8973076172e+003;3.8994870605e+003;3.8620512695e+003;3.8947436523e+003;3.8741025391e+003;3.8832050781e+003;3.8928205566e+003;
1.3046875000e+000;3.9079487305e+003;3.8430769043e+003;3.8616667480e+003;3.8853845215e+003;3.8635898438e+003;3.8941025391e+003;3.8810256348e+003;3.8824357910e+003;3.8858974609e+003;3.8458974609e+003;3.8771794434e+003;3.8574357910e+003;3.8630769043e+003;3.8750000000e+003;
1.3125000000e+000;3.9402563477e+003;3.8620512695e+003;3.8847436523e+003;3.9180769043e+003;3.8912819824e+003;3.9173076172e+003;3.9110256348e+003;3.9100000000e+003;3.9070512695e+003;3.8694870605e+003;3.9020512695e+003;3.8794870605e+003;3.8847436523e+003;3.8935898438e+003;
1.3203125000e+000;3.9646154785e+003;3.8876923828e+003;3.9078205566e+003;3.9394870605e+003;3.9142307129e+003;3.9392307129e+003;3.9329487305e+003;3.9383332520e+003;3.9317949219e+003;3.8965385742e+003;3.9275642090e+003;3.9050000000e+003;3.9078205566e+003;3.9165385742e+003;
1.3281250000e+000;3.9255129395e+003;3.8493588867e+003;3.8715385742e+003;3.8917949219e+003;3.8692307129e+003;3.8998718262e+003;3.8948718262e+003;3.9039743652e+003;3.8943588867e+003;3.8602563477e+003;3.8878205566e+003;3.8701281738e+003;3.8658974609e+003;3.8753845215e+003;
1.3359375000e+000;3.9171794434e+003;3.8396154785e+003;3.8617949219e+003;3.8787180176e+003;3.8596154785e+003;3.8896154785e+003;3.8864101563e+003;3.8910256348e+003;3.8833332520e+003;3.8498718262e+003;3.8773076172e+003;3.8597436523e+003;3.8576923828e+003;3.8641025391e+003;
1.3437500000e+000;3.9352563477e+003;3.8550000000e+003;3.8685898438e+003;3.8989743652e+003;3.8779487305e+003;3.9071794434e+003;3.8951281738e+003;3.9015385742e+003;3.8962819824e+003;3.8660256348e+003;3.8956411133e+003;3.8774357910e+003;3.8787180176e+003;3.8826923828e+003;
1.3515625000e+000;3.9060256348e+003;3.8244870605e+003;3.8371794434e+003;3.8732050781e+003;3.8480769043e+003;3.8806411133e+003;3.8651281738e+003;3.8714101563e+003;3.8639743652e+003;3.8312819824e+003;3.8657692871e+003;3.8493588867e+003;3.8456411133e+003;3.8532050781e+003;
1.3593750000e+000;3.9105129395e+003;3.8312819824e+003;3.8400000000e+003;3.8774357910e+003;3.8538461914e+003;3.8806411133e+003;3.8687180176e+003;3.8684614258e+003;3.8615385742e+003;3.8257692871e+003;3.8670512695e+003;3.8489743652e+003;3.8458974609e+003;3.8524357910e+003;
1.3671875000e+000;3.9229487305e+003;3.8456411133e+003;3.8539743652e+003;3.8880769043e+003;3.8662819824e+003;3.8893588867e+003;3.8801281738e+003;3.8778205566e+003;3.8726923828e+003;3.8379487305e+003;3.8762819824e+003;3.8575642090e+003;3.8593588867e+003;3.8610256348e+003;
1.3750000000e+000;3.8651281738e+003;3.7816667480e+003;3.7941025391e+003;3.8233332520e+003;3.8021794434e+003;3.8271794434e+003;3.8179487305e+003;3.8042307129e+003;3.7971794434e+003;3.7611538086e+003;3.7951281738e+003;3.7829487305e+003;3.7857692871e+003;3.7810256348e+003;
1.3828125000e+000;3.8841025391e+003;3.7984614258e+003;3.8088461914e+003;3.8384614258e+003;3.8198718262e+003;3.8410256348e+003;3.8317949219e+003;3.8174357910e+003;3.8096154785e+003;3.7723076172e+003;3.8096154785e+003;3.7978205566e+003;3.7964101563e+003;3.7955129395e+003;
1.3906250000e+000;3.9006411133e+003;3.8147436523e+003;3.8242307129e+003;3.8537180176e+003;3.8356411133e+003;3.8547436523e+003;3.8444870605e+003;3.8328205566e+003;3.8256411133e+003;3.7867949219e+003;3.8266667480e+003;3.8158974609e+003;3.8088461914e+003;3.8137180176e+003;
1.3984375000e+000;3.9089743652e+003;3.8057692871e+003;3.8221794434e+003;3.8487180176e+003;3.8311538086e+003;3.8497436523e+003;3.8439743652e+003;3.8329487305e+003;3.8291025391e+003;3.7882050781e+003;3.8271794434e+003;3.8167949219e+003;3.8129487305e+003;3.8088461914e+003;
1.4062500000e+000;3.9244870605e+003;3.8206411133e+003;3.8370512695e+003;3.8607692871e+003;3.8474357910e+003;3.8650000000e+003;3.8565385742e+003;3.8511538086e+003;3.8442307129e+003;3.8093588867e+003;3.8444870605e+003;3.8328205566e+003;3.8302563477e+003;3.8261538086e+003;
1.4140625000e+000;3.9133332520e+003;3.8202563477e+003;3.8291025391e+003;3.8489743652e+003;3.8306411133e+003;3.8556411133e+003;3.8441025391e+003;3.8389743652e+003;3.8330769043e+003;3.7991025391e+003;3.8332050781e+003;3.8226923828e+003;3.8226923828e+003;3.8239743652e+003;
1.4218750000e+000;3.8869230957e+003;3.7864101563e+003;3.8034614258e+003;3.8267949219e+003;3.7967949219e+003;3.8223076172e+003;3.8107692871e+003;3.8146154785e+003;3.8087180176e+003;3.7756411133e+003;3.8091025391e+003;3.7956411133e+003;3.7925642090e+003;3.7956411133e+003;
1.4296875000e+000;3.8739743652e+003;3.7708974609e+003;3.7889743652e+003;3.8144870605e+003;3.7900000000e+003;3.8098718262e+003;3.7969230957e+003;3.7984614258e+003;3.7907692871e+003;3.7602563477e+003;3.7950000000e+003;3.7797436523e+003;3.7780769043e+003;3.7820512695e+003;
1.4375000000e+000;3.9347436523e+003;3.8423076172e+003;3.8494870605e+003;3.8778205566e+003;3.8652563477e+003;3.8732050781e+003;3.8569230957e+003;3.8611538086e+003;3.8517949219e+003;3.8301281738e+003;3.8587180176e+003;3.8470512695e+003;3.8456411133e+003;3.8501281738e+003;
1.4453125000e+000;3.9175642090e+003;3.8260256348e+003;3.8333332520e+003;3.8617949219e+003;3.8439743652e+003;3.8574357910e+003;3.8407692871e+003;3.8437180176e+003;3.8355129395e+003;3.8108974609e+003;3.8426923828e+003;3.8332050781e+003;3.8252563477e+003;3.8320512695e+003;
1.4531250000e+000;3.9255129395e+003;3.8319230957e+003;3.8364101563e+003;3.8588461914e+003;3.8458974609e+003;3.8608974609e+003;3.8483332520e+003;3.8419230957e+003;3.8383332520e+003;3.8079487305e+003;3.8519230957e+003;3.8408974609e+003;3.8233332520e+003;3.8346154785e+003;
1.4609375000e+000;3.9526923828e+003;3.8587180176e+003;3.8605129395e+003;3.8791025391e+003;3.8751281738e+003;3.8864101563e+003;3.8756411133e+003;3.8687180176e+003;3.8658974609e+003;3.8373076172e+003;3.8810256348e+003;3.8698718262e+003;3.8523076172e+003;3.8633332520e+003;
1.4687500000e+000;3.9305129395e+003;3.8347436523e+003;3.8408974609e+003;3.8680769043e+003;3.8571794434e+003;3.8724357910e+003;3.8637180176e+003;3.8546154785e+003;3.8420512695e+003;3.8237180176e+003;3.8525642090e+003;3.8507692871e+003;3.8462819824e+003;3.8473076172e+003;
1.4765625000e+000;3.9600000000e+003;3.8656411133e+003;3.8712819824e+003;3.9003845215e+003;3.8853845215e+003;3.8985898438e+003;3.8917949219e+003;3.8815385742e+003;3.8688461914e+003;3.8510256348e+003;3.8810256348e+003;3.8784614258e+003;3.8775642090e+003;3.8748718262e+003;
1.4843750000e+000;4.0228205566e+003;3.9271794434e+003;3.9371794434e+003;3.9523076172e+003;3.9412819824e+003;3.9491025391e+003;3.9442307129e+003;3.9439743652e+003;3.9351281738e+003;3.9166667480e+003;3.9519230957e+003;3.9443588867e+003;3.9374357910e+003;3.9361538086e+003;
1.4921875000e+000;4.0023076172e+003;3.9010256348e+003;3.9185898438e+003;3.9248718262e+003;3.9146154785e+003;3.9258974609e+003;3.9214101563e+003;3.9244870605e+003;3.9151281738e+003;3.8964101563e+003;3.9323076172e+003;3.9247436523e+003;3.9117949219e+003;3.9151281738e+003;
1.5000000000e+000;4.0289743652e+003;3.9264101563e+003;3.9464101563e+003;3.9487180176e+003;3.9370512695e+003;3.9510256348e+003;3.9537180176e+003;3.9511538086e+003;3.9374357910e+003;3.9221794434e+003;3.9524357910e+003;3.9478205566e+003;3.9330769043e+003;3.9441025391e+003;
1.5078125000e+000;4.0614101563e+003;3.9651281738e+003;3.9820512695e+003;3.9812819824e+003;3.9734614258e+003;3.9869230957e+003;3.9885898438e+003;3.9883332520e+003;3.9752563477e+003;3.9603845215e+003;3.9897436523e+003;3.9856411133e+003;3.9705129395e+003;3.9805129395e+003;
1.5156250000e+000;4.0646154785e+003;3.9721794434e+003;3.9889743652e+003;3.9830769043e+003;3.9793588867e+003;3.9961538086e+003;3.9948718262e+003;3.9962819824e+003;3.9842307129e+003;3.9679487305e+003;3.9985898438e+003;3.9943588867e+003;3.9791025391e+003;3.9855129395e+003;
1.5234375000e+000;4.0552563477e+003;3.9637180176e+003;3.9811538086e+003;3.9723076172e+003;3.9714101563e+003;3.9923076172e+003;3.9885898438e+003;3.9896154785e+003;3.9788461914e+003;3.9606411133e+003;3.9928205566e+003;3.9861538086e+003;3.9744870605e+003;3.9741025391e+003;
1.5312500000e+000;4.0350000000e+003;3.9512819824e+003;3.9551281738e+003;3.9750000000e+003;3.9685898438e+003;3.9864101563e+003;3.9838461914e+003;3.9876923828e+003;3.9792307129e+003;3.9593588867e+003;3.9780769043e+003;3.9665385742e+003;3.9633332520e+003;3.9561538086e+003;
1.5390625000e+000;4.0017949219e+003;3.9203845215e+003;3.9247436523e+003;3.9453845215e+003;3.9356411133e+003;3.9594870605e+003;3.9564101563e+003;3.9583332520e+003;3.9470512695e+003;3.9248718262e+003;3.9467949219e+003;3.9374357910e+003;3.9287180176e+003;3.9271794434e+003;
1.5468750000e+000;3.9962819824e+003;3.9142307129e+003;3.9264101563e+003;3.9365385742e+003;3.9139743652e+003;3.9523076172e+003;3.9448718262e+003;3.9505129395e+003;3.9353845215e+003;3.9202563477e+003;3.9476923828e+003;3.9364101563e+003;3.9255129395e+003;3.9267949219e+003;
1.5546875000e+000;3.9311538086e+003;3.8388461914e+003;3.8574357910e+003;3.8617949219e+003;3.8587180176e+003;3.8760256348e+003;3.8756411133e+003;3.8734614258e+003;3.8630769043e+003;3.8417949219e+003;3.8617949219e+003;3.8643588867e+003;3.8535898438e+003;3.8548718262e+003;
1.5625000000e+000;3.9560256348e+003;3.8646154785e+003;3.8817949219e+003;3.8843588867e+003;3.8880769043e+003;3.8996154785e+003;3.9010256348e+003;3.9015385742e+003;3.8916667480e+003;3.8703845215e+003;3.8900000000e+003;3.8898718262e+003;3.8806411133e+003;3.8817949219e+003;
1.5703125000e+000;3.9276923828e+003;3.8380769043e+003;3.8569230957e+003;3.8708974609e+003;3.8526923828e+003;3.8828205566e+003;3.8782050781e+003;3.8825642090e+003;3.8684614258e+003;3.8519230957e+003;3.8721794434e+003;3.8703845215e+003;3.8539743652e+003;3.8601281738e+003;
1.5781250000e+000;3.9824357910e+003;3.8896154785e+003;3.9070512695e+003;3.9156411133e+003;3.9106411133e+003;3.9303845215e+003;3.9294870605e+003;3.9326923828e+003;3.9189743652e+003;3.9041025391e+003;3.9211538086e+003;3.9203845215e+003;3.9030769043e+003;3.9133332520e+003;
1.5859375000e+000;3.9770512695e+003;3.8871794434e+003;3.9060256348e+003;3.9141025391e+003;3.9064101563e+003;3.9284614258e+003;3.9283332520e+003;3.9351281738e+003;3.9216667480e+003;3.9076923828e+003;3.9252563477e+003;3.9211538086e+003;3.9002563477e+003;3.9135898438e+003;
1.5937500000e+000;3.9944870605e+003;3.9107692871e+003;3.9176923828e+003;3.9312819824e+003;3.9183332520e+003;3.9430769043e+003;3.9421794434e+003;3.9437180176e+003;3.9348718262e+003;3.9239743652e+003;3.9432050781e+003;3.9298718262e+003;3.9205129395e+003;3.9275642090e+003;
1.6015625000e+000;4.0093588867e+003;3.9235898438e+003;3.9294870605e+003;3.9407692871e+003;3.9317949219e+003;3.9539743652e+003;3.9503845215e+003;3.9530769043e+003;3.9467949219e+003;3.9369230957e+003;3.9510256348e+003;3.9397436523e+003;3.9375642090e+003;3.9392307129e+003;
1.6093750000e+000;3.9371794434e+003;3.8473076172e+003;3.8608974609e+003;3.8752563477e+003;3.8606411133e+003;3.8878205566e+003;3.8802563477e+003;3.8805129395e+003;3.8757692871e+003;3.8620512695e+003;3.8741025391e+003;3.8700000000e+003;3.8685898438e+003;3.8661538086e+003;
1.6171875000e+000;3.9083332520e+003;3.8193588867e+003;3.8328205566e+003;3.8539743652e+003;3.8347436523e+003;3.8620512695e+003;3.8556411133e+003;3.8516667480e+003;3.8461538086e+003;3.8300000000e+003;3.8471794434e+003;3.8425642090e+003;3.8385898438e+003;3.8374357910e+003;
1.6250000000e+000;3.9164101563e+003;3.8210256348e+003;3.8338461914e+003;3.8583332520e+003;3.8373076172e+003;3.8598718262e+003;3.8502563477e+003;3.8521794434e+003;3.8439743652e+003;3.8287180176e+003;3.8529487305e+003;3.8444870605e+003;3.8333332520e+003;3.8389743652e+003;
1.6328125000e+000;3.8917949219e+003;3.7900000000e+003;3.8079487305e+003;3.8283332520e+003;3.8065385742e+003;3.8326923828e+003;3.8203845215e+003;3.8215385742e+003;3.8143588867e+003;3.7994870605e+003;3.8221794434e+003;3.8169230957e+003;3.8053845215e+003;3.8100000000e+003;
1.6406250000e+000;3.8816667480e+003;3.7773076172e+003;3.7979487305e+003;3.8143588867e+003;3.7937180176e+003;3.8207692871e+003;3.8084614258e+003;3.8052563477e+003;3.8005129395e+003;3.7864101563e+003;3.8075642090e+003;3.8050000000e+003;3.7961538086e+003;3.7976923828e+003;
1.6484375000e+000;3.8965385742e+003;3.7948718262e+003;3.8146154785e+003;3.8269230957e+003;3.8097436523e+003;3.8342307129e+003;3.8239743652e+003;3.8175642090e+003;3.8150000000e+003;3.8025642090e+003;3.8223076172e+003;3.8207692871e+003;3.8155129395e+003;3.8143588867e+003;
1.6562500000e+000;3.8612819824e+003;3.7614101563e+003;3.7864101563e+003;3.7883332520e+003;3.7678205566e+003;3.8042307129e+003;3.7907692871e+003;3.7830769043e+003;3.7755129395e+003;3.7589743652e+003;3.7858974609e+003;3.7837180176e+003;3.7675642090e+003;3.7775642090e+003;
1.6640625000e+000;3.8916667480e+003;3.7846154785e+003;3.8130769043e+003;3.8203845215e+003;3.7944870605e+003;3.8241025391e+003;3.8176923828e+003;3.8101281738e+003;3.8129487305e+003;3.7975642090e+003;3.8116667480e+003;3.8129487305e+003;3.8035898438e+003;3.8079487305e+003;
1.6718750000e+000;3.8788461914e+003;3.7671794434e+003;3.7992307129e+003;3.8039743652e+003;3.7726923828e+003;3.8089743652e+003;3.8038461914e+003;3.7919230957e+003;3.7939743652e+003;3.7792307129e+003;3.7988461914e+003;3.7962819824e+003;3.7885898438e+003;3.7942307129e+003;
1.6796875000e+000;3.9153845215e+003;3.8044870605e+003;3.8306411133e+003;3.8335898438e+003;3.8087180176e+003;3.8420512695e+003;3.8348718262e+003;3.8256411133e+003;3.8253845215e+003;3.8130769043e+003;3.8382050781e+003;3.8307692871e+003;3.8223076172e+003;3.8287180176e+003;
1.6875000000e+000;3.9133332520e+003;3.8070512695e+003;3.8284614258e+003;3.8333332520e+003;3.8175642090e+003;3.8435898438e+003;3.8334614258e+003;3.8288461914e+003;3.8279487305e+003;3.8152563477e+003;3.8379487305e+003;3.8319230957e+003;3.8229487305e+003;3.8276923828e+003;
1.6953125000e+000;3.8738461914e+003;3.7705129395e+003;3.7921794434e+003;3.7966667480e+003;3.7989743652e+003;3.8114101563e+003;3.8001281738e+003;3.7900000000e+003;3.7903845215e+003;3.7747436523e+003;3.7947436523e+003;3.7867949219e+003;3.7880769043e+003;3.7850000000e+003;
1.7031250000e+000;3.8584614258e+003;3.7507692871e+003;3.7729487305e+003;3.7832050781e+003;3.7723076172e+003;3.7970512695e+003;3.7812819824e+003;3.7752563477e+003;3.7742307129e+003;3.7597436523e+003;3.7797436523e+003;3.7779487305e+003;3.7676923828e+003;3.7726923828e+003;
1.7109375000e+000;3.8442307129e+003;3.7376923828e+003;3.7570512695e+003;3.7721794434e+003;3.7579487305e+003;3.7835898438e+003;3.7692307129e+003;3.7601281738e+003;3.7598718262e+003;3.7416667480e+003;3.7639743652e+003;3.7637180176e+003;3.7537180176e+003;3.7598718262e+003;
1.7187500000e+000;3.8939743652e+003;3.7911538086e+003;3.8076923828e+003;3.8174357910e+003;3.8053845215e+003;3.8205129395e+003;3.8134614258e+003;3.8075642090e+003;3.8100000000e+003;3.7937180176e+003;3.8158974609e+003;3.8108974609e+003;3.8069230957e+003;3.8152563477e+003;
1.7265625000e+000;3.8733332520e+003;3.7685898438e+003;3.7869230957e+003;3.7948718262e+003;3.7819230957e+003;3.7992307129e+003;3.7900000000e+003;3.7850000000e+003;3.7853845215e+003;3.7708974609e+003;3.7938461914e+003;3.7912819824e+003;3.7819230957e+003;3.7943588867e+003;
1.7343750000e+000;3.8775642090e+003;3.7684614258e+003;3.7862819824e+003;3.7902563477e+003;3.7826923828e+003;3.7996154785e+003;3.7873076172e+003;3.7800000000e+003;3.7776923828e+003;3.7635898438e+003;3.7901281738e+003;3.7908974609e+003;3.7761538086e+003;3.7905129395e+003;
1.7421875000e+000;3.9067949219e+003;3.7974357910e+003;3.8165385742e+003;3.8147436523e+003;3.8106411133e+003;3.8257692871e+003;3.8134614258e+003;3.8080769043e+003;3.8066667480e+003;3.7934614258e+003;3.8184614258e+003;3.8198718262e+003;3.8055129395e+003;3.8182050781e+003;
1.7500000000e+000;3.8700000000e+003;3.7602563477e+003;3.7873076172e+003;3.7823076172e+003;3.7706411133e+003;3.7925642090e+003;3.7794870605e+003;3.7702563477e+003;3.7733332520e+003;3.7612819824e+003;3.7819230957e+003;3.7882050781e+003;3.7739743652e+003;3.7832050781e+003;
1.7578125000e+000;3.8879487305e+003;3.7778205566e+003;3.8005129395e+003;3.8023076172e+003;3.7905129395e+003;3.8082050781e+003;3.7964101563e+003;3.7842307129e+003;3.7882050781e+003;3.7767949219e+003;3.7993588867e+003;3.8029487305e+003;3.7906411133e+003;3.7980769043e+003;
1.7656250000e+000;3.9261538086e+003;3.8161538086e+003;3.8344870605e+003;3.8417949219e+003;3.8311538086e+003;3.8434614258e+003;3.8326923828e+003;3.8219230957e+003;3.8265385742e+003;3.8166667480e+003;3.8392307129e+003;3.8397436523e+003;3.8284614258e+003;3.8344870605e+003;
1.7734375000e+000;3.9439743652e+003;3.8343588867e+003;3.8521794434e+003;3.8608974609e+003;3.8505129395e+003;3.8620512695e+003;3.8514101563e+003;3.8439743652e+003;3.8488461914e+003;3.8400000000e+003;3.8602563477e+003;3.8598718262e+003;3.8475642090e+003;3.8530769043e+003;
1.7812500000e+000;3.9612819824e+003;3.8603845215e+003;3.8758974609e+003;3.8689743652e+003;3.8750000000e+003;3.8876923828e+003;3.8785898438e+003;3.8707692871e+003;3.8715385742e+003;3.8689743652e+003;3.8800000000e+003;3.8724357910e+003;3.8752563477e+003;3.8728205566e+003;
1.7890625000e+000;3.9857692871e+003;3.8896154785e+003;3.9010256348e+003;3.8938461914e+003;3.8996154785e+003;3.9097436523e+003;3.9014101563e+003;3.8962819824e+003;3.8967949219e+003;3.8984614258e+003;3.9065385742e+003;3.8979487305e+003;3.9042307129e+003;3.9007692871e+003;
1.7968750000e+000;3.9842307129e+003;3.8915385742e+003;3.9011538086e+003;3.8997436523e+003;3.8870512695e+003;3.9061538086e+003;3.9008974609e+003;3.8943588867e+003;3.8969230957e+003;3.8978205566e+003;3.9053845215e+003;3.9101281738e+003;3.9060256348e+003;3.9078205566e+003;
1.8046875000e+000;4.0097436523e+003;3.8984614258e+003;3.9280769043e+003;3.9316667480e+003;3.9267949219e+003;3.9324357910e+003;3.9265385742e+003;3.9289743652e+003;3.9288461914e+003;3.9330769043e+003;3.9362819824e+003;3.9323076172e+003;3.9298718262e+003;3.9317949219e+003;
1.8125000000e+000;3.9919230957e+003;3.8752563477e+003;3.9108974609e+003;3.9155129395e+003;3.9115385742e+003;3.9125642090e+003;3.9085898438e+003;3.9053845215e+003;3.9055129395e+003;3.9091025391e+003;3.9148718262e+003;3.9096154785e+003;3.9061538086e+003;3.9115385742e+003;
1.8203125000e+000;4.0524357910e+003;3.9478205566e+003;3.9782050781e+003;3.9724357910e+003;3.9688461914e+003;3.9666667480e+003;3.9619230957e+003;3.9587180176e+003;3.9642307129e+003;3.9693588867e+003;3.9737180176e+003;3.9798718262e+003;3.9693588867e+003;3.9789743652e+003;
1.8281250000e+000;4.0052563477e+003;3.8993588867e+003;3.9350000000e+003;3.9261538086e+003;3.9241025391e+003;3.9289743652e+003;3.9253845215e+003;3.9202563477e+003;3.9210256348e+003;3.9242307129e+003;3.9306411133e+003;3.9343588867e+003;3.9237180176e+003;3.9320512695e+003;
1.8359375000e+000;4.0342307129e+003;3.9289743652e+003;3.9607692871e+003;3.9560256348e+003;3.9574357910e+003;3.9557692871e+003;3.9564101563e+003;3.9478205566e+003;3.9488461914e+003;3.9520512695e+003;3.9591025391e+003;3.9588461914e+003;3.9519230957e+003;3.9605129395e+003;
1.8437500000e+000;4.0120512695e+003;3.9164101563e+003;3.9439743652e+003;3.9478205566e+003;3.9420512695e+003;3.9430769043e+003;3.9350000000e+003;3.9262819824e+003;3.9330769043e+003;3.9398718262e+003;3.9348718262e+003;3.9405129395e+003;3.9324357910e+003;3.9416667480e+003;
1.8515625000e+000;3.9969230957e+003;3.9014101563e+003;3.9305129395e+003;3.9351281738e+003;3.9257692871e+003;3.9284614258e+003;3.9184614258e+003;3.9078205566e+003;3.9152563477e+003;3.9228205566e+003;3.9187180176e+003;3.9255129395e+003;3.9137180176e+003;3.9248718262e+003;
1.8593750000e+000;4.0187180176e+003;3.9196154785e+003;3.9512819824e+003;3.9526923828e+003;3.9417949219e+003;3.9453845215e+003;3.9384614258e+003;3.9316667480e+003;3.9351281738e+003;3.9412819824e+003;3.9458974609e+003;3.9497436523e+003;3.9292307129e+003;3.9473076172e+003;
1.8671875000e+000;4.0075642090e+003;3.9066667480e+003;3.9402563477e+003;3.9397436523e+003;3.9303845215e+003;3.9376923828e+003;3.9324357910e+003;3.9276923828e+003;3.9284614258e+003;3.9314101563e+003;3.9387180176e+003;3.9428205566e+003;3.9200000000e+003;3.9389743652e+003;
1.8750000000e+000;3.9876923828e+003;3.8861538086e+003;3.9212819824e+003;3.9202563477e+003;3.9151281738e+003;3.9251281738e+003;3.9208974609e+003;3.9144870605e+003;3.9152563477e+003;3.9146154785e+003;3.9212819824e+003;3.9261538086e+003;3.9057692871e+003;3.9212819824e+003;
1.8828125000e+000;4.0078205566e+003;3.9093588867e+003;3.9443588867e+003;3.9426923828e+003;3.9517949219e+003;3.9582050781e+003;3.9534614258e+003;3.9441025391e+003;3.9542307129e+003;3.9517949219e+003;3.9465385742e+003;3.9478205566e+003;3.9419230957e+003;3.9453845215e+003;
1.8906250000e+000;4.0157692871e+003;3.9184614258e+003;3.9546154785e+003;3.9514101563e+003;3.9643588867e+003;3.9721794434e+003;3.9641025391e+003;3.9589743652e+003;3.9726923828e+003;3.9701281738e+003;3.9593588867e+003;3.9579487305e+003;3.9542307129e+003;3.9575642090e+003;
1.8984375000e+000;3.9883332520e+003;3.8903845215e+003;3.9289743652e+003;3.9250000000e+003;3.9366667480e+003;3.9512819824e+003;3.9394870605e+003;3.9382050781e+003;3.9508974609e+003;3.9457692871e+003;3.9355129395e+003;3.9337180176e+003;3.9260256348e+003;3.9343588867e+003;
1.9062500000e+000;4.0005129395e+003;3.8957692871e+003;3.9347436523e+003;3.9402563477e+003;3.9330769043e+003;3.9407692871e+003;3.9320512695e+003;3.9346154785e+003;3.9406411133e+003;3.9417949219e+003;3.9414101563e+003;3.9430769043e+003;3.9360256348e+003;3.9382050781e+003;
1.9140625000e+000;3.9878205566e+003;3.8802563477e+003;3.9232050781e+003;3.9262819824e+003;3.9170512695e+003;3.9265385742e+003;3.9151281738e+003;3.9192307129e+003;3.9252563477e+003;3.9302563477e+003;3.9270512695e+003;3.9294870605e+003;3.9248718262e+003;3.9247436523e+003;
1.9218750000e+000;4.0302563477e+003;3.9275642090e+003;3.9633332520e+003;3.9574357910e+003;3.9583332520e+003;3.9651281738e+003;3.9576923828e+003;3.9541025391e+003;3.9548718262e+003;3.9662819824e+003;3.9655129395e+003;3.9675642090e+003;3.9662819824e+003;3.9655129395e+003;
1.9296875000e+000;4.0073076172e+003;3.9124357910e+003;3.9479487305e+003;3.9430769043e+003;3.9344870605e+003;3.9414101563e+003;3.9369230957e+003;3.9225642090e+003;3.9243588867e+003;3.9392307129e+003;3.9385898438e+003;3.9433332520e+003;3.9406411133e+003;3.9415385742e+003;
1.9375000000e+000;4.0367949219e+003;3.9446154785e+003;3.9783332520e+003;3.9721794434e+003;3.9674357910e+003;3.9712819824e+003;3.9660256348e+003;3.9511538086e+003;3.9548718262e+003;3.9700000000e+003;3.9679487305e+003;3.9728205566e+003;3.9710256348e+003;3.9705129395e+003;
1.9453125000e+000;4.0646154785e+003;3.9789743652e+003;4.0094870605e+003;4.0057692871e+003;4.0002563477e+003;4.0101281738e+003;4.0007692871e+003;3.9950000000e+003;4.0001281738e+003;4.0119230957e+003;4.0100000000e+003;4.0152563477e+003;4.0030769043e+003;4.0101281738e+003;
1.9531250000e+000;4.0873076172e+003;4.0119230957e+003;4.0279487305e+003;4.0383332520e+003;4.0229487305e+003;4.0297436523e+003;4.0276923828e+003;4.0207692871e+003;4.0250000000e+003;4.0388461914e+003;4.0394870605e+003;4.0344870605e+003;4.0412819824e+003;4.0374357910e+003;
1.9609375000e+000;4.0835898438e+003;4.0141025391e+003;4.0265385742e+003;4.0361538086e+003;4.0292307129e+003;4.0287180176e+003;4.0270512695e+003;4.0229487305e+003;4.0258974609e+003;4.0417949219e+003;4.0383332520e+003;4.0341025391e+003;4.0425642090e+003;4.0360256348e+003;
1.9687500000e+000;4.0624357910e+003;3.9957692871e+003;4.0097436523e+003;4.0151281738e+003;4.0192307129e+003;4.0128205566e+003;4.0108974609e+003;4.0061538086e+003;4.0079487305e+003;4.0246154785e+003;4.0184614258e+003;4.0160256348e+003;4.0226923828e+003;4.0169230957e+003;
1.9765625000e+000;4.0933332520e+003;4.0257692871e+003;4.0473076172e+003;4.0398718262e+003;4.0598718262e+003;4.0469230957e+003;4.0453845215e+003;4.0361538086e+003;4.0391025391e+003;4.0579487305e+003;4.0516667480e+003;4.0458974609e+003;4.0552563477e+003;4.0511538086e+003;
1.9843750000e+000;4.1456411133e+003;4.0784614258e+003;4.1006411133e+003;4.0926923828e+003;4.0943588867e+003;4.0908974609e+003;4.0925642090e+003;4.0864101563e+003;4.0883332520e+003;4.1137177734e+003;4.1112822266e+003;4.1032050781e+003;4.1123076172e+003;4.1092309570e+003;
1.9921875000e+000;4.1348715820e+003;4.0685898438e+003;4.0896154785e+003;4.0843588867e+003;4.0838461914e+003;4.0788461914e+003;4.0820512695e+003;4.0720512695e+003;4.0726923828e+003;4.0991025391e+003;4.0980771484e+003;4.0919230957e+003;4.0976923828e+003;4.0964101563e+003;
2.0000000000e+000;4.1525639648e+003;4.0883332520e+003;4.1080771484e+003;4.1021796875e+003;4.1069228516e+003;4.0957692871e+003;4.0987177734e+003;4.0871794434e+003;4.0875642090e+003;4.1156411133e+003;4.1132050781e+003;4.1076923828e+003;4.1128203125e+003;4.1124360352e+003;
2.0078125000e+000;4.1905126953e+003;4.1316665039e+003;4.1523076172e+003;4.1410258789e+003;4.1535898438e+003;4.1396152344e+003;4.1339741211e+003;4.1320512695e+003;4.1334614258e+003;4.1625639648e+003;4.1523076172e+003;4.1480771484e+003;4.1534614258e+003;4.1557690430e+003;
2.0156250000e+000;4.1691025391e+003;4.1124360352e+003;4.1328203125e+003;4.1221796875e+003;4.1311538086e+003;4.1242309570e+003;4.1143588867e+003;4.1137177734e+003;4.1158974609e+003;4.1428203125e+003;4.1324360352e+003;4.1300000000e+003;4.1326923828e+003;4.1371796875e+003;
2.0234375000e+000;4.1511538086e+003;4.0971796875e+003;4.1137177734e+003;4.1052563477e+003;4.1116665039e+003;4.1094873047e+003;4.0989741211e+003;4.0942307129e+003;4.0976923828e+003;4.1223076172e+003;4.1152563477e+003;4.1142309570e+003;4.1143588867e+003;4.1198715820e+003;
2.0312500000e+000;4.1858974609e+003;4.1355126953e+003;4.1541025391e+003;4.1362822266e+003;4.1507690430e+003;4.1432050781e+003;4.1400000000e+003;4.1358974609e+003;4.1353847656e+003;4.1685898438e+003;4.1548715820e+003;4.1574360352e+003;4.1597436523e+003;4.1624360352e+003;
2.0390625000e+000;4.1878203125e+003;4.1402563477e+003;4.1530771484e+003;4.1425639648e+003;4.1551284180e+003;4.1478203125e+003;4.1460258789e+003;4.1414101563e+003;4.1415385742e+003;4.1719228516e+003;4.1598715820e+003;4.1582050781e+003;4.1635898438e+003;4.1638461914e+003;
2.0468750000e+000;4.1721796875e+003;4.1339741211e+003;4.1456411133e+003;4.1412822266e+003;4.1564101563e+003;4.1444873047e+003;4.1443588867e+003;4.1426923828e+003;4.1446152344e+003;4.1693588867e+003;4.1582050781e+003;4.1546152344e+003;4.1647436523e+003;4.1583334961e+003;
2.0546875000e+000;4.2132050781e+003;4.1778203125e+003;4.1934614258e+003;4.1824360352e+003;4.2066665039e+003;4.1852563477e+003;4.1875639648e+003;4.1825639648e+003;4.1798715820e+003;4.2069228516e+003;4.1984614258e+003;4.1937177734e+003;4.2035898438e+003;4.1966665039e+003;
2.0625000000e+000;4.2296152344e+003;4.1967949219e+003;4.2093588867e+003;4.2006411133e+003;4.2232050781e+003;4.2014101563e+003;4.2043588867e+003;4.2039741211e+003;4.2016665039e+003;4.2323076172e+003;4.2194873047e+003;4.2144873047e+003;4.2226923828e+003;4.2143588867e+003;
2.0703125000e+000;4.2041025391e+003;4.1666665039e+003;4.1892309570e+003;4.1735898438e+003;4.1938461914e+003;4.1810258789e+003;4.1803847656e+003;4.1733334961e+003;4.1764101563e+003;4.2019228516e+003;4.1888461914e+003;4.1915385742e+003;4.1955126953e+003;4.1825639648e+003;
2.0781250000e+000;4.2626923828e+003;4.2407690430e+003;4.2510258789e+003;4.2405126953e+003;4.2628203125e+003;4.2442309570e+003;4.2402563477e+003;4.2382050781e+003;4.2342309570e+003;4.2637177734e+003;4.2562822266e+003;4.2594873047e+003;4.2543588867e+003;4.2485898438e+003;
2.0859375000e+000;4.2375639648e+003;4.2191025391e+003;4.2239741211e+003;4.2203847656e+003;4.2392309570e+003;4.2216665039e+003;4.2183334961e+003;4.2142309570e+003;4.2089741211e+003;4.2374360352e+003;4.2300000000e+003;4.2364101563e+003;4.2310258789e+003;4.2250000000e+003;
2.0937500000e+000;4.2355126953e+003;4.2164101563e+003;4.2194873047e+003;4.2174360352e+003;4.2357690430e+003;4.2174360352e+003;4.2153847656e+003;4.2079487305e+003;4.2046152344e+003;4.2305126953e+003;4.2232050781e+003;4.2316665039e+003;4.2296152344e+003;4.2203847656e+003;
2.1015625000e+000;4.2791025391e+003;4.2544873047e+003;4.2679487305e+003;4.2526923828e+003;4.2741025391e+003;4.2539741211e+003;4.2519228516e+003;4.2476923828e+003;4.2507690430e+003;4.2739741211e+003;4.2680771484e+003;4.2747436523e+003;4.2755126953e+003;4.2596152344e+003;
2.1093750000e+000;4.2664101563e+003;4.2408974609e+003;4.2616665039e+003;4.2412822266e+003;4.2606411133e+003;4.2441025391e+003;4.2412822266e+003;4.2394873047e+003;4.2428203125e+003;4.2660258789e+003;4.2625639648e+003;4.2683334961e+003;4.2655126953e+003;4.2482050781e+003;
2.1171875000e+000;4.2276923828e+003;4.2082050781e+003;4.2262822266e+003;4.2111538086e+003;4.2297436523e+003;4.2141025391e+003;4.2124360352e+003;4.2085898438e+003;4.2093588867e+003;4.2319228516e+003;4.2315385742e+003;4.2374360352e+003;4.2337177734e+003;4.2137177734e+003;
2.1250000000e+000;4.2426923828e+003;4.2270512695e+003;4.2385898438e+003;4.2253847656e+003;4.2496152344e+003;4.2297436523e+003;4.2285898438e+003;4.2251284180e+003;4.2269228516e+003;4.2483334961e+003;4.2462822266e+003;4.2517949219e+003;4.2526923828e+003;4.2312822266e+003;
2.1328125000e+000;4.2264101563e+003;4.2101284180e+003;4.2287177734e+003;4.2038461914e+003;4.2225639648e+003;4.2200000000e+003;4.2188461914e+003;4.2157690430e+003;4.2235898438e+003;4.2367949219e+003;4.2385898438e+003;4.2361538086e+003;4.2420512695e+003;4.2200000000e+003;
2.1406250000e+000;4.2293588867e+003;4.2125639648e+003;4.2320512695e+003;4.2107690430e+003;4.2217949219e+003;4.2244873047e+003;4.2251284180e+003;4.2202563477e+003;4.2274360352e+003;4.2403847656e+003;4.2455126953e+003;4.2388461914e+003;4.2461538086e+003;4.2219228516e+003;
2.1484375000e+000;4.2570512695e+003;4.2417949219e+003;4.2575639648e+003;4.2433334961e+003;4.2511538086e+003;4.2514101563e+003;4.2537177734e+003;4.2502563477e+003;4.2556411133e+003;4.2714101563e+003;4.2756411133e+003;4.2667949219e+003;4.2767949219e+003;4.2492309570e+003;
2.1562500000e+000;4.2748715820e+003;4.2703847656e+003;4.2828203125e+003;4.2651284180e+003;4.2966665039e+003;4.2756411133e+003;4.2784614258e+003;4.2753847656e+003;4.2825639648e+003;4.3021796875e+003;4.2964101563e+003;4.2892309570e+003;4.3000000000e+003;4.2724360352e+003;
2.1640625000e+000;4.2974360352e+003;4.2937177734e+003;4.3075639648e+003;4.2891025391e+003;4.3201284180e+003;4.3001284180e+003;4.3014101563e+003;4.3025639648e+003;4.3107690430e+003;4.3302563477e+003;4.3233334961e+003;4.3144873047e+003;4.3237177734e+003;4.2984614258e+003;
2.1718750000e+000;4.2601284180e+003;4.2602563477e+003;4.2712822266e+003;4.2600000000e+003;4.2866665039e+003;4.2737177734e+003;4.2746152344e+003;4.2702563477e+003;4.2738461914e+003;4.2878203125e+003;4.2811538086e+003;4.2767949219e+003;4.2825639648e+003;4.2625639648e+003;
2.1796875000e+000;4.3134614258e+003;4.3301284180e+003;4.3264101563e+003;4.3216665039e+003;4.3502563477e+003;4.3284614258e+003;4.3280771484e+003;4.3246152344e+003;4.3301284180e+003;4.3444873047e+003;4.3355126953e+003;4.3239741211e+003;4.3400000000e+003;4.3146152344e+003;
2.1875000000e+000;4.2943588867e+003;4.3089741211e+003;4.3093588867e+003;4.3062822266e+003;4.3298715820e+003;4.3114101563e+003;4.3074360352e+003;4.3041025391e+003;4.3089741211e+003;4.3221796875e+003;4.3157690430e+003;4.3050000000e+003;4.3188461914e+003;4.2944873047e+003;
2.1953125000e+000;4.3466665039e+003;4.3552563477e+003;4.3621796875e+003;4.3483334961e+003;4.3746152344e+003;4.3547436523e+003;4.3539741211e+003;4.3501284180e+003;4.3541025391e+003;4.3716665039e+003;4.3701284180e+003;4.3602563477e+003;4.3652563477e+003;4.3464101563e+003;
2.2031250000e+000;4.3435898438e+003;4.3541025391e+003;4.3598715820e+003;4.3458974609e+003;4.3702563477e+003;4.3515385742e+003;4.3512822266e+003;4.3491025391e+003;4.3553847656e+003;4.3751284180e+003;4.3682050781e+003;4.3593588867e+003;4.3655126953e+003;4.3471796875e+003;
2.2109375000e+000;4.3089741211e+003;4.3207690430e+003;4.3228203125e+003;4.3123076172e+003;4.3337177734e+003;4.3175639648e+003;4.3185898438e+003;4.3097436523e+003;4.3183334961e+003;4.3361538086e+003;4.3244873047e+003;4.3201284180e+003;4.3361538086e+003;4.3147436523e+003;
2.2187500000e+000;4.3405126953e+003;4.3506411133e+003;4.3507690430e+003;4.3370512695e+003;4.3623076172e+003;4.3437177734e+003;4.3470512695e+003;4.3366665039e+003;4.3437177734e+003;4.3606411133e+003;4.3514101563e+003;4.3479487305e+003;4.3671796875e+003;4.3442309570e+003;
2.2265625000e+000;4.3903847656e+003;4.4017949219e+003;4.3989741211e+003;4.3829487305e+003;4.4124360352e+003;4.3926923828e+003;4.3946152344e+003;4.3938461914e+003;4.3966665039e+003;4.4194873047e+003;4.4141025391e+003;4.4076923828e+003;4.4153847656e+003;4.4002563477e+003;
2.2343750000e+000;4.3738461914e+003;4.3905126953e+003;4.3838461914e+003;4.3737177734e+003;4.4039741211e+003;4.3838461914e+003;4.3842309570e+003;4.3815385742e+003;4.3862822266e+003;4.4097436523e+003;4.4034614258e+003;4.3942309570e+003;4.4041025391e+003;4.3884614258e+003;
2.2421875000e+000;4.3966665039e+003;4.4224360352e+003;4.4093588867e+003;4.4030771484e+003;4.4379487305e+003;4.4141025391e+003;4.4143588867e+003;4.4135898438e+003;4.4201284180e+003;4.4433334961e+003;4.4335898438e+003;4.4220512695e+003;4.4382050781e+003;4.4150000000e+003;
2.2500000000e+000;4.3876923828e+003;4.4126923828e+003;4.4030771484e+003;4.3939741211e+003;4.4266665039e+003;4.4061538086e+003;4.4067949219e+003;4.4091025391e+003;4.4137177734e+003;4.4352563477e+003;4.4257690430e+003;4.4165385742e+003;4.4283334961e+003;4.4035898438e+003;
2.2578125000e+000;4.3092309570e+003;4.3267949219e+003;4.3278203125e+003;4.3164101563e+003;4.3457690430e+003;4.3312822266e+003;4.3333334961e+003;4.3294873047e+003;4.3329487305e+003;4.3456411133e+003;4.3441025391e+003;4.3332050781e+003;4.3403847656e+003;4.3200000000e+003;
2.2656250000e+000;4.3216665039e+003;4.3425639648e+003;4.3417949219e+003;4.3296152344e+003;4.3637177734e+003;4.3466665039e+003;4.3460258789e+003;4.3444873047e+003;4.3500000000e+003;4.3632050781e+003;4.3591025391e+003;4.3471796875e+003;4.3570512695e+003;4.3396152344e+003;
2.2734375000e+000;4.3197436523e+003;4.3444873047e+003;4.3430771484e+003;4.3294873047e+003;4.3646152344e+003;4.3496152344e+003;4.3447436523e+003;4.3476923828e+003;4.3535898438e+003;4.3679487305e+003;4.3605126953e+003;4.3508974609e+003;4.3592309570e+003;4.3456411133e+003;
2.2812500000e+000;4.3255126953e+003;4.3483334961e+003;4.3365385742e+003;4.3365385742e+003;4.3582050781e+003;4.3476923828e+003;4.3435898438e+003;4.3411538086e+003;4.3539741211e+003;4.3676923828e+003;4.3612822266e+003;4.3489741211e+003;4.3674360352e+003;4.3475639648e+003;
2.2890625000e+000;4.3012822266e+003;4.3228203125e+003;4.3142309570e+003;4.3132050781e+003;4.3307690430e+003;4.3284614258e+003;4.3212822266e+003;4.3202563477e+003;4.3328203125e+003;4.3469228516e+003;4.3371796875e+003;4.3264101563e+003;4.3464101563e+003;4.3274360352e+003;
2.2968750000e+000;4.3083334961e+003;4.3333334961e+003;4.3276923828e+003;4.3214101563e+003;4.3314101563e+003;4.3371796875e+003;4.3328203125e+003;4.3289741211e+003;4.3351284180e+003;4.3514101563e+003;4.3414101563e+003;4.3315385742e+003;4.3541025391e+003;4.3351284180e+003;
2.3046875000e+000;4.3098715820e+003;4.3297436523e+003;4.3324360352e+003;4.3173076172e+003;4.3515385742e+003;4.3375639648e+003;4.3352563477e+003;4.3303847656e+003;4.3328203125e+003;4.3462822266e+003;4.3424360352e+003;4.3407690430e+003;4.3515385742e+003;4.3425639648e+003;
2.3125000000e+000;4.3270512695e+003;4.3466665039e+003;4.3476923828e+003;4.3343588867e+003;4.3714101563e+003;4.3542309570e+003;4.3525639648e+003;4.3467949219e+003;4.3506411133e+003;4.3650000000e+003;4.3608974609e+003;4.3597436523e+003;4.3697436523e+003;4.3629487305e+003;
2.3203125000e+000;4.3517949219e+003;4.3810258789e+003;4.3776923828e+003;4.3752563477e+003;4.3961538086e+003;4.3843588867e+003;4.3837177734e+003;4.3843588867e+003;4.3951284180e+003;4.4138461914e+003;4.4039741211e+003;4.3941025391e+003;4.4092309570e+003;4.3980771484e+003;
2.3281250000e+000;4.3335898438e+003;4.3611538086e+003;4.3597436523e+003;4.3597436523e+003;4.3766665039e+003;4.3670512695e+003;4.3662822266e+003;4.3660258789e+003;4.3747436523e+003;4.3905126953e+003;4.3850000000e+003;4.3743588867e+003;4.3887177734e+003;4.3773076172e+003;
2.3359375000e+000;4.3708974609e+003;4.3975639648e+003;4.3908974609e+003;4.3917949219e+003;4.4115385742e+003;4.3970512695e+003;4.3969228516e+003;4.3989741211e+003;4.4037177734e+003;4.4187177734e+003;4.4173076172e+003;4.4066665039e+003;4.4233334961e+003;4.4105126953e+003;
2.3437500000e+000;4.3807690430e+003;4.4103847656e+003;4.4010258789e+003;4.3985898438e+003;4.4201284180e+003;4.4057690430e+003;4.4053847656e+003;4.4110258789e+003;4.4171796875e+003;4.4343588867e+003;4.4279487305e+003;4.4191025391e+003;4.4376923828e+003;4.4235898438e+003;
2.3515625000e+000;4.3406411133e+003;4.3755126953e+003;4.3724360352e+003;4.3519228516e+003;4.3770512695e+003;4.3697436523e+003;4.3720512695e+003;4.3712822266e+003;4.3834614258e+003;4.4017949219e+003;4.3885898438e+003;4.3832050781e+003;4.3992309570e+003;4.3880771484e+003;
2.3593750000e+000;4.3739741211e+003;4.4105126953e+003;4.4066665039e+003;4.3851284180e+003;4.4125639648e+003;4.4014101563e+003;4.4042309570e+003;4.4058974609e+003;4.4152563477e+003;4.4351284180e+003;4.4250000000e+003;4.4173076172e+003;4.4315385742e+003;4.4212822266e+003;
2.3671875000e+000;4.3753847656e+003;4.4135898438e+003;4.4089741211e+003;4.3967949219e+003;4.4183334961e+003;4.4075639648e+003;4.4064101563e+003;4.4144873047e+003;4.4170512695e+003;4.4388461914e+003;4.4328203125e+003;4.4234614258e+003;4.4364101563e+003;4.4255126953e+003;
2.3750000000e+000;4.3392309570e+003;4.3760258789e+003;4.3725639648e+003;4.3657690430e+003;4.3821796875e+003;4.3758974609e+003;4.3732050781e+003;4.3764101563e+003;4.3784614258e+003;4.3987177734e+003;4.3937177734e+003;4.3850000000e+003;4.4002563477e+003;4.3885898438e+003;
2.3828125000e+000;4.3462822266e+003;4.3824360352e+003;4.3796152344e+003;4.3714101563e+003;4.3855126953e+003;4.3810258789e+003;4.3808974609e+003;4.3793588867e+003;4.3806411133e+003;4.3985898438e+003;4.3939741211e+003;4.3838461914e+003;4.3985898438e+003;4.3938461914e+003;
2.3906250000e+000;4.3302563477e+003;4.3670512695e+003;4.3660258789e+003;4.3564101563e+003;4.3683334961e+003;4.3656411133e+003;4.3662822266e+003;4.3673076172e+003;4.3642309570e+003;4.3823076172e+003;4.3807690430e+003;4.3705126953e+003;4.3810258789e+003;4.3791025391e+003;
2.3984375000e+000;4.3008974609e+003;4.3384614258e+003;4.3384614258e+003;4.3289741211e+003;4.3394873047e+003;4.3385898438e+003;4.3400000000e+003;4.3385898438e+003;4.3312822266e+003;4.3497436523e+003;4.3528203125e+003;4.3425639648e+003;4.3520512695e+003;4.3497436523e+003;
2.4062500000e+000;4.2894873047e+003;4.3283334961e+003;4.3273076172e+003;4.3173076172e+003;4.3305126953e+003;4.3285898438e+003;4.3306411133e+003;4.3239741211e+003;4.3146152344e+003;4.3343588867e+003;4.3407690430e+003;4.3308974609e+003;4.3430771484e+003;4.3375639648e+003;
2.4140625000e+000;4.2408974609e+003;4.2750000000e+003;4.2800000000e+003;4.2652563477e+003;4.2821796875e+003;4.2882050781e+003;4.2796152344e+003;4.2726923828e+003;4.2651284180e+003;4.2791025391e+003;4.2837177734e+003;4.2883334961e+003;4.2929487305e+003;4.2928203125e+003;
2.4218750000e+000;4.2185898438e+003;4.2462822266e+003;4.2476923828e+003;4.2387177734e+003;4.2476923828e+003;4.2556411133e+003;4.2496152344e+003;4.2437177734e+003;4.2402563477e+003;4.2498715820e+003;4.2535898438e+003;4.2588461914e+003;4.2602563477e+003;4.2600000000e+003;
2.4296875000e+000;4.1896152344e+003;4.2125639648e+003;4.2171796875e+003;4.2128203125e+003;4.2155126953e+003;4.2267949219e+003;4.2191025391e+003;4.2137177734e+003;4.2112822266e+003;4.2208974609e+003;4.2229487305e+003;4.2280771484e+003;4.2273076172e+003;4.2289741211e+003;
2.4375000000e+000;4.1888461914e+003;4.2056411133e+003;4.2096152344e+003;4.2130771484e+003;4.2165385742e+003;4.2232050781e+003;4.2167949219e+003;4.2108974609e+003;4.2108974609e+003;4.2191025391e+003;4.2211538086e+003;4.2174360352e+003;4.2232050781e+003;4.2214101563e+003;
2.4453125000e+000;4.1194873047e+003;4.1365385742e+003;4.1421796875e+003;4.1376923828e+003;4.1493588867e+003;4.1564101563e+003;4.1469228516e+003;4.1419228516e+003;4.1393588867e+003;4.1443588867e+003;4.1447436523e+003;4.1484614258e+003;4.1466665039e+003;4.1450000000e+003;
2.4531250000e+000;4.1255126953e+003;4.1415385742e+003;4.1494873047e+003;4.1411538086e+003;4.1523076172e+003;4.1600000000e+003;4.1501284180e+003;4.1437177734e+003;4.1420512695e+003;4.1475639648e+003;4.1510258789e+003;4.1526923828e+003;4.1507690430e+003;4.1485898438e+003;
2.4609375000e+000;4.1332050781e+003;4.1383334961e+003;4.1584614258e+003;4.1448715820e+003;4.1480771484e+003;4.1626923828e+003;4.1529487305e+003;4.1492309570e+003;4.1487177734e+003;4.1550000000e+003;4.1571796875e+003;4.1542309570e+003;4.1583334961e+003;4.1511538086e+003;
2.4687500000e+000;4.1135898438e+003;4.1124360352e+003;4.1362822266e+003;4.1258974609e+003;4.1257690430e+003;4.1423076172e+003;4.1326923828e+003;4.1278203125e+003;4.1267949219e+003;4.1311538086e+003;4.1310258789e+003;4.1298715820e+003;4.1379487305e+003;4.1285898438e+003;
2.4765625000e+000;4.1880771484e+003;4.1979487305e+003;4.1993588867e+003;4.2056411133e+003;4.2070512695e+003;4.2108974609e+003;4.2015385742e+003;4.1946152344e+003;4.1964101563e+003;4.2000000000e+003;4.1976923828e+003;4.1979487305e+003;4.2150000000e+003;4.2055126953e+003;
2.4843750000e+000;4.1948715820e+003;4.2097436523e+003;4.2088461914e+003;4.2152563477e+003;4.2078203125e+003;4.2182050781e+003;4.2080771484e+003;4.2035898438e+003;4.2057690430e+003;4.2098715820e+003;4.2073076172e+003;4.2079487305e+003;4.2223076172e+003;4.2152563477e+003;
2.4921875000e+000;4.1450000000e+003;4.1538461914e+003;4.1629487305e+003;4.1638461914e+003;4.1437177734e+003;4.1680771484e+003;4.1576923828e+003;4.1497436523e+003;4.1488461914e+003;4.1484614258e+003;4.1525639648e+003;4.1585898438e+003;4.1634614258e+003;4.1619228516e+003;
2.5000000000e+000;4.1461538086e+003;4.1501284180e+003;4.1624360352e+003;4.1602563477e+003;4.1479487305e+003;4.1670512695e+003;4.1566665039e+003;4.1469228516e+003;4.1448715820e+003;4.1432050781e+003;4.1507690430e+003;4.1587177734e+003;4.1606411133e+003;4.1615385742e+003;
2.5078125000e+000;4.1010258789e+003;4.1041025391e+003;4.1180771484e+003;4.1121796875e+003;4.1237177734e+003;4.1274360352e+003;4.1125639648e+003;4.1024360352e+003;4.1020512695e+003;4.1007690430e+003;4.1098715820e+003;4.1185898438e+003;4.1138461914e+003;4.1226923828e+003;
2.5156250000e+000;4.0726923828e+003;4.0760256348e+003;4.0891025391e+003;4.0857692871e+003;4.0914101563e+003;4.0989741211e+003;4.0848718262e+003;4.0698718262e+003;4.0702563477e+003;4.0670512695e+003;4.0783332520e+003;4.0860256348e+003;4.0810256348e+003;4.0905129395e+003;
2.5234375000e+000;4.0773076172e+003;4.0802563477e+003;4.0906411133e+003;4.0910256348e+003;4.0891025391e+003;4.0998715820e+003;4.0866667480e+003;4.0700000000e+003;4.0698718262e+003;4.0658974609e+003;4.0789743652e+003;4.0851281738e+003;4.0802563477e+003;4.0897436523e+003;
2.5312500000e+000;4.0962822266e+003;4.0989741211e+003;4.1065385742e+003;4.1103847656e+003;4.1034614258e+003;4.1153847656e+003;4.1015385742e+003;4.0889743652e+003;4.0861538086e+003;4.0837180176e+003;4.0964101563e+003;4.1020512695e+003;4.0955129395e+003;4.1058974609e+003;
2.5390625000e+000;4.0906411133e+003;4.0884614258e+003;4.0924357910e+003;4.1033334961e+003;4.1037177734e+003;4.1067949219e+003;4.0952563477e+003;4.0796154785e+003;4.0826923828e+003;4.0791025391e+003;4.0807692871e+003;4.0903845215e+003;4.0914101563e+003;4.0965385742e+003;
2.5468750000e+000;4.1287177734e+003;4.1238461914e+003;4.1262822266e+003;4.1393588867e+003;4.1369228516e+003;4.1389741211e+003;4.1273076172e+003;4.1126923828e+003;4.1214101563e+003;4.1175639648e+003;4.1193588867e+003;4.1248715820e+003;4.1297436523e+003;4.1326923828e+003;
2.5546875000e+000;4.0707692871e+003;4.0606411133e+003;4.0691025391e+003;4.0835898438e+003;4.0693588867e+003;4.0837180176e+003;4.0683332520e+003;4.0630769043e+003;4.0678205566e+003;4.0635898438e+003;4.0756411133e+003;4.0730769043e+003;4.0787180176e+003;4.0785898438e+003;
2.5625000000e+000;4.1038461914e+003;4.1010258789e+003;4.1056411133e+003;4.1138461914e+003;4.1105126953e+003;4.1160258789e+003;4.1021796875e+003;4.1079487305e+003;4.1079487305e+003;4.1094873047e+003;4.1082050781e+003;4.1044873047e+003;4.1287177734e+003;4.1119228516e+003;
2.5703125000e+000;4.0912819824e+003;4.0853845215e+003;4.0926923828e+003;4.1029487305e+003;4.0962822266e+003;4.1039741211e+003;4.0876923828e+003;4.0941025391e+003;4.0955129395e+003;4.0950000000e+003;4.0919230957e+003;4.0932050781e+003;4.1123076172e+003;4.0973076172e+003;
2.5781250000e+000;4.0691025391e+003;4.0519230957e+003;4.0639743652e+003;4.0761538086e+003;4.0655129395e+003;4.0760256348e+003;4.0661538086e+003;4.0629487305e+003;4.0657692871e+003;4.0567949219e+003;4.0629487305e+003;4.0696154785e+003;4.0773076172e+003;4.0676923828e+003;
2.5859375000e+000;4.0078205566e+003;3.9989743652e+003;4.0044870605e+003;4.0283332520e+003;4.0128205566e+003;4.0271794434e+003;4.0184614258e+003;4.0093588867e+003;4.0046154785e+003;3.9951281738e+003;4.0130769043e+003;4.0139743652e+003;4.0185898438e+003;4.0142307129e+003;
2.5937500000e+000;4.0239743652e+003;4.0175642090e+003;4.0196154785e+003;4.0458974609e+003;4.0317949219e+003;4.0450000000e+003;4.0370512695e+003;4.0226923828e+003;4.0175642090e+003;4.0078205566e+003;4.0287180176e+003;4.0278205566e+003;4.0332050781e+003;4.0291025391e+003;
2.6015625000e+000;4.0596154785e+003;4.0478205566e+003;4.0553845215e+003;4.0724357910e+003;4.0620512695e+003;4.0788461914e+003;4.0674357910e+003;4.0597436523e+003;4.0571794434e+003;4.0511538086e+003;4.0584614258e+003;4.0589743652e+003;4.0741025391e+003;4.0615385742e+003;
2.6093750000e+000;4.0321794434e+003;4.0165385742e+003;4.0266667480e+003;4.0446154785e+003;4.0311538086e+003;4.0533332520e+003;4.0401281738e+003;4.0326923828e+003;4.0292307129e+003;4.0229487305e+003;4.0292307129e+003;4.0278205566e+003;4.0465385742e+003;4.0329487305e+003;
2.6171875000e+000;4.0688461914e+003;4.0546154785e+003;4.0588461914e+003;4.0793588867e+003;4.0697436523e+003;4.0870512695e+003;4.0750000000e+003;4.0683332520e+003;4.0650000000e+003;4.0611538086e+003;4.0688461914e+003;4.0587180176e+003;4.0819230957e+003;4.0680769043e+003;
2.6250000000e+000;4.0946154785e+003;4.0824357910e+003;4.0851281738e+003;4.1038461914e+003;4.0978203125e+003;4.1102563477e+003;4.0987177734e+003;4.0948718262e+003;4.0935898438e+003;4.0910256348e+003;4.0962822266e+003;4.0869230957e+003;4.1075639648e+003;4.0944870605e+003;
2.6328125000e+000;4.0567949219e+003;4.0374357910e+003;4.0479487305e+003;4.0644870605e+003;4.0520512695e+003;4.0665385742e+003;4.0524357910e+003;4.0474357910e+003;4.0523076172e+003;4.0423076172e+003;4.0515385742e+003;4.0525642090e+003;4.0588461914e+003;4.0526923828e+003;
2.6406250000e+000;4.0760256348e+003;4.0544870605e+003;4.0673076172e+003;4.0829487305e+003;4.0678205566e+003;4.0815385742e+003;4.0676923828e+003;4.0664101563e+003;4.0720512695e+003;4.0624357910e+003;4.0739743652e+003;4.0708974609e+003;4.0773076172e+003;4.0733332520e+003;
2.6484375000e+000;4.0920512695e+003;4.0696154785e+003;4.0873076172e+003;4.0991025391e+003;4.0826923828e+003;4.0960258789e+003;4.0830769043e+003;4.0880769043e+003;4.0934614258e+003;4.0871794434e+003;4.0974360352e+003;4.0893588867e+003;4.0967949219e+003;4.0939743652e+003;
2.6562500000e+000;4.0843588867e+003;4.0612819824e+003;4.0860256348e+003;4.0916667480e+003;4.0760256348e+003;4.0905129395e+003;4.0788461914e+003;4.0873076172e+003;4.0917949219e+003;4.0889743652e+003;4.0961538086e+003;4.0860256348e+003;4.0938461914e+003;4.0906411133e+003;
2.6640625000e+000;4.1202563477e+003;4.1043588867e+003;4.1178203125e+003;4.1243588867e+003;4.1144873047e+003;4.1257690430e+003;4.1157690430e+003;4.1176923828e+003;4.1282050781e+003;4.1241025391e+003;4.1267949219e+003;4.1264101563e+003;4.1364101563e+003;4.1275639648e+003;
2.6718750000e+000;4.1088461914e+003;4.0933332520e+003;4.1069228516e+003;4.1144873047e+003;4.0929487305e+003;4.1124360352e+003;4.1005126953e+003;4.1058974609e+003;4.1167949219e+003;4.1120512695e+003;4.1143588867e+003;4.1151284180e+003;4.1246152344e+003;4.1171796875e+003;
2.6796875000e+000;4.1333334961e+003;4.1082050781e+003;4.1352563477e+003;4.1265385742e+003;4.1116665039e+003;4.1260258789e+003;4.1155126953e+003;4.1205126953e+003;4.1276923828e+003;4.1306411133e+003;4.1294873047e+003;4.1324360352e+003;4.1420512695e+003;4.1356411133e+003;
2.6875000000e+000;4.1455126953e+003;4.1266665039e+003;4.1464101563e+003;4.1483334961e+003;4.1467949219e+003;4.1419228516e+003;4.1324360352e+003;4.1348715820e+003;4.1452563477e+003;4.1521796875e+003;4.1482050781e+003;4.1508974609e+003;4.1556411133e+003;4.1523076172e+003;
2.6953125000e+000;4.1387177734e+003;4.1224360352e+003;4.1401284180e+003;4.1430771484e+003;4.1358974609e+003;4.1342309570e+003;4.1256411133e+003;4.1255126953e+003;4.1365385742e+003;4.1419228516e+003;4.1402563477e+003;4.1424360352e+003;4.1487177734e+003;4.1429487305e+003;
2.7031250000e+000;4.1866665039e+003;4.1702563477e+003;4.1917949219e+003;4.1812822266e+003;4.1721796875e+003;4.1770512695e+003;4.1678203125e+003;4.1729487305e+003;4.1828203125e+003;4.1906411133e+003;4.1803847656e+003;4.1869228516e+003;4.1939741211e+003;4.1875639648e+003;
2.7109375000e+000;4.1467949219e+003;4.1306411133e+003;4.1479487305e+003;4.1496152344e+003;4.1428203125e+003;4.1448715820e+003;4.1338461914e+003;4.1298715820e+003;4.1434614258e+003;4.1466665039e+003;4.1403847656e+003;4.1426923828e+003;4.1488461914e+003;4.1515385742e+003;
2.7187500000e+000;4.1594873047e+003;4.1444873047e+003;4.1600000000e+003;4.1597436523e+003;4.1553847656e+003;4.1558974609e+003;4.1453847656e+003;4.1425639648e+003;4.1560258789e+003;4.1607690430e+003;4.1561538086e+003;4.1552563477e+003;4.1635898438e+003;4.1641025391e+003;
2.7265625000e+000;4.1478203125e+003;4.1332050781e+003;4.1494873047e+003;4.1452563477e+003;4.1420512695e+003;4.1448715820e+003;4.1334614258e+003;4.1321796875e+003;4.1438461914e+003;4.1508974609e+003;4.1462822266e+003;4.1446152344e+003;4.1533334961e+003;4.1520512695e+003;
2.7343750000e+000;4.0947436523e+003;4.0820512695e+003;4.0964101563e+003;4.0951281738e+003;4.0914101563e+003;4.0982050781e+003;4.0853845215e+003;4.0792307129e+003;4.0874357910e+003;4.0960258789e+003;4.0891025391e+003;4.0888461914e+003;4.1000000000e+003;4.0980771484e+003;
2.7421875000e+000;4.1058974609e+003;4.0991025391e+003;4.1098715820e+003;4.1182050781e+003;4.1111538086e+003;4.1187177734e+003;4.1058974609e+003;4.1021796875e+003;4.1119228516e+003;4.1180771484e+003;4.1076923828e+003;4.1075639648e+003;4.1196152344e+003;4.1193588867e+003;
2.7500000000e+000;4.0801281738e+003;4.0708974609e+003;4.0851281738e+003;4.0914101563e+003;4.0830769043e+003;4.0956411133e+003;4.0828205566e+003;4.0784614258e+003;4.0882050781e+003;4.0917949219e+003;4.0842307129e+003;4.0850000000e+003;4.0924357910e+003;4.0933332520e+003;
2.7578125000e+000;4.0706411133e+003;4.0589743652e+003;4.0726923828e+003;4.0774357910e+003;4.0702563477e+003;4.0848718262e+003;4.0733332520e+003;4.0667949219e+003;4.0761538086e+003;4.0776923828e+003;4.0738461914e+003;4.0738461914e+003;4.0793588867e+003;4.0800000000e+003;
2.7656250000e+000;4.1253847656e+003;4.1126923828e+003;4.1167949219e+003;4.1230771484e+003;4.1206411133e+003;4.1296152344e+003;4.1202563477e+003;4.1179487305e+003;4.1273076172e+003;4.1296152344e+003;4.1230771484e+003;4.1212822266e+003;4.1320512695e+003;4.1289741211e+003;
2.7734375000e+000;4.1308974609e+003;4.1165385742e+003;4.1208974609e+003;4.1291025391e+003;4.1256411133e+003;4.1341025391e+003;4.1233334961e+003;4.1247436523e+003;4.1339741211e+003;4.1367949219e+003;4.1246152344e+003;4.1260258789e+003;4.1384614258e+003;4.1346152344e+003;
2.7812500000e+000;4.1105126953e+003;4.0942307129e+003;4.1026923828e+003;4.1117949219e+003;4.1065385742e+003;4.1170512695e+003;4.1042309570e+003;4.1048715820e+003;4.1139741211e+003;4.1160258789e+003;4.0998715820e+003;4.1055126953e+003;4.1171796875e+003;4.1143588867e+003;
2.7890625000e+000;4.1608974609e+003;4.1576923828e+003;4.1569228516e+003;4.1646152344e+003;4.1700000000e+003;4.1748715820e+003;4.1614101563e+003;4.1602563477e+003;4.1730771484e+003;4.1765385742e+003;4.1567949219e+003;4.1566665039e+003;4.1673076172e+003;4.1596152344e+003;
2.7968750000e+000;4.1526923828e+003;4.1435898438e+003;4.1451284180e+003;4.1573076172e+003;4.1594873047e+003;4.1669228516e+003;4.1532050781e+003;4.1489741211e+003;4.1602563477e+003;4.1635898438e+003;4.1416665039e+003;4.1426923828e+003;4.1580771484e+003;4.1488461914e+003;
2.8046875000e+000;4.2064101563e+003;4.2061538086e+003;4.1965385742e+003;4.2191025391e+003;4.2311538086e+003;4.2239741211e+003;4.2120512695e+003;4.2046152344e+003;4.2116665039e+003;4.2210258789e+003;4.1953847656e+003;4.1947436523e+003;4.2138461914e+003;4.2106411133e+003;
2.8125000000e+000;4.1828203125e+003;4.1873076172e+003;4.1733334961e+003;4.1929487305e+003;4.1941025391e+003;4.1978203125e+003;4.1864101563e+003;4.1778203125e+003;4.1858974609e+003;4.1923076172e+003;4.1771796875e+003;4.1767949219e+003;4.1874360352e+003;4.1811538086e+003;
2.8203125000e+000;4.2058974609e+003;4.2065385742e+003;4.1982050781e+003;4.2148715820e+003;4.2101284180e+003;4.2175639648e+003;4.2041025391e+003;4.2007690430e+003;4.2101284180e+003;4.2158974609e+003;4.2001284180e+003;4.2010258789e+003;4.2114101563e+003;4.2048715820e+003;
2.8281250000e+000;4.1658974609e+003;4.1675639648e+003;4.1697436523e+003;4.1791025391e+003;4.1911538086e+003;4.1841025391e+003;4.1723076172e+003;4.1662822266e+003;4.1739741211e+003;4.1761538086e+003;4.1644873047e+003;4.1705126953e+003;4.1802563477e+003;4.1782050781e+003;
2.8359375000e+000;4.2762822266e+003;4.2775639648e+003;4.2778203125e+003;4.2823076172e+003;4.3002563477e+003;4.2812822266e+003;4.2716665039e+003;4.2710258789e+003;4.2789741211e+003;4.2844873047e+003;4.2830771484e+003;4.2841025391e+003;4.2944873047e+003;4.2811538086e+003;
2.8437500000e+000;4.2769228516e+003;4.2765385742e+003;4.2800000000e+003;4.2873076172e+003;4.2933334961e+003;4.2820512695e+003;4.2706411133e+003;4.2751284180e+003;4.2823076172e+003;4.2879487305e+003;4.2860258789e+003;4.2889741211e+003;4.2950000000e+003;4.2814101563e+003;
2.8515625000e+000;4.3055126953e+003;4.3137177734e+003;4.3107690430e+003;4.3121796875e+003;4.3258974609e+003;4.3098715820e+003;4.3111538086e+003;4.3096152344e+003;4.3165385742e+003;4.3210258789e+003;4.3151284180e+003;4.3187177734e+003;4.3335898438e+003;4.3133334961e+003;
2.8593750000e+000;4.3120512695e+003;4.3251284180e+003;4.3216665039e+003;4.3169228516e+003;4.3374360352e+003;4.3192309570e+003;4.3224360352e+003;4.3237177734e+003;4.3307690430e+003;4.3348715820e+003;4.3262822266e+003;4.3312822266e+003;4.3443588867e+003;4.3248715820e+003;
2.8671875000e+000;4.2526923828e+003;4.2662822266e+003;4.2720512695e+003;4.2617949219e+003;4.2793588867e+003;4.2721796875e+003;4.2724360352e+003;4.2760258789e+003;4.2811538086e+003;4.2823076172e+003;4.2755126953e+003;4.2874360352e+003;4.2855126953e+003;4.2725639648e+003;
2.8750000000e+000;4.2467949219e+003;4.2584614258e+003;4.2666665039e+003;4.2552563477e+003;4.2726923828e+003;4.2683334961e+003;4.2685898438e+003;4.2696152344e+003;4.2742309570e+003;4.2762822266e+003;4.2717949219e+003;4.2835898438e+003;4.2806411133e+003;4.2662822266e+003;
2.8828125000e+000;4.2423076172e+003;4.2552563477e+003;4.2648715820e+003;4.2541025391e+003;4.2689741211e+003;4.2696152344e+003;4.2650000000e+003;4.2653847656e+003;4.2687177734e+003;4.2770512695e+003;4.2684614258e+003;4.2766665039e+003;4.2887177734e+003;4.2624360352e+003;
2.8906250000e+000;4.2142309570e+003;4.2267949219e+003;4.2379487305e+003;4.2330771484e+003;4.2401284180e+003;4.2441025391e+003;4.2364101563e+003;4.2343588867e+003;4.2371796875e+003;4.2425639648e+003;4.2355126953e+003;4.2452563477e+003;4.2571796875e+003;4.2319228516e+003;
2.8984375000e+000;4.2188461914e+003;4.2311538086e+003;4.2406411133e+003;4.2415385742e+003;4.2447436523e+003;4.2470512695e+003;4.2384614258e+003;4.2329487305e+003;4.2370512695e+003;4.2389741211e+003;4.2350000000e+003;4.2446152344e+003;4.2552563477e+003;4.2324360352e+003;
2.9062500000e+000;4.2537177734e+003;4.2674360352e+003;4.2723076172e+003;4.2748715820e+003;4.2810258789e+003;4.2776923828e+003;4.2701284180e+003;4.2632050781e+003;4.2703847656e+003;4.2705126953e+003;4.2682050781e+003;4.2751284180e+003;4.2856411133e+003;4.2644873047e+003;
2.9140625000e+000;4.2511538086e+003;4.2741025391e+003;4.2678203125e+003;4.2638461914e+003;4.2848715820e+003;4.2785898438e+003;4.2735898438e+003;4.2666665039e+003;4.2716665039e+003;4.2760258789e+003;4.2678203125e+003;4.2697436523e+003;4.2880771484e+003;4.2614101563e+003;
2.9218750000e+000;4.2842309570e+003;4.3079487305e+003;4.2992309570e+003;4.2969228516e+003;4.3174360352e+003;4.3084614258e+003;4.3028203125e+003;4.2996152344e+003;4.3041025391e+003;4.3098715820e+003;4.3020512695e+003;4.3044873047e+003;4.3217949219e+003;4.2950000000e+003;
2.9296875000e+000;4.2833334961e+003;4.3014101563e+003;4.3046152344e+003;4.2943588867e+003;4.3092309570e+003;4.3066665039e+003;4.2956411133e+003;4.3001284180e+003;4.3093588867e+003;4.3114101563e+003;4.3084614258e+003;4.3117949219e+003;4.3225639648e+003;4.2983334961e+003;
2.9375000000e+000;4.2948715820e+003;4.3248715820e+003;4.3105126953e+003;4.3138461914e+003;4.3298715820e+003;4.3189741211e+003;4.3123076172e+003;4.3141025391e+003;4.3211538086e+003;4.3284614258e+003;4.3214101563e+003;4.3158974609e+003;4.3424360352e+003;4.3111538086e+003;
2.9453125000e+000;4.2896152344e+003;4.3201284180e+003;4.3055126953e+003;4.3110258789e+003;4.3264101563e+003;4.3142309570e+003;4.3071796875e+003;4.3132050781e+003;4.3171796875e+003;4.3271796875e+003;4.3173076172e+003;4.3150000000e+003;4.3396152344e+003;4.3089741211e+003;
2.9531250000e+000;4.2957690430e+003;4.3228203125e+003;4.3200000000e+003;4.3153847656e+003;4.3347436523e+003;4.3250000000e+003;4.3211538086e+003;4.3278203125e+003;4.3292309570e+003;4.3347436523e+003;4.3258974609e+003;4.3310258789e+003;4.3415385742e+003;4.3174360352e+003;
2.9609375000e+000;4.2617949219e+003;4.2873076172e+003;4.2871796875e+003;4.2861538086e+003;4.3041025391e+003;4.3021796875e+003;4.2946152344e+003;4.3024360352e+003;4.3050000000e+003;4.3094873047e+003;4.2980771484e+003;4.2992309570e+003;4.3064101563e+003;4.2860258789e+003;
2.9687500000e+000;4.2487177734e+003;4.2714101563e+003;4.2726923828e+003;4.2711538086e+003;4.2912822266e+003;4.2903847656e+003;4.2833334961e+003;4.2864101563e+003;4.2891025391e+003;4.2917949219e+003;4.2810258789e+003;4.2816665039e+003;4.2944873047e+003;4.2708974609e+003;
2.9765625000e+000;4.2691025391e+003;4.2919228516e+003;4.2929487305e+003;4.2896152344e+003;4.3128203125e+003;4.3096152344e+003;4.3044873047e+003;4.3050000000e+003;4.3076923828e+003;4.3094873047e+003;4.2980771484e+003;4.2982050781e+003;4.3167949219e+003;4.2894873047e+003;
2.9843750000e+000;4.3017949219e+003;4.3342309570e+003;4.3305126953e+003;4.3311538086e+003;4.3501284180e+003;4.3460258789e+003;4.3415385742e+003;4.3442309570e+003;4.3457690430e+003;4.3480771484e+003;4.3330771484e+003;4.3319228516e+003;4.3507690430e+003;4.3235898438e+003;
2.9921875000e+000;4.2974360352e+003;4.3382050781e+003;4.3226923828e+003;4.3291025391e+003;4.3506411133e+003;4.3455126953e+003;4.3407690430e+003;4.3392309570e+003;4.3434614258e+003;4.3457690430e+003;4.3334614258e+003;4.3258974609e+003;4.3439741211e+003;4.3171796875e+003;
3.0000000000e+000;4.3073076172e+003;4.3464101563e+003;4.3316665039e+003;4.3339741211e+003;4.3608974609e+003;4.3519228516e+003;4.3479487305e+003;4.3506411133e+003;4.3564101563e+003;4.3594873047e+003;4.3453847656e+003;4.3385898438e+003;4.3550000000e+003;4.3276923828e+003;
3.0078125000e+000;4.2934614258e+003;4.3229487305e+003;4.3200000000e+003;4.3175639648e+003;4.3375639648e+003;4.3335898438e+003;4.3300000000e+003;4.3271796875e+003;4.3370512695e+003;4.3398715820e+003;4.3284614258e+003;4.3224360352e+003;4.3343588867e+003;4.3098715820e+003;
3.0156250000e+000;4.3582050781e+003;4.3884614258e+003;4.3838461914e+003;4.3774360352e+003;4.3956411133e+003;4.3925639648e+003;4.3897436523e+003;4.3846152344e+003;4.3957690430e+003;4.4015385742e+003;4.3905126953e+003;4.3803847656e+003;4.3993588867e+003;4.3720512695e+003;
3.0234375000e+000;4.4307690430e+003;4.4639741211e+003;4.4567949219e+003;4.4452563477e+003;4.4628203125e+003;4.4596152344e+003;4.4565385742e+003;4.4555126953e+003;4.4676923828e+003;4.4774360352e+003;4.4634614258e+003;4.4515385742e+003;4.4750000000e+003;4.4460258789e+003;
3.0312500000e+000;4.4646152344e+003;4.5003847656e+003;4.4924360352e+003;4.4785898438e+003;4.4952563477e+003;4.4914101563e+003;4.4869228516e+003;4.4932050781e+003;4.5053847656e+003;4.5178203125e+003;4.5000000000e+003;4.4908974609e+003;4.5112822266e+003;4.4848715820e+003;
3.0390625000e+000;4.5262822266e+003;4.5741025391e+003;4.5588461914e+003;4.5484614258e+003;4.5855126953e+003;4.5453847656e+003;4.5484614258e+003;4.5588461914e+003;4.5651284180e+003;4.5870512695e+003;4.5730771484e+003;4.5673076172e+003;4.5770512695e+003;4.5597436523e+003;
3.0468750000e+000;4.5493588867e+003;4.6044873047e+003;4.5871796875e+003;4.5708974609e+003;4.6102563477e+003;4.5682050781e+003;4.5712822266e+003;4.5820512695e+003;4.5888461914e+003;4.6148715820e+003;4.5980771484e+003;4.5928203125e+003;4.6057690430e+003;4.5870512695e+003;
3.0546875000e+000;4.5270512695e+003;4.5943588867e+003;4.5712822266e+003;4.5529487305e+003;4.5883334961e+003;4.5560258789e+003;4.5555126953e+003;4.5574360352e+003;4.5646152344e+003;4.5912822266e+003;4.5753847656e+003;4.5717949219e+003;4.5816665039e+003;4.5711538086e+003;
3.0625000000e+000;4.5567949219e+003;4.6288461914e+003;4.6093588867e+003;4.5867949219e+003;4.6308974609e+003;4.6003847656e+003;4.6037177734e+003;4.5985898438e+003;4.6012822266e+003;4.6246152344e+003;4.6128203125e+003;4.6046152344e+003;4.6183334961e+003;4.6058974609e+003;
3.0703125000e+000;4.5915385742e+003;4.6675639648e+003;4.6460258789e+003;4.6234614258e+003;4.6670512695e+003;4.6370512695e+003;4.6430771484e+003;4.6339741211e+003;4.6355126953e+003;4.6583334961e+003;4.6469228516e+003;4.6394873047e+003;4.6584614258e+003;4.6411538086e+003;
3.0781250000e+000;4.7623076172e+003;4.8487177734e+003;4.8196152344e+003;4.7998715820e+003;4.8435898438e+003;4.8043588867e+003;4.8115385742e+003;4.8174360352e+003;4.8171796875e+003;4.8520512695e+003;4.8297436523e+003;4.8201284180e+003;4.8455126953e+003;4.8244873047e+003;
3.0859375000e+000;4.7611538086e+003;4.8469228516e+003;4.8223076172e+003;4.7975639648e+003;4.8434614258e+003;4.8050000000e+003;4.8137177734e+003;4.8193588867e+003;4.8179487305e+003;4.8534614258e+003;4.8332050781e+003;4.8229487305e+003;4.8443588867e+003;4.8266665039e+003;
3.0937500000e+000;4.8508974609e+003;4.9467949219e+003;4.9178203125e+003;4.8810258789e+003;4.9417949219e+003;4.8946152344e+003;4.9114101563e+003;4.9082050781e+003;4.9069228516e+003;4.9420512695e+003;4.9302563477e+003;4.9162822266e+003;4.9379487305e+003;4.9194873047e+003;
3.1015625000e+000;4.9498715820e+003;5.0591025391e+003;5.0211538086e+003;4.9816665039e+003;5.0503847656e+003;4.9944873047e+003;5.0132050781e+003;5.0141025391e+003;5.0133334961e+003;5.0533334961e+003;5.0388461914e+003;5.0214101563e+003;5.0470512695e+003;5.0246152344e+003;
3.1093750000e+000;4.9989741211e+003;5.1356411133e+003;5.0957690430e+003;5.0446152344e+003;5.1217949219e+003;5.0632050781e+003;5.0776923828e+003;5.0941025391e+003;5.0929487305e+003;5.1410258789e+003;5.1121796875e+003;5.0920512695e+003;5.1229487305e+003;5.0958974609e+003;
3.1171875000e+000;4.9965385742e+003;5.1379487305e+003;5.1002563477e+003;5.0414101563e+003;5.1246152344e+003;5.0638461914e+003;5.0789741211e+003;5.0925639648e+003;5.0930771484e+003;5.1387177734e+003;5.1123076172e+003;5.0921796875e+003;5.1241025391e+003;5.0978203125e+003;
3.1250000000e+000;5.0478203125e+003;5.2021796875e+003;5.1626923828e+003;5.1019228516e+003;5.1871796875e+003;5.1183334961e+003;5.1352563477e+003;5.1498715820e+003;5.1524360352e+003;5.1984614258e+003;5.1753847656e+003;5.1562822266e+003;5.1856411133e+003;5.1621796875e+003;
3.1328125000e+000;5.0498715820e+003;5.2108974609e+003;5.1697436523e+003;5.1166665039e+003;5.1938461914e+003;5.1257690430e+003;5.1423076172e+003;5.1576923828e+003;5.1600000000e+003;5.2079487305e+003;5.1842309570e+003;5.1662822266e+003;5.1923076172e+003;5.1702563477e+003;
3.1406250000e+000;5.0582050781e+003;5.2357690430e+003;5.1855126953e+003;5.1353847656e+003;5.2165385742e+003;5.1420512695e+003;5.1551284180e+003;5.1714101563e+003;5.1742309570e+003;5.2243588867e+003;5.1988461914e+003;5.1769228516e+003;5.2075639648e+003;5.1815385742e+003;
3.1484375000e+000;5.0337177734e+003;5.2138461914e+003;5.1656411133e+003;5.1069228516e+003;5.1939741211e+003;5.1201284180e+003;5.1301284180e+003;5.1517949219e+003;5.1534614258e+003;5.2024360352e+003;5.1760258789e+003;5.1550000000e+003;5.1853847656e+003;5.1603847656e+003;
3.1562500000e+000;4.9562822266e+003;5.1356411133e+003;5.0944873047e+003;5.0308974609e+003;5.1137177734e+003;5.0500000000e+003;5.0573076172e+003;5.0810258789e+003;5.0808974609e+003;5.1265385742e+003;5.1006411133e+003;5.0837177734e+003;5.1087177734e+003;5.0882050781e+003;
3.1640625000e+000;4.6550000000e+003;4.8239741211e+003;4.8029487305e+003;4.7419228516e+003;4.8079487305e+003;4.7744873047e+003;4.7817949219e+003;4.7889741211e+003;4.7953847656e+003;4.8196152344e+003;4.8114101563e+003;4.7964101563e+003;4.8098715820e+003;4.8043588867e+003;
3.1718750000e+000;4.6230771484e+003;4.7858974609e+003;4.7707690430e+003;4.7088461914e+003;4.7792309570e+003;4.7433334961e+003;4.7473076172e+003;4.7534614258e+003;4.7575639648e+003;4.7794873047e+003;4.7720512695e+003;4.7612822266e+003;4.7765385742e+003;4.7720512695e+003;
3.1796875000e+000;4.6620512695e+003;4.8175639648e+003;4.7988461914e+003;4.7524360352e+003;4.8143588867e+003;4.7771796875e+003;4.7823076172e+003;4.7857690430e+003;4.7880771484e+003;4.8058974609e+003;4.7964101563e+003;4.7943588867e+003;4.8067949219e+003;4.8034614258e+003;
3.1875000000e+000;4.6834614258e+003;4.8447436523e+003;4.8185898438e+003;4.7691025391e+003;4.8353847656e+003;4.7958974609e+003;4.8017949219e+003;4.8065385742e+003;4.8058974609e+003;4.8226923828e+003;4.8183334961e+003;4.8119228516e+003;4.8233334961e+003;4.8241025391e+003;
3.1953125000e+000;4.7028203125e+003;4.8637177734e+003;4.8355126953e+003;4.7843588867e+003;4.8529487305e+003;4.8094873047e+003;4.8160258789e+003;4.8241025391e+003;4.8207690430e+003;4.8410258789e+003;4.8360258789e+003;4.8267949219e+003;4.8405126953e+003;4.8438461914e+003;
3.2031250000e+000;4.5838461914e+003;4.7370512695e+003;4.7150000000e+003;4.6653847656e+003;4.7224360352e+003;4.6939741211e+003;4.6966665039e+003;4.7117949219e+003;4.7096152344e+003;4.7253847656e+003;4.7156411133e+003;4.7092309570e+003;4.7216665039e+003;4.7241025391e+003;
3.2109375000e+000;4.5451284180e+003;4.6946152344e+003;4.6766665039e+003;4.6271796875e+003;4.6843588867e+003;4.6589741211e+003;4.6616665039e+003;4.6726923828e+003;4.6714101563e+003;4.6816665039e+003;4.6744873047e+003;4.6683334961e+003;4.6824360352e+003;4.6820512695e+003;
3.2187500000e+000;4.5573076172e+003;4.7023076172e+003;4.6879487305e+003;4.6423076172e+003;4.6992309570e+003;4.6706411133e+003;4.6739741211e+003;4.6848715820e+003;4.6810258789e+003;4.6912822266e+003;4.6856411133e+003;4.6732050781e+003;4.6906411133e+003;4.6937177734e+003;
3.2265625000e+000;4.5446152344e+003;4.6896152344e+003;4.6738461914e+003;4.6343588867e+003;4.6847436523e+003;4.6584614258e+003;4.6607690430e+003;4.6723076172e+003;4.6673076172e+003;4.6802563477e+003;4.6729487305e+003;4.6579487305e+003;4.6744873047e+003;4.6826923828e+003;
3.2343750000e+000;4.4821796875e+003;4.6298715820e+003;4.6019228516e+003;4.5700000000e+003;4.6146152344e+003;4.5974360352e+003;4.5975639648e+003;4.5969228516e+003;4.6019228516e+003;4.6102563477e+003;4.6020512695e+003;4.5901284180e+003;4.6075639648e+003;4.6166665039e+003;
3.2421875000e+000;4.4760258789e+003;4.6211538086e+003;4.5952563477e+003;4.5606411133e+003;4.6073076172e+003;4.5901284180e+003;4.5901284180e+003;4.5910258789e+003;4.5979487305e+003;4.6039741211e+003;4.5983334961e+003;4.5876923828e+003;4.6037177734e+003;4.6116665039e+003;
3.2500000000e+000;4.4096152344e+003;4.5407690430e+003;4.5291025391e+003;4.4958974609e+003;4.5352563477e+003;4.5225639648e+003;4.5229487305e+003;4.5250000000e+003;4.5265385742e+003;4.5306411133e+003;4.5369228516e+003;4.5256411133e+003;4.5343588867e+003;4.5443588867e+003;
3.2578125000e+000;4.4020512695e+003;4.5273076172e+003;4.5183334961e+003;4.4873076172e+003;4.5235898438e+003;4.5115385742e+003;4.5129487305e+003;4.5121796875e+003;4.5114101563e+003;4.5153847656e+003;4.5261538086e+003;4.5134614258e+003;4.5220512695e+003;4.5325639648e+003;
3.2656250000e+000;4.5017949219e+003;4.6267949219e+003;4.6146152344e+003;4.5760258789e+003;4.6121796875e+003;4.6003847656e+003;4.6041025391e+003;4.6073076172e+003;4.6089741211e+003;4.6139741211e+003;4.6120512695e+003;4.6085898438e+003;4.6175639648e+003;4.6269228516e+003;
3.2734375000e+000;4.5019228516e+003;4.6257690430e+003;4.6153847656e+003;4.5776923828e+003;4.6128203125e+003;4.6016665039e+003;4.6067949219e+003;4.6082050781e+003;4.6096152344e+003;4.6135898438e+003;4.6106411133e+003;4.6097436523e+003;4.6174360352e+003;4.6265385742e+003;
3.2812500000e+000;4.5169228516e+003;4.6380771484e+003;4.6271796875e+003;4.5946152344e+003;4.6303847656e+003;4.6155126953e+003;4.6228203125e+003;4.6205126953e+003;4.6212822266e+003;4.6248715820e+003;4.6252563477e+003;4.6225639648e+003;4.6310258789e+003;4.6391025391e+003;
3.2890625000e+000;4.5211538086e+003;4.6561538086e+003;4.6361538086e+003;4.5978203125e+003;4.6250000000e+003;4.6223076172e+003;4.6251284180e+003;4.6352563477e+003;4.6337177734e+003;4.6366665039e+003;4.6393588867e+003;4.6306411133e+003;4.6317949219e+003;4.6498715820e+003;
3.2968750000e+000;4.5056411133e+003;4.6407690430e+003;4.6225639648e+003;4.5812822266e+003;4.6171796875e+003;4.6066665039e+003;4.6119228516e+003;4.6196152344e+003;4.6175639648e+003;4.6179487305e+003;4.6200000000e+003;4.6100000000e+003;4.6155126953e+003;4.6310258789e+003;
3.3046875000e+000;4.4905126953e+003;4.6075639648e+003;4.5967949219e+003;4.5639741211e+003;4.6135898438e+003;4.5888461914e+003;4.5903847656e+003;4.5941025391e+003;4.5929487305e+003;4.5912822266e+003;4.5876923828e+003;4.5839741211e+003;4.5884614258e+003;4.6008974609e+003;
3.3125000000e+000;4.4792309570e+003;4.5939741211e+003;4.5830771484e+003;4.5515385742e+003;4.5966665039e+003;4.5779487305e+003;4.5773076172e+003;4.5794873047e+003;4.5783334961e+003;4.5762822266e+003;4.5750000000e+003;4.5705126953e+003;4.5747436523e+003;4.5882050781e+003;
3.3203125000e+000;4.5017949219e+003;4.6205126953e+003;4.6102563477e+003;4.5739741211e+003;4.6124360352e+003;4.5969228516e+003;4.5964101563e+003;4.6038461914e+003;4.6038461914e+003;4.6021796875e+003;4.6070512695e+003;4.5919228516e+003;4.6038461914e+003;4.6142309570e+003;
3.3281250000e+000;4.5564101563e+003;4.6742309570e+003;4.6579487305e+003;4.6320512695e+003;4.6676923828e+003;4.6494873047e+003;4.6520512695e+003;4.6443588867e+003;4.6515385742e+003;4.6489741211e+003;4.6534614258e+003;4.6398715820e+003;4.6537177734e+003;4.6664101563e+003;
3.3359375000e+000;4.6239741211e+003;4.7470512695e+003;4.7217949219e+003;4.6944873047e+003;4.7353847656e+003;4.7141025391e+003;4.7169228516e+003;4.7135898438e+003;4.7223076172e+003;4.7238461914e+003;4.7271796875e+003;4.7084614258e+003;4.7261538086e+003;4.7394873047e+003;
3.3437500000e+000;4.5928203125e+003;4.7146152344e+003;4.6944873047e+003;4.6598715820e+003;4.7012822266e+003;4.6828203125e+003;4.6820512695e+003;4.6929487305e+003;4.7002563477e+003;4.7020512695e+003;4.7079487305e+003;4.6830771484e+003;4.7029487305e+003;4.7169228516e+003;
3.3515625000e+000;4.5230771484e+003;4.6401284180e+003;4.6250000000e+003;4.5924360352e+003;4.6289741211e+003;4.6138461914e+003;4.6126923828e+003;4.6221796875e+003;4.6280771484e+003;4.6256411133e+003;4.6335898438e+003;4.6110258789e+003;4.6302563477e+003;4.6435898438e+003;
3.3593750000e+000;4.4982050781e+003;4.6183334961e+003;4.5934614258e+003;4.5761538086e+003;4.6046152344e+003;4.5941025391e+003;4.5948715820e+003;4.5967949219e+003;4.6011538086e+003;4.5979487305e+003;4.5979487305e+003;4.5819228516e+003;4.5962822266e+003;4.6167949219e+003;
3.3671875000e+000;4.4944873047e+003;4.6133334961e+003;4.5938461914e+003;4.5746152344e+003;4.6017949219e+003;4.5947436523e+003;4.5948715820e+003;4.5979487305e+003;4.6000000000e+003;4.5976923828e+003;4.5987177734e+003;4.5815385742e+003;4.5930771484e+003;4.6174360352e+003;
3.3750000000e+000;4.4900000000e+003;4.5988461914e+003;4.5933334961e+003;4.5678203125e+003;4.5935898438e+003;4.5855126953e+003;4.5876923828e+003;4.5911538086e+003;4.5882050781e+003;4.5861538086e+003;4.5955126953e+003;4.5756411133e+003;4.5880771484e+003;4.6087177734e+003;
3.3828125000e+000;4.5011538086e+003;4.6082050781e+003;4.6003847656e+003;4.5769228516e+003;4.6017949219e+003;4.5898715820e+003;4.5932050781e+003;4.5989741211e+003;4.5948715820e+003;4.5944873047e+003;4.6024360352e+003;4.5838461914e+003;4.5989741211e+003;4.6148715820e+003;
3.3906250000e+000;4.4373076172e+003;4.5510258789e+003;4.5282050781e+003;4.5176923828e+003;4.5342309570e+003;4.5258974609e+003;4.5276923828e+003;4.5310258789e+003;4.5310258789e+003;4.5262822266e+003;4.5260258789e+003;4.5176923828e+003;4.5324360352e+003;4.5478203125e+003;
3.3984375000e+000;4.4442309570e+003;4.5582050781e+003;4.5373076172e+003;4.5226923828e+003;4.5415385742e+003;4.5321796875e+003;4.5356411133e+003;4.5355126953e+003;4.5392309570e+003;4.5312822266e+003;4.5342309570e+003;4.5241025391e+003;4.5407690430e+003;4.5546152344e+003;
3.4062500000e+000;4.4739741211e+003;4.5874360352e+003;4.5696152344e+003;4.5484614258e+003;4.5714101563e+003;4.5598715820e+003;4.5647436523e+003;4.5658974609e+003;4.5719228516e+003;4.5637177734e+003;4.5693588867e+003;4.5552563477e+003;4.5743588867e+003;4.5852563477e+003;
3.4140625000e+000;4.4873076172e+003;4.6002563477e+003;4.5850000000e+003;4.5600000000e+003;4.5844873047e+003;4.5738461914e+003;4.5787177734e+003;4.5842309570e+003;4.5891025391e+003;4.5828203125e+003;4.5894873047e+003;4.5729487305e+003;4.5912822266e+003;4.6014101563e+003;
3.4218750000e+000;4.4021796875e+003;4.5012822266e+003;4.4957690430e+003;4.4817949219e+003;4.4993588867e+003;4.5006411133e+003;4.5006411133e+003;4.5064101563e+003;4.5044873047e+003;4.4926923828e+003;4.5003847656e+003;4.4852563477e+003;4.4971796875e+003;4.5202563477e+003;
3.4296875000e+000;4.3169228516e+003;4.4047436523e+003;4.3987177734e+003;4.3916665039e+003;4.3887177734e+003;4.4066665039e+003;4.4066665039e+003;4.4119228516e+003;4.4138461914e+003;4.3964101563e+003;4.3993588867e+003;4.3902563477e+003;4.4055126953e+003;4.4167949219e+003;
