Time (s),AF3,F7,F3,FC5,T7,P7,O1,O2,P8,T8,FC6,F4,F8,AF4,Sampling Rate
0.0000000000e+000,4.2514101563e+003,3.9402563477e+003,4.1164101563e+003,4.1402563477e+003,3.8962819824e+003,4.1226923828e+003,4.1180771484e+003,4.1044873047e+003,4.1278203125e+003,3.7588461914e+003,4.1356411133e+003,4.1110258789e+003,4.1576923828e+003,4.1875639648e+003,128
7.8125000000e-003,4.2157690430e+003,3.9438461914e+003,4.1128203125e+003,4.1343588867e+003,3.9250000000e+003,4.1182050781e+003,4.1105126953e+003,4.1085898438e+003,4.1133334961e+003,3.7666667480e+003,4.0967949219e+003,4.1008974609e+003,4.1373076172e+003,4.1671796875e+003,
1.5625000000e-002,4.1514101563e+003,3.8750000000e+003,4.0560256348e+003,4.0691025391e+003,3.8450000000e+003,4.0580769043e+003,4.0548718262e+003,4.0473076172e+003,4.0494870605e+003,3.6997436523e+003,4.0312819824e+003,4.0371794434e+003,4.0784614258e+003,4.1079487305e+003,
2.3437500000e-002,4.2332050781e+003,3.9596154785e+003,4.1442309570e+003,4.1515385742e+003,3.9021794434e+003,4.1314101563e+003,4.1339741211e+003,4.1191025391e+003,4.1198715820e+003,3.7682050781e+003,4.1415385742e+003,4.1320512695e+003,4.1405126953e+003,4.1984614258e+003,
3.1250000000e-002,4.2484614258e+003,4.0075642090e+003,4.1547436523e+003,4.1730771484e+003,3.9560256348e+003,4.1329487305e+003,4.1260258789e+003,4.1162822266e+003,4.1166665039e+003,3.8026923828e+003,4.1374360352e+003,4.1492309570e+003,4.1761538086e+003,4.2178203125e+003,
3.9062500000e-002,4.2164101563e+003,3.9753845215e+003,4.1252563477e+003,4.1375639648e+003,3.9232050781e+003,4.0976923828e+003,4.0929487305e+003,4.0773076172e+003,4.0748718262e+003,3.7708974609e+003,4.0989741211e+003,4.1166665039e+003,4.1528203125e+003,4.1892309570e+003,
4.6875000000e-002,4.1874360352e+003,3.9461538086e+003,4.1074360352e+003,4.1012822266e+003,3.8693588867e+003,4.0578205566e+003,4.0632050781e+003,4.0480769043e+003,4.0356411133e+003,3.7406411133e+003,4.1012822266e+003,4.1055126953e+003,4.1246152344e+003,4.1773076172e+003,
5.4687500000e-002,4.1467949219e+003,3.9093588867e+003,4.0694870605e+003,4.0606411133e+003,3.8247436523e+003,4.0162819824e+003,4.0200000000e+003,4.0148718262e+003,4.0058974609e+003,3.7052563477e+003,4.0696154785e+003,4.0728205566e+003,4.0861538086e+003,4.1426923828e+003,
6.2500000000e-002,4.0369230957e+003,3.8019230957e+003,3.9624357910e+003,3.9489743652e+003,3.7161538086e+003,3.9111538086e+003,3.9107692871e+003,3.9191025391e+003,3.9310256348e+003,3.6092307129e+003,3.9546154785e+003,3.9632050781e+003,3.9861538086e+003,4.0382050781e+003,
7.0312500000e-002,4.0025642090e+003,3.7669230957e+003,3.9294870605e+003,3.9162819824e+003,3.6865385742e+003,3.8847436523e+003,3.8844870605e+003,3.8944870605e+003,3.9167949219e+003,3.5817949219e+003,3.9137180176e+003,3.9237180176e+003,3.9539743652e+003,4.0029487305e+003,
7.8125000000e-002,3.9748718262e+003,3.7394870605e+003,3.9048718262e+003,3.8950000000e+003,3.6687180176e+003,3.8721794434e+003,3.8721794434e+003,3.8823076172e+003,3.9089743652e+003,3.5602563477e+003,3.8806411133e+003,3.8939743652e+003,3.9238461914e+003,3.9743588867e+003,
8.5937500000e-002,3.9380769043e+003,3.7038461914e+003,3.8723076172e+003,3.8680769043e+003,3.6470512695e+003,3.8576923828e+003,3.8558974609e+003,3.8652563477e+003,3.8896154785e+003,3.5279487305e+003,3.8394870605e+003,3.8600000000e+003,3.8800000000e+003,3.9376923828e+003,
9.3750000000e-002,3.8265385742e+003,3.5908974609e+003,3.7644870605e+003,3.7697436523e+003,3.5573076172e+003,3.8042307129e+003,3.7962819824e+003,3.7898718262e+003,3.8032050781e+003,3.4347436523e+003,3.7338461914e+003,3.7491025391e+003,3.7650000000e+003,3.8271794434e+003,
1.0156250000e-001,3.8039743652e+003,3.5758974609e+003,3.7412819824e+003,3.7430769043e+003,3.5292307129e+003,3.7580769043e+003,3.7630769043e+003,3.7411538086e+003,3.7467949219e+003,3.3953845215e+003,3.6862819824e+003,3.7266667480e+003,3.7343588867e+003,3.8014101563e+003,
1.0937500000e-001,3.8238461914e+003,3.5950000000e+003,3.7560256348e+003,3.7644870605e+003,3.5562819824e+003,3.7732050781e+003,3.7761538086e+003,3.7530769043e+003,3.7543588867e+003,3.4100000000e+003,3.6989743652e+003,3.7443588867e+003,3.7507692871e+003,3.8175642090e+003,
1.1718750000e-001,3.8674357910e+003,3.6316667480e+003,3.7975642090e+003,3.8055129395e+003,3.5914101563e+003,3.8041025391e+003,3.8070512695e+003,3.7842307129e+003,3.7824357910e+003,3.4521794434e+003,3.7457692871e+003,3.7834614258e+003,3.7967949219e+003,3.8606411133e+003,
1.2500000000e-001,3.8661538086e+003,3.6264101563e+003,3.8006411133e+003,3.7994870605e+003,3.5788461914e+003,3.7961538086e+003,3.8012819824e+003,3.7773076172e+003,3.7776923828e+003,3.4494870605e+003,3.7484614258e+003,3.7826923828e+003,3.7957692871e+003,3.8621794434e+003,
1.3281250000e-001,3.8060256348e+003,3.5674357910e+003,3.7439743652e+003,3.7403845215e+003,3.5106411133e+003,3.7192307129e+003,3.7248718262e+003,3.6982050781e+003,3.7016667480e+003,3.3771794434e+003,3.6824357910e+003,3.7348718262e+003,3.7237180176e+003,3.8062819824e+003,
1.4062500000e-001,3.8056411133e+003,3.5680769043e+003,3.7389743652e+003,3.7446154785e+003,3.5024357910e+003,3.7076923828e+003,3.7144870605e+003,3.6896154785e+003,3.6917949219e+003,3.3717949219e+003,3.6791025391e+003,3.7369230957e+003,3.7189743652e+003,3.8044870605e+003,
1.4843750000e-001,3.8346154785e+003,3.5955129395e+003,3.7624357910e+003,3.7723076172e+003,3.5101281738e+003,3.7098718262e+003,3.7273076172e+003,3.7115385742e+003,3.7152563477e+003,3.4055129395e+003,3.7194870605e+003,3.7619230957e+003,3.7508974609e+003,3.8294870605e+003,
1.5625000000e-001,3.7946154785e+003,3.5621794434e+003,3.7308974609e+003,3.7417949219e+003,3.5029487305e+003,3.6847436523e+003,3.7076923828e+003,3.7020512695e+003,3.7058974609e+003,3.3782050781e+003,3.6724357910e+003,3.7260256348e+003,3.7125642090e+003,3.7892307129e+003,
1.6406250000e-001,3.8034614258e+003,3.5730769043e+003,3.7391025391e+003,3.7544870605e+003,3.5067949219e+003,3.6978205566e+003,3.7221794434e+003,3.7173076172e+003,3.7208974609e+003,3.3864101563e+003,3.6785898438e+003,3.7317949219e+003,3.7147436523e+003,3.7941025391e+003,
1.7187500000e-001,3.8162819824e+003,3.5871794434e+003,3.7496154785e+003,3.7666667480e+003,3.5083332520e+003,3.7169230957e+003,3.7400000000e+003,3.7343588867e+003,3.7375642090e+003,3.4006411133e+003,3.6915385742e+003,3.7392307129e+003,3.7216667480e+003,3.8024357910e+003,
1.7968750000e-001,3.7937180176e+003,3.5626923828e+003,3.7239743652e+003,3.7338461914e+003,3.4802563477e+003,3.7179487305e+003,3.7308974609e+003,3.7212819824e+003,3.7228205566e+003,3.3897436523e+003,3.6650000000e+003,3.7120512695e+003,3.6994870605e+003,3.7783332520e+003,
1.8750000000e-001,3.8064101563e+003,3.5778205566e+003,3.7321794434e+003,3.7414101563e+003,3.5458974609e+003,3.7546154785e+003,3.7587180176e+003,3.7478205566e+003,3.7491025391e+003,3.4179487305e+003,3.6848718262e+003,3.7342307129e+003,3.7137180176e+003,3.8042307129e+003,
1.9531250000e-001,3.8811538086e+003,3.6610256348e+003,3.8029487305e+003,3.8165385742e+003,3.6288461914e+003,3.8273076172e+003,3.8323076172e+003,3.8202563477e+003,3.8244870605e+003,3.4987180176e+003,3.7747436523e+003,3.8070512695e+003,3.7870512695e+003,3.8776923828e+003,
2.0312500000e-001,3.9692307129e+003,3.7602563477e+003,3.8875642090e+003,3.9046154785e+003,3.7178205566e+003,3.9108974609e+003,3.9160256348e+003,3.9029487305e+003,3.9106411133e+003,3.5948718262e+003,3.8737180176e+003,3.8898718262e+003,3.8779487305e+003,3.9603845215e+003,
2.1093750000e-001,4.0428205566e+003,3.8455129395e+003,3.9596154785e+003,3.9783332520e+003,3.7902563477e+003,3.9810256348e+003,3.9837180176e+003,3.9717949219e+003,3.9819230957e+003,3.6787180176e+003,3.9465385742e+003,3.9575642090e+003,3.9597436523e+003,4.0276923828e+003,
2.1875000000e-001,4.1247436523e+003,3.9356411133e+003,4.0529487305e+003,4.0511538086e+003,3.8605129395e+003,4.0569230957e+003,4.0529487305e+003,4.0460256348e+003,4.0594870605e+003,3.7723076172e+003,3.9993588867e+003,4.0464101563e+003,4.0464101563e+003,4.1133334961e+003,
2.2656250000e-001,4.1837177734e+003,3.9933332520e+003,4.1135898438e+003,4.1096152344e+003,3.9128205566e+003,4.1069228516e+003,4.1075639648e+003,4.0953845215e+003,4.1096152344e+003,3.8242307129e+003,4.0716667480e+003,4.1085898438e+003,4.0929487305e+003,4.1738461914e+003,
2.3437500000e-001,4.3861538086e+003,4.2244873047e+003,4.3180771484e+003,4.3312822266e+003,4.1410258789e+003,4.2976923828e+003,4.2975639648e+003,4.2862822266e+003,4.2965385742e+003,4.0433332520e+003,4.2961538086e+003,4.3073076172e+003,4.3087177734e+003,4.3743588867e+003,
2.4218750000e-001,4.3771796875e+003,4.2255126953e+003,4.3238461914e+003,4.3180771484e+003,4.1451284180e+003,4.2910258789e+003,4.2950000000e+003,4.3008974609e+003,4.2928203125e+003,4.0523076172e+003,4.2921796875e+003,4.3243588867e+003,4.3212822266e+003,4.3847436523e+003,
2.5000000000e-001,4.3794873047e+003,4.2262822266e+003,4.3298715820e+003,4.3160258789e+003,4.1360258789e+003,4.2883334961e+003,4.2970512695e+003,4.3089741211e+003,4.2974360352e+003,4.0574357910e+003,4.3017949219e+003,4.3356411133e+003,4.3228203125e+003,4.3907690430e+003,
2.5781250000e-001,4.3287177734e+003,4.1884614258e+003,4.2967949219e+003,4.2894873047e+003,4.1035898438e+003,4.2584614258e+003,4.2730771484e+003,4.2853847656e+003,4.2717949219e+003,4.0264101563e+003,4.2593588867e+003,4.2905126953e+003,4.2952563477e+003,4.3474360352e+003,
2.6562500000e-001,4.3306411133e+003,4.1948715820e+003,4.3011538086e+003,4.3000000000e+003,4.1247436523e+003,4.2747436523e+003,4.2864101563e+003,4.2967949219e+003,4.2805126953e+003,4.0325642090e+003,4.2611538086e+003,4.2917949219e+003,4.3041025391e+003,4.3506411133e+003,
2.7343750000e-001,4.4362822266e+003,4.3132050781e+003,4.4080771484e+003,4.4115385742e+003,4.2543588867e+003,4.4061538086e+003,4.4080771484e+003,4.4326923828e+003,4.4096152344e+003,4.1635898438e+003,4.3942309570e+003,4.4160258789e+003,4.4167949219e+003,4.4611538086e+003,
2.8125000000e-001,4.4174360352e+003,4.3030771484e+003,4.3953847656e+003,4.3952563477e+003,4.2374360352e+003,4.3970512695e+003,4.3979487305e+003,4.4239741211e+003,4.4035898438e+003,4.1573076172e+003,4.3825639648e+003,4.4039741211e+003,4.4074360352e+003,4.4462822266e+003,
2.8906250000e-001,4.2803847656e+003,4.1791025391e+003,4.2698715820e+003,4.2620512695e+003,4.1088461914e+003,4.2816665039e+003,4.2810258789e+003,4.2975639648e+003,4.2867949219e+003,4.0328205566e+003,4.2369228516e+003,4.2671796875e+003,4.2943588867e+003,4.3137177734e+003,
2.9687500000e-001,4.2192309570e+003,4.1179487305e+003,4.2096152344e+003,4.2010258789e+003,4.0528205566e+003,4.2270512695e+003,4.2261538086e+003,4.2367949219e+003,4.2291025391e+003,3.9694870605e+003,4.1687177734e+003,4.2065385742e+003,4.2364101563e+003,4.2521796875e+003,
3.0468750000e-001,4.1843588867e+003,4.0739743652e+003,4.1728203125e+003,4.1744873047e+003,4.0187180176e+003,4.1921796875e+003,4.1929487305e+003,4.1973076172e+003,4.1942309570e+003,3.9308974609e+003,4.1443588867e+003,4.1844873047e+003,4.1876923828e+003,4.2088461914e+003,
3.1250000000e-001,4.0498718262e+003,3.9394870605e+003,4.0444870605e+003,4.0456411133e+003,3.8728205566e+003,4.0603845215e+003,4.0596154785e+003,4.0538461914e+003,4.0575642090e+003,3.7874357910e+003,3.9992307129e+003,4.0416667480e+003,4.0612819824e+003,4.0683332520e+003,
3.2031250000e-001,4.0433332520e+003,3.9301281738e+003,4.0373076172e+003,4.0330769043e+003,3.8693588867e+003,4.0519230957e+003,4.0517949219e+003,4.0397436523e+003,4.0419230957e+003,3.7732050781e+003,3.9830769043e+003,4.0342307129e+003,4.0542307129e+003,4.0612819824e+003,
3.2812500000e-001,4.0914101563e+003,3.9764101563e+003,4.0819230957e+003,4.0742307129e+003,3.9223076172e+003,4.0947436523e+003,4.0956411133e+003,4.0798718262e+003,4.0789743652e+003,3.8188461914e+003,4.0267949219e+003,4.0819230957e+003,4.1017949219e+003,4.1084614258e+003,
3.3593750000e-001,4.1670512695e+003,4.0533332520e+003,4.1528203125e+003,4.1452563477e+003,3.9987180176e+003,4.1634614258e+003,4.1648715820e+003,4.1502563477e+003,4.1458974609e+003,3.8993588867e+003,4.1043588867e+003,4.1573076172e+003,4.1782050781e+003,4.1835898438e+003,
3.4375000000e-001,4.2543588867e+003,4.1483334961e+003,4.2421796875e+003,4.2276923828e+003,4.0650000000e+003,4.2237177734e+003,4.2355126953e+003,4.2383334961e+003,4.2211538086e+003,3.9879487305e+003,4.2038461914e+003,4.2547436523e+003,4.2442309570e+003,4.2744873047e+003,
3.5156250000e-001,4.3285898438e+003,4.2237177734e+003,4.3178203125e+003,4.3032050781e+003,4.1542309570e+003,4.2885898438e+003,4.3070512695e+003,4.3111538086e+003,4.2901284180e+003,4.0578205566e+003,4.2802563477e+003,4.3284614258e+003,4.3169228516e+003,4.3470512695e+003,
3.5937500000e-001,4.5128203125e+003,4.4150000000e+003,4.5121796875e+003,4.4964101563e+003,4.3500000000e+003,4.4661538086e+003,4.4871796875e+003,4.5067949219e+003,4.4798715820e+003,4.2715385742e+003,4.4605126953e+003,4.5121796875e+003,4.5225639648e+003,4.5301284180e+003,
3.6718750000e-001,4.5011538086e+003,4.4244873047e+003,4.5010258789e+003,4.4843588867e+003,4.3553847656e+003,4.4884614258e+003,4.4956411133e+003,4.5016665039e+003,4.4770512695e+003,4.2635898438e+003,4.4570512695e+003,4.5055126953e+003,4.5108974609e+003,4.5257690430e+003,
3.7500000000e-001,4.6565385742e+003,4.5964101563e+003,4.6534614258e+003,4.6432050781e+003,4.5300000000e+003,4.6467949219e+003,4.6492309570e+003,4.6539741211e+003,4.6270512695e+003,4.4261538086e+003,4.6246152344e+003,4.6630771484e+003,4.6676923828e+003,4.6819228516e+003,
3.8281250000e-001,4.6175639648e+003,4.5737177734e+003,4.6357690430e+003,4.6307690430e+003,4.4732050781e+003,4.6196152344e+003,4.6082050781e+003,4.6289741211e+003,4.6061538086e+003,4.4275639648e+003,4.6021796875e+003,4.6374360352e+003,4.6437177734e+003,4.6480771484e+003,
3.9062500000e-001,4.5315385742e+003,4.4842309570e+003,4.5530771484e+003,4.5476923828e+003,4.3876923828e+003,4.5452563477e+003,4.5346152344e+003,4.5357690430e+003,4.5191025391e+003,4.3274360352e+003,4.5066665039e+003,4.5441025391e+003,4.5546152344e+003,4.5579487305e+003,
3.9843750000e-001,6.1580771484e+003,6.1806411133e+003,6.1465385742e+003,6.1438461914e+003,6.1053847656e+003,6.1546152344e+003,6.1406411133e+003,6.0856411133e+003,6.0483334961e+003,5.9291025391e+003,6.1442309570e+003,6.1235898438e+003,6.1900000000e+003,6.1569228516e+003,
4.0625000000e-001,7.6255126953e+003,7.7714101563e+003,7.6680771484e+003,7.6270512695e+003,7.6508974609e+003,7.6374360352e+003,7.5638461914e+003,7.6500000000e+003,7.5617949219e+003,7.5946152344e+003,7.7593588867e+003,7.6957690430e+003,7.7311538086e+003,7.6798715820e+003,
4.1406250000e-001,7.2098715820e+003,7.3765385742e+003,7.2961538086e+003,7.2430771484e+003,7.2598715820e+003,7.2628203125e+003,7.1784614258e+003,7.2983334961e+003,7.2050000000e+003,7.2371796875e+003,7.3901284180e+003,7.3356411133e+003,7.3430771484e+003,7.3023076172e+003,
4.2187500000e-001,6.5408974609e+003,6.7193588867e+003,6.6679487305e+003,6.6088461914e+003,6.6143588867e+003,6.6379487305e+003,6.5556411133e+003,6.6792309570e+003,6.5882050781e+003,6.5965385742e+003,6.7506411133e+003,6.7085898438e+003,6.6998715820e+003,6.6689741211e+003,
4.2968750000e-001,5.3575639648e+003,5.5375639648e+003,5.5326923828e+003,5.4688461914e+003,5.4493588867e+003,5.5084614258e+003,5.4566665039e+003,5.5341025391e+003,5.4607690430e+003,5.3951284180e+003,5.5726923828e+003,5.5534614258e+003,5.5507690430e+003,5.5280771484e+003,
4.3750000000e-001,4.7607690430e+003,4.8948715820e+003,4.9478203125e+003,4.8767949219e+003,4.8053847656e+003,4.9156411133e+003,4.9033334961e+003,4.9373076172e+003,4.8862822266e+003,4.7378203125e+003,4.9157690430e+003,4.9414101563e+003,4.9311538086e+003,4.9365385742e+003,
4.4531250000e-001,4.6838461914e+003,4.8057690430e+003,4.8661538086e+003,4.8021796875e+003,4.7175639648e+003,4.8367949219e+003,4.8285898438e+003,4.8611538086e+003,4.8138461914e+003,4.6562822266e+003,4.8252563477e+003,4.8588461914e+003,4.8423076172e+003,4.8562822266e+003,
4.5312500000e-001,4.5989741211e+003,4.7139741211e+003,4.7751284180e+003,4.7215385742e+003,4.6274360352e+003,4.7508974609e+003,4.7448715820e+003,4.7783334961e+003,4.7344873047e+003,4.5719228516e+003,4.7355126953e+003,4.7691025391e+003,4.7519228516e+003,4.7687177734e+003,
4.6093750000e-001,4.4914101563e+003,4.6010258789e+003,4.6626923828e+003,4.6178203125e+003,4.5165385742e+003,4.6424360352e+003,4.6389741211e+003,4.6725639648e+003,4.6326923828e+003,4.4623076172e+003,4.6266665039e+003,4.6569228516e+003,4.6433334961e+003,4.6596152344e+003,
4.6875000000e-001,4.2464101563e+003,4.3093588867e+003,4.4000000000e+003,4.3488461914e+003,4.2429487305e+003,4.3755126953e+003,4.3801284180e+003,4.3846152344e+003,4.3660258789e+003,4.1551284180e+003,4.3352563477e+003,4.3785898438e+003,4.3591025391e+003,4.4010258789e+003,
4.7656250000e-001,4.2565385742e+003,4.3119228516e+003,4.4025639648e+003,4.3532050781e+003,4.2391025391e+003,4.3816665039e+003,4.3837177734e+003,4.3850000000e+003,4.3685898438e+003,4.1633334961e+003,4.3389741211e+003,4.3844873047e+003,4.3600000000e+003,4.4062822266e+003,
4.8437500000e-001,4.2334614258e+003,4.2833334961e+003,4.3534614258e+003,4.3287177734e+003,4.2075639648e+003,4.3548715820e+003,4.3565385742e+003,4.3512822266e+003,4.3394873047e+003,4.1406411133e+003,4.3030771484e+003,4.3443588867e+003,4.3274360352e+003,4.3701284180e+003,
4.9218750000e-001,4.2346152344e+003,4.2837177734e+003,4.3461538086e+003,4.3280771484e+003,4.2228203125e+003,4.3520512695e+003,4.3523076172e+003,4.3492309570e+003,4.3375639648e+003,4.1403847656e+003,4.2994873047e+003,4.3362822266e+003,4.3274360352e+003,4.3667949219e+003,
5.0000000000e-001,4.2069228516e+003,4.2424360352e+003,4.3130771484e+003,4.2956411133e+003,4.2047436523e+003,4.3137177734e+003,4.3074360352e+003,4.3105126953e+003,4.2971796875e+003,4.1067949219e+003,4.2617949219e+003,4.2978203125e+003,4.2880771484e+003,4.3284614258e+003,
5.0781250000e-001,4.1841025391e+003,4.2078203125e+003,4.2914101563e+003,4.2697436523e+003,4.1706411133e+003,4.2842309570e+003,4.2774360352e+003,4.2811538086e+003,4.2688461914e+003,4.0764101563e+003,4.2320512695e+003,4.2732050781e+003,4.2521796875e+003,4.2994873047e+003,
5.1562500000e-001,4.1694873047e+003,4.1814101563e+003,4.2670512695e+003,4.2447436523e+003,4.1262822266e+003,4.2497436523e+003,4.2552563477e+003,4.2644873047e+003,4.2566665039e+003,4.0525642090e+003,4.2064101563e+003,4.2493588867e+003,4.2242309570e+003,4.2774360352e+003,
5.2343750000e-001,4.1620512695e+003,4.1747436523e+003,4.2534614258e+003,4.2344873047e+003,4.1175639648e+003,4.2383334961e+003,4.2474360352e+003,4.2562822266e+003,4.2470512695e+003,4.0471794434e+003,4.1970512695e+003,4.2360258789e+003,4.2269228516e+003,4.2694873047e+003,
5.3125000000e-001,4.1366665039e+003,4.1358974609e+003,4.2201284180e+003,4.2006411133e+003,4.0762819824e+003,4.2060258789e+003,4.2188461914e+003,4.2205126953e+003,4.2061538086e+003,4.0060256348e+003,4.1553847656e+003,4.2046152344e+003,4.1939741211e+003,4.2339741211e+003,
5.3906250000e-001,4.1410258789e+003,4.1321796875e+003,4.2194873047e+003,4.1969228516e+003,4.0782050781e+003,4.1955126953e+003,4.2178203125e+003,4.2271796875e+003,4.2111538086e+003,4.0010256348e+003,4.1558974609e+003,4.2041025391e+003,4.1675639648e+003,4.2312822266e+003,
5.4687500000e-001,4.1446152344e+003,4.1302563477e+003,4.2200000000e+003,4.1923076172e+003,4.0767949219e+003,4.1928203125e+003,4.2184614258e+003,4.2258974609e+003,4.2082050781e+003,4.0039743652e+003,4.1600000000e+003,4.1996152344e+003,4.1711538086e+003,4.2291025391e+003,
5.5468750000e-001,4.1484614258e+003,4.1282050781e+003,4.2206411133e+003,4.1894873047e+003,4.0682050781e+003,4.1928203125e+003,4.2201284180e+003,4.2228203125e+003,4.2050000000e+003,4.0064101563e+003,4.1637177734e+003,4.1974360352e+003,4.1752563477e+003,4.2264101563e+003,
5.6250000000e-001,4.1438461914e+003,4.1202563477e+003,4.2142309570e+003,4.1862822266e+003,4.0500000000e+003,4.1893588867e+003,4.2157690430e+003,4.2132050781e+003,4.1973076172e+003,4.0011538086e+003,4.1589741211e+003,4.1923076172e+003,4.1691025391e+003,4.2176923828e+003,
5.7031250000e-001,4.1165385742e+003,4.0946154785e+003,4.1784614258e+003,4.1941025391e+003,4.0480769043e+003,4.1793588867e+003,4.1888461914e+003,4.1798715820e+003,4.1703847656e+003,3.9797436523e+003,4.1215385742e+003,4.1650000000e+003,4.1426923828e+003,4.1939741211e+003,
5.7812500000e-001,4.1507690430e+003,4.1255126953e+003,4.2069228516e+003,4.2193588867e+003,4.0879487305e+003,4.2066665039e+003,4.2143588867e+003,4.2039741211e+003,4.1952563477e+003,4.0106411133e+003,4.1487177734e+003,4.1933334961e+003,4.1764101563e+003,4.2238461914e+003,
5.8593750000e-001,4.1701284180e+003,4.1441025391e+003,4.2182050781e+003,4.2211538086e+003,4.0998715820e+003,4.2044873047e+003,4.2116665039e+003,4.2025639648e+003,4.2011538086e+003,4.0274357910e+003,4.1600000000e+003,4.2121796875e+003,4.1887177734e+003,4.2353847656e+003,
5.9375000000e-001,4.1748715820e+003,4.1498715820e+003,4.2191025391e+003,4.2225639648e+003,4.0980771484e+003,4.2057690430e+003,4.2103847656e+003,4.2124360352e+003,4.2125639648e+003,4.0394870605e+003,4.1743588867e+003,4.2170512695e+003,4.1926923828e+003,4.2383334961e+003,
6.0156250000e-001,4.1797436523e+003,4.1488461914e+003,4.2235898438e+003,4.2179487305e+003,4.0980771484e+003,4.2070512695e+003,4.2125639648e+003,4.2169228516e+003,4.2160258789e+003,4.0411538086e+003,4.1810258789e+003,4.2246152344e+003,4.1898715820e+003,4.2403847656e+003,
6.0937500000e-001,4.1193588867e+003,4.0830769043e+003,4.1596152344e+003,4.1492309570e+003,4.0203845215e+003,4.1376923828e+003,4.1421796875e+003,4.1508974609e+003,4.1512822266e+003,3.9773076172e+003,4.1148715820e+003,4.1529487305e+003,4.1194873047e+003,4.1678203125e+003,
6.1718750000e-001,4.1029487305e+003,4.0671794434e+003,4.1435898438e+003,4.1380771484e+003,4.0033332520e+003,4.1194873047e+003,4.1256411133e+003,4.1348715820e+003,4.1353847656e+003,3.9612819824e+003,4.0920512695e+003,4.1312822266e+003,4.1061538086e+003,4.1500000000e+003,
6.2500000000e-001,4.1242309570e+003,4.0856411133e+003,4.1661538086e+003,4.1629487305e+003,4.0314101563e+003,4.1321796875e+003,4.1500000000e+003,4.1594873047e+003,4.1587177734e+003,3.9788461914e+003,4.1019228516e+003,4.1555126953e+003,4.1217949219e+003,4.1744873047e+003,
6.3281250000e-001,4.1464101563e+003,4.1061538086e+003,4.1858974609e+003,4.1815385742e+003,4.0546154785e+003,4.1506411133e+003,4.1741025391e+003,4.1841025391e+003,4.1816665039e+003,4.0012819824e+003,4.1234614258e+003,4.1801284180e+003,4.1367949219e+003,4.1973076172e+003,
6.4062500000e-001,4.1500000000e+003,4.1123076172e+003,4.1823076172e+003,4.1734614258e+003,4.0388461914e+003,4.1637177734e+003,4.1902563477e+003,4.1991025391e+003,4.1857690430e+003,4.0175642090e+003,4.1394873047e+003,4.1785898438e+003,4.1397436523e+003,4.1933334961e+003,
6.4843750000e-001,4.1543588867e+003,4.1180771484e+003,4.1870512695e+003,4.1784614258e+003,4.0437180176e+003,4.1728203125e+003,4.1975639648e+003,4.2052563477e+003,4.1897436523e+003,4.0220512695e+003,4.1465385742e+003,4.1820512695e+003,4.1484614258e+003,4.1970512695e+003,
6.5625000000e-001,4.1685898438e+003,4.1324360352e+003,4.2016665039e+003,4.1962822266e+003,4.0665385742e+003,4.1900000000e+003,4.2129487305e+003,4.2201284180e+003,4.2035898438e+003,4.0350000000e+003,4.1602563477e+003,4.1958974609e+003,4.1639741211e+003,4.2120512695e+003,
6.6406250000e-001,4.1805126953e+003,4.1433334961e+003,4.2146152344e+003,4.2132050781e+003,4.0911538086e+003,4.2042309570e+003,4.2256411133e+003,4.2323076172e+003,4.2151284180e+003,4.0469230957e+003,4.1688461914e+003,4.2076923828e+003,4.1733334961e+003,4.2250000000e+003,
6.7187500000e-001,4.1712822266e+003,4.1305126953e+003,4.2057690430e+003,4.2029487305e+003,4.1002563477e+003,4.2060258789e+003,4.2211538086e+003,4.2047436523e+003,4.1896152344e+003,4.0407692871e+003,4.1515385742e+003,4.1915385742e+003,4.1537177734e+003,4.2044873047e+003,
6.7968750000e-001,4.1470512695e+003,4.1088461914e+003,4.1794873047e+003,4.1838461914e+003,4.0829487305e+003,4.1773076172e+003,4.1852563477e+003,4.1691025391e+003,4.1615385742e+003,4.0044870605e+003,4.1160258789e+003,4.1634614258e+003,4.1273076172e+003,4.1815385742e+003,
6.8750000000e-001,4.1764101563e+003,4.1379487305e+003,4.2080771484e+003,4.2097436523e+003,4.1061538086e+003,4.1984614258e+003,4.2060258789e+003,4.1905126953e+003,4.1844873047e+003,4.0324357910e+003,4.1385898438e+003,4.1850000000e+003,4.1526923828e+003,4.2055126953e+003,
6.9531250000e-001,4.3051284180e+003,4.2765385742e+003,4.3335898438e+003,4.3382050781e+003,4.2285898438e+003,4.3142309570e+003,4.3167949219e+003,4.3071796875e+003,4.3033334961e+003,4.1724360352e+003,4.2748715820e+003,4.3100000000e+003,4.2797436523e+003,4.3291025391e+003,
7.0312500000e-001,4.2780771484e+003,4.2435898438e+003,4.3194873047e+003,4.3270512695e+003,4.1964101563e+003,4.2779487305e+003,4.2848715820e+003,4.3030771484e+003,4.3001284180e+003,4.1660258789e+003,4.2738461914e+003,4.3087177734e+003,4.2480771484e+003,4.3167949219e+003,
7.1093750000e-001,4.2250000000e+003,4.1834614258e+003,4.2684614258e+003,4.2770512695e+003,4.1455126953e+003,4.2226923828e+003,4.2353847656e+003,4.2573076172e+003,4.2552563477e+003,4.1151284180e+003,4.2124360352e+003,4.2546152344e+003,4.1976923828e+003,4.2621796875e+003,
7.1875000000e-001,4.1715385742e+003,4.1298715820e+003,4.2150000000e+003,4.2261538086e+003,4.0789743652e+003,4.1717949219e+003,4.1932050781e+003,4.2197436523e+003,4.2142309570e+003,4.0676923828e+003,4.1507690430e+003,4.2011538086e+003,4.1480771484e+003,4.2064101563e+003,
7.2656250000e-001,4.1778203125e+003,4.1424360352e+003,4.2205126953e+003,4.2297436523e+003,4.0779487305e+003,4.1838461914e+003,4.2078203125e+003,4.2371796875e+003,4.2274360352e+003,4.0797436523e+003,4.1635898438e+003,4.2101284180e+003,4.1548715820e+003,4.2138461914e+003,
7.3437500000e-001,4.2047436523e+003,4.1755126953e+003,4.2485898438e+003,4.2388461914e+003,4.1467949219e+003,4.2347436523e+003,4.2634614258e+003,4.2857690430e+003,4.2692309570e+003,4.1203847656e+003,4.2170512695e+003,4.2448715820e+003,4.1835898438e+003,4.2482050781e+003,
7.4218750000e-001,4.2216665039e+003,4.1900000000e+003,4.2635898438e+003,4.2497436523e+003,4.1758974609e+003,4.2561538086e+003,4.2841025391e+003,4.2953847656e+003,4.2792309570e+003,4.1334614258e+003,4.2279487305e+003,4.2569228516e+003,4.2006411133e+003,4.2635898438e+003,
7.5000000000e-001,4.2664101563e+003,4.2350000000e+003,4.3041025391e+003,4.2902563477e+003,4.2197436523e+003,4.3019228516e+003,4.3273076172e+003,4.3288461914e+003,4.3125639648e+003,4.1717949219e+003,4.2605126953e+003,4.2930771484e+003,4.2451284180e+003,4.3037177734e+003,
7.5781250000e-001,4.3294873047e+003,4.3017949219e+003,4.3632050781e+003,4.3529487305e+003,4.2738461914e+003,4.3637177734e+003,4.3853847656e+003,4.3834614258e+003,4.3658974609e+003,4.2302563477e+003,4.3137177734e+003,4.3484614258e+003,4.3074360352e+003,4.3620512695e+003,
7.6562500000e-001,4.2946152344e+003,4.2684614258e+003,4.3398715820e+003,4.3350000000e+003,4.2443588867e+003,4.3312822266e+003,4.3432050781e+003,4.3397436523e+003,4.3206411133e+003,4.2053847656e+003,4.2960258789e+003,4.3271796875e+003,4.2615385742e+003,4.3320512695e+003,
7.7343750000e-001,4.2517949219e+003,4.2233334961e+003,4.2957690430e+003,4.2871796875e+003,4.2051284180e+003,4.2903847656e+003,4.2996152344e+003,4.2889741211e+003,4.2721796875e+003,4.1630771484e+003,4.2491025391e+003,4.2830771484e+003,4.2217949219e+003,4.2883334961e+003,
7.8125000000e-001,4.2903847656e+003,4.2706411133e+003,4.3292309570e+003,4.3194873047e+003,4.2487177734e+003,4.3256411133e+003,4.3321796875e+003,4.3196152344e+003,4.3050000000e+003,4.1964101563e+003,4.2851284180e+003,4.3141025391e+003,4.2634614258e+003,4.3257690430e+003,
7.8906250000e-001,4.1910258789e+003,4.1698715820e+003,4.2306411133e+003,4.2312822266e+003,4.1389741211e+003,4.2126923828e+003,4.2198715820e+003,4.2206411133e+003,4.2166665039e+003,4.0955129395e+003,4.1979487305e+003,4.2212822266e+003,4.1365385742e+003,4.2255126953e+003,
7.9687500000e-001,4.1192309570e+003,4.0941025391e+003,4.1582050781e+003,4.1537177734e+003,4.0587180176e+003,4.1393588867e+003,4.1476923828e+003,4.1469228516e+003,4.1460258789e+003,4.0235898438e+003,4.1132050781e+003,4.1419228516e+003,4.0721794434e+003,4.1526923828e+003,
8.0468750000e-001,4.1497436523e+003,4.1137177734e+003,4.1870512695e+003,4.1796152344e+003,4.0728205566e+003,4.1524360352e+003,4.1726923828e+003,4.1788461914e+003,4.1800000000e+003,4.0583332520e+003,4.1283334961e+003,4.1535898438e+003,4.1229487305e+003,4.1787177734e+003,
8.1250000000e-001,4.1955126953e+003,4.1591025391e+003,4.2306411133e+003,4.2346152344e+003,4.1101284180e+003,4.1900000000e+003,4.2125639648e+003,4.2297436523e+003,4.2301284180e+003,4.1091025391e+003,4.1858974609e+003,4.2058974609e+003,4.1606411133e+003,4.2237177734e+003,
8.2031250000e-001,4.2115385742e+003,4.1774360352e+003,4.2450000000e+003,4.2583334961e+003,4.1206411133e+003,4.2011538086e+003,4.2244873047e+003,4.2517949219e+003,4.2503847656e+003,4.1301284180e+003,4.2111538086e+003,4.2306411133e+003,4.1680771484e+003,4.2411538086e+003,
8.2812500000e-001,4.1953847656e+003,4.1656411133e+003,4.2288461914e+003,4.2438461914e+003,4.1085898438e+003,4.1850000000e+003,4.2083334961e+003,4.2411538086e+003,4.2367949219e+003,4.1178203125e+003,4.1961538086e+003,4.2198715820e+003,4.1494873047e+003,4.2276923828e+003,
8.3593750000e-001,3.9978205566e+003,3.9685898438e+003,4.0412819824e+003,4.0474357910e+003,3.9588461914e+003,4.0302563477e+003,4.0548718262e+003,4.0696154785e+003,4.0550000000e+003,3.9333332520e+003,3.9926923828e+003,4.0161538086e+003,3.9714101563e+003,4.0292307129e+003,
8.4375000000e-001,3.9017949219e+003,3.8579487305e+003,3.9360256348e+003,3.9628205566e+003,3.8400000000e+003,3.9494870605e+003,3.9774357910e+003,3.9697436523e+003,3.9628205566e+003,3.8207692871e+003,3.8905129395e+003,3.9169230957e+003,3.8412819824e+003,3.9229487305e+003,
8.5156250000e-001,3.9084614258e+003,3.8624357910e+003,3.9411538086e+003,3.9682050781e+003,3.8535898438e+003,3.9546154785e+003,3.9832050781e+003,3.9687180176e+003,3.9617949219e+003,3.8206411133e+003,3.8848718262e+003,3.9170512695e+003,3.8439743652e+003,3.9269230957e+003,
8.5937500000e-001,3.9396154785e+003,3.8791025391e+003,3.9689743652e+003,3.9942307129e+003,3.8919230957e+003,3.9708974609e+003,4.0005129395e+003,3.9684614258e+003,3.9567949219e+003,3.8307692871e+003,3.8916667480e+003,3.9289743652e+003,3.8708974609e+003,3.9442307129e+003,
8.6718750000e-001,3.9410256348e+003,3.8784614258e+003,3.9648718262e+003,3.9924357910e+003,3.8838461914e+003,3.9693588867e+003,3.9957692871e+003,3.9630769043e+003,3.9546154785e+003,3.8297436523e+003,3.8965385742e+003,3.9278205566e+003,3.8682050781e+003,3.9439743652e+003,
8.7500000000e-001,3.9302563477e+003,3.8755129395e+003,3.9471794434e+003,3.9714101563e+003,3.8589743652e+003,3.9597436523e+003,3.9776923828e+003,3.9502563477e+003,3.9488461914e+003,3.8223076172e+003,3.8955129395e+003,3.9212819824e+003,3.8520512695e+003,3.9406411133e+003,
8.8281250000e-001,3.9252563477e+003,3.8737180176e+003,3.9439743652e+003,3.9614101563e+003,3.8548718262e+003,3.9529487305e+003,3.9688461914e+003,3.9448718262e+003,3.9435898438e+003,3.8187180176e+003,3.8892307129e+003,3.9185898438e+003,3.8482050781e+003,3.9382050781e+003,
8.9062500000e-001,3.9620512695e+003,3.8978205566e+003,3.9832050781e+003,4.0029487305e+003,3.8865385742e+003,3.9625642090e+003,3.9824357910e+003,3.9696154785e+003,3.9714101563e+003,3.8608974609e+003,3.9138461914e+003,3.9505129395e+003,3.8965385742e+003,3.9655129395e+003,
8.9843750000e-001,3.9717949219e+003,3.9053845215e+003,3.9894870605e+003,4.0175642090e+003,3.8783332520e+003,3.9647436523e+003,3.9843588867e+003,3.9775642090e+003,3.9837180176e+003,3.8752563477e+003,3.9251281738e+003,3.9617949219e+003,3.9083332520e+003,3.9739743652e+003,
9.0625000000e-001,3.9532050781e+003,3.8914101563e+003,3.9608974609e+003,3.9993588867e+003,3.8398718262e+003,3.9297436523e+003,3.9469230957e+003,3.9641025391e+003,3.9700000000e+003,3.8567949219e+003,3.9057692871e+003,3.9453845215e+003,3.8930769043e+003,3.9547436523e+003,
9.1406250000e-001,3.9258974609e+003,3.8633332520e+003,3.9333332520e+003,3.9670512695e+003,3.8323076172e+003,3.8978205566e+003,3.9187180176e+003,3.9408974609e+003,3.9437180176e+003,3.8271794434e+003,3.8771794434e+003,3.9152563477e+003,3.8666667480e+003,3.9248718262e+003,
9.2187500000e-001,3.9087180176e+003,3.8425642090e+003,3.9188461914e+003,3.9385898438e+003,3.8478205566e+003,3.8832050781e+003,3.9141025391e+003,3.9273076172e+003,3.9260256348e+003,3.8038461914e+003,3.8601281738e+003,3.8938461914e+003,3.8458974609e+003,3.9002563477e+003,
9.2968750000e-001,3.9894870605e+003,3.9248718262e+003,3.9966667480e+003,4.0157692871e+003,3.9285898438e+003,3.9696154785e+003,4.0016667480e+003,4.0055129395e+003,4.0019230957e+003,3.8805129395e+003,3.9388461914e+003,3.9698718262e+003,3.9247436523e+003,3.9753845215e+003,
9.3750000000e-001,4.1394873047e+003,4.0808974609e+003,4.1394873047e+003,4.1647436523e+003,4.0714101563e+003,4.1248715820e+003,4.1538461914e+003,4.1525639648e+003,4.1458974609e+003,4.0292307129e+003,4.0869230957e+003,4.1132050781e+003,4.0753845215e+003,4.1188461914e+003,
9.4531250000e-001,4.6202563477e+003,4.6130771484e+003,4.6292309570e+003,4.6601284180e+003,4.5923076172e+003,4.6412822266e+003,4.6506411133e+003,4.6519228516e+003,4.6266665039e+003,4.5543588867e+003,4.5952563477e+003,4.6150000000e+003,4.5816665039e+003,4.5978203125e+003,
9.5312500000e-001,4.6903847656e+003,4.6889741211e+003,4.7026923828e+003,4.7314101563e+003,4.6742309570e+003,4.7161538086e+003,4.7226923828e+003,4.7192309570e+003,4.6888461914e+003,4.6252563477e+003,4.6655126953e+003,4.6869228516e+003,4.6591025391e+003,4.6666665039e+003,
9.6093750000e-001,5.0439741211e+003,5.0646152344e+003,5.0533334961e+003,5.0864101563e+003,5.0380771484e+003,5.0628203125e+003,5.0637177734e+003,5.0555126953e+003,5.0160258789e+003,4.9869228516e+003,5.0416665039e+003,5.0443588867e+003,5.0330771484e+003,5.0220512695e+003,
9.6875000000e-001,5.1794873047e+003,5.2374360352e+003,5.2164101563e+003,5.2334614258e+003,5.1985898438e+003,5.2194873047e+003,5.2084614258e+003,5.2210258789e+003,5.1814101563e+003,5.1780771484e+003,5.2300000000e+003,5.2242309570e+003,5.2012822266e+003,5.1892309570e+003,
9.7656250000e-001,5.0943588867e+003,5.1583334961e+003,5.1438461914e+003,5.1520512695e+003,5.1188461914e+003,5.1403847656e+003,5.1256411133e+003,5.1492309570e+003,5.1114101563e+003,5.1057690430e+003,5.1525639648e+003,5.1535898438e+003,5.1212822266e+003,5.1137177734e+003,
9.8437500000e-001,4.7060258789e+003,4.7741025391e+003,4.7755126953e+003,4.7821796875e+003,4.7110258789e+003,4.7576923828e+003,4.7473076172e+003,4.7728203125e+003,4.7484614258e+003,4.7138461914e+003,4.7651284180e+003,4.7750000000e+003,4.7310258789e+003,4.7438461914e+003,
9.9218750000e-001,4.6757690430e+003,4.7450000000e+003,4.7475639648e+003,4.7588461914e+003,4.6869228516e+003,4.7312822266e+003,4.7233334961e+003,4.7441025391e+003,4.7206411133e+003,4.6820512695e+003,4.7385898438e+003,4.7426923828e+003,4.7048715820e+003,4.7173076172e+003,
1.0000000000e+000,4.7530771484e+003,4.8211538086e+003,4.8256411133e+003,4.8343588867e+003,4.7928203125e+003,4.8067949219e+003,4.7993588867e+003,4.8257690430e+003,4.8016665039e+003,4.7680771484e+003,4.8258974609e+003,4.8176923828e+003,4.7929487305e+003,4.7976923828e+003,
1.0078125000e+000,4.7680771484e+003,4.8357690430e+003,4.8405126953e+003,4.8403847656e+003,4.8132050781e+003,4.8166665039e+003,4.8084614258e+003,4.8428203125e+003,4.8210258789e+003,4.7901284180e+003,4.8430771484e+003,4.8323076172e+003,4.8110258789e+003,4.8125639648e+003,
1.0156250000e+000,4.6687177734e+003,4.7494873047e+003,4.7496152344e+003,4.7375639648e+003,4.7051284180e+003,4.7258974609e+003,4.7266665039e+003,4.7588461914e+003,4.7407690430e+003,4.6984614258e+003,4.7348715820e+003,4.7378203125e+003,4.7111538086e+003,4.7156411133e+003,
1.0234375000e+000,4.6908974609e+003,4.7776923828e+003,4.7739741211e+003,4.7701284180e+003,4.7306411133e+003,4.7578203125e+003,4.7608974609e+003,4.7883334961e+003,4.7667949219e+003,4.7203847656e+003,4.7578203125e+003,4.7632050781e+003,4.7293588867e+003,4.7398715820e+003,
1.0312500000e+000,4.7451284180e+003,4.8370512695e+003,4.8282050781e+003,4.8337177734e+003,4.7888461914e+003,4.8198715820e+003,4.8220512695e+003,4.8479487305e+003,4.8233334961e+003,4.7773076172e+003,4.8187177734e+003,4.8202563477e+003,4.7800000000e+003,4.7957690430e+003,
1.0390625000e+000,4.7920512695e+003,4.8876923828e+003,4.8744873047e+003,4.8864101563e+003,4.8364101563e+003,4.8721796875e+003,4.8708974609e+003,4.8978203125e+003,4.8726923828e+003,4.8311538086e+003,4.8750000000e+003,4.8689741211e+003,4.8271796875e+003,4.8442309570e+003,
1.0468750000e+000,4.7156411133e+003,4.8220512695e+003,4.8105126953e+003,4.8258974609e+003,4.7841025391e+003,4.8278203125e+003,4.8179487305e+003,4.8261538086e+003,4.8015385742e+003,4.7651284180e+003,4.7915385742e+003,4.7910258789e+003,4.7761538086e+003,4.7687177734e+003,
1.0546875000e+000,4.7896152344e+003,4.8901284180e+003,4.8882050781e+003,4.8816665039e+003,4.8624360352e+003,4.8975639648e+003,4.8871796875e+003,4.8898715820e+003,4.8580771484e+003,4.8317949219e+003,4.8811538086e+003,4.8706411133e+003,4.8358974609e+003,4.8470512695e+003,
1.0625000000e+000,4.7329487305e+003,4.8320512695e+003,4.8343588867e+003,4.8233334961e+003,4.7917949219e+003,4.8406411133e+003,4.8329487305e+003,4.8342309570e+003,4.8047436523e+003,4.7751284180e+003,4.8253847656e+003,4.8152563477e+003,4.7805126953e+003,4.7919228516e+003,
1.0703125000e+000,4.6711538086e+003,4.7701284180e+003,4.7714101563e+003,4.7629487305e+003,4.7288461914e+003,4.7833334961e+003,4.7782050781e+003,4.7770512695e+003,4.7507690430e+003,4.7121796875e+003,4.7552563477e+003,4.7496152344e+003,4.7161538086e+003,4.7256411133e+003,
1.0781250000e+000,4.6865385742e+003,4.7833334961e+003,4.7853847656e+003,4.7788461914e+003,4.7550000000e+003,4.7982050781e+003,4.7917949219e+003,4.7928203125e+003,4.7679487305e+003,4.7284614258e+003,4.7673076172e+003,4.7651284180e+003,4.7266665039e+003,4.7396152344e+003,
1.0859375000e+000,4.6098715820e+003,4.6935898438e+003,4.7128203125e+003,4.7024360352e+003,4.6891025391e+003,4.7134614258e+003,4.7020512695e+003,4.7187177734e+003,4.6996152344e+003,4.6615385742e+003,4.6987177734e+003,4.6941025391e+003,4.6455126953e+003,4.6673076172e+003,
1.0937500000e+000,4.3673076172e+003,4.4361538086e+003,4.4657690430e+003,4.4593588867e+003,4.4097436523e+003,4.4660258789e+003,4.4656411133e+003,4.4815385742e+003,4.4621796875e+003,4.4033334961e+003,4.4379487305e+003,4.4412822266e+003,4.3906411133e+003,4.4196152344e+003,
1.1015625000e+000,4.3639741211e+003,4.4266665039e+003,4.4598715820e+003,4.4560258789e+003,4.4023076172e+003,4.4571796875e+003,4.4619228516e+003,4.4766665039e+003,4.4578203125e+003,4.3955126953e+003,4.4285898438e+003,4.4353847656e+003,4.3833334961e+003,4.4155126953e+003,
1.1093750000e+000,4.4026923828e+003,4.4511538086e+003,4.4914101563e+003,4.4928203125e+003,4.4421796875e+003,4.4852563477e+003,4.4910258789e+003,4.5165385742e+003,4.4964101563e+003,4.4321796875e+003,4.4682050781e+003,4.4762822266e+003,4.4148715820e+003,4.4534614258e+003,
1.1171875000e+000,4.3910258789e+003,4.4365385742e+003,4.4788461914e+003,4.4788461914e+003,4.4283334961e+003,4.4753847656e+003,4.4791025391e+003,4.5047436523e+003,4.4814101563e+003,4.4152563477e+003,4.4535898438e+003,4.4643588867e+003,4.3983334961e+003,4.4412822266e+003,
1.1250000000e+000,4.3894873047e+003,4.4307690430e+003,4.4738461914e+003,4.4743588867e+003,4.4150000000e+003,4.4739741211e+003,4.4769228516e+003,4.4979487305e+003,4.4725639648e+003,4.4073076172e+003,4.4460258789e+003,4.4573076172e+003,4.3915385742e+003,4.4380771484e+003,
1.1328125000e+000,4.3785898438e+003,4.4169228516e+003,4.4610258789e+003,4.4643588867e+003,4.3929487305e+003,4.4612822266e+003,4.4651284180e+003,4.4846152344e+003,4.4629487305e+003,4.3989741211e+003,4.4361538086e+003,4.4447436523e+003,4.3819228516e+003,4.4262822266e+003,
1.1406250000e+000,4.2055126953e+003,4.2264101563e+003,4.2843588867e+003,4.2834614258e+003,4.2080771484e+003,4.2928203125e+003,4.2964101563e+003,4.3014101563e+003,4.2883334961e+003,4.2183334961e+003,4.2525639648e+003,4.2639741211e+003,4.2025639648e+003,4.2435898438e+003,
1.1484375000e+000,4.1748715820e+003,4.1892309570e+003,4.2498715820e+003,4.2453847656e+003,4.1916665039e+003,4.2637177734e+003,4.2666665039e+003,4.2639741211e+003,4.2479487305e+003,4.1765385742e+003,4.2108974609e+003,4.2266665039e+003,4.1651284180e+003,4.2080771484e+003,
1.1562500000e+000,4.1833334961e+003,4.1907690430e+003,4.2526923828e+003,4.2482050781e+003,4.2143588867e+003,4.2694873047e+003,4.2732050781e+003,4.2652563477e+003,4.2450000000e+003,4.1733334961e+003,4.2100000000e+003,4.2297436523e+003,4.1658974609e+003,4.2126923828e+003,
1.1640625000e+000,4.2130771484e+003,4.2126923828e+003,4.2761538086e+003,4.2753847656e+003,4.2482050781e+003,4.2911538086e+003,4.2982050781e+003,4.2880771484e+003,4.2648715820e+003,4.1933334961e+003,4.2348715820e+003,4.2567949219e+003,4.1866665039e+003,4.2394873047e+003,
1.1718750000e+000,4.1896152344e+003,4.1738461914e+003,4.2407690430e+003,4.2457690430e+003,4.1670512695e+003,4.2425639648e+003,4.2515385742e+003,4.2457690430e+003,4.2364101563e+003,4.1675639648e+003,4.2052563477e+003,4.2233334961e+003,4.1528203125e+003,4.2012822266e+003,
1.1796875000e+000,4.1656411133e+003,4.1514101563e+003,4.2171796875e+003,4.2208974609e+003,4.1443588867e+003,4.2198715820e+003,4.2258974609e+003,4.2221796875e+003,4.2134614258e+003,4.1473076172e+003,4.1764101563e+003,4.1974360352e+003,4.1353847656e+003,4.1752563477e+003,
1.1875000000e+000,4.1211538086e+003,4.0917949219e+003,4.1642309570e+003,4.1720512695e+003,4.0992309570e+003,4.1524360352e+003,4.1678203125e+003,4.1694873047e+003,4.1628203125e+003,4.0947436523e+003,4.1302563477e+003,4.1473076172e+003,4.0906411133e+003,4.1256411133e+003,
1.1953125000e+000,4.0920512695e+003,4.0569230957e+003,4.1237177734e+003,4.1397436523e+003,4.0497436523e+003,4.1115385742e+003,4.1269228516e+003,4.1362822266e+003,4.1376923828e+003,4.0669230957e+003,4.0988461914e+003,4.1169228516e+003,4.0529487305e+003,4.0923076172e+003,
1.2031250000e+000,4.1265385742e+003,4.0925642090e+003,4.1550000000e+003,4.1747436523e+003,4.0850000000e+003,4.1421796875e+003,4.1565385742e+003,4.1693588867e+003,4.1703847656e+003,4.1025639648e+003,4.1289741211e+003,4.1478203125e+003,4.0862819824e+003,4.1226923828e+003,
1.2109375000e+000,4.2676923828e+003,4.2203847656e+003,4.2910258789e+003,4.3124360352e+003,4.2116665039e+003,4.2671796875e+003,4.2823076172e+003,4.2992309570e+003,4.3029487305e+003,4.2405126953e+003,4.2607690430e+003,4.2717949219e+003,4.2294873047e+003,4.2547436523e+003,
1.2187500000e+000,4.3200000000e+003,4.2815385742e+003,4.3433334961e+003,4.3776923828e+003,4.2698715820e+003,4.3400000000e+003,4.3485898438e+003,4.3633334961e+003,4.3602563477e+003,4.3035898438e+003,4.3238461914e+003,4.3337177734e+003,4.2796152344e+003,4.3147436523e+003,
1.2265625000e+000,4.3434614258e+003,4.3147436523e+003,4.3641025391e+003,4.4026923828e+003,4.3089741211e+003,4.3708974609e+003,4.3764101563e+003,4.3915385742e+003,4.3850000000e+003,4.3333334961e+003,4.3587177734e+003,4.3601284180e+003,4.3000000000e+003,4.3394873047e+003,
1.2343750000e+000,4.3544873047e+003,4.3320512695e+003,4.3741025391e+003,4.4126923828e+003,4.3344873047e+003,4.3873076172e+003,4.3901284180e+003,4.4047436523e+003,4.3956411133e+003,4.3487177734e+003,4.3787177734e+003,4.3707690430e+003,4.3105126953e+003,4.3510258789e+003,
1.2421875000e+000,4.3138461914e+003,4.2876923828e+003,4.3392309570e+003,4.3760258789e+003,4.3058974609e+003,4.3533334961e+003,4.3521796875e+003,4.3628203125e+003,4.3491025391e+003,4.3060258789e+003,4.3334614258e+003,4.3229487305e+003,4.2805126953e+003,4.3121796875e+003,
1.2500000000e+000,4.2839741211e+003,4.2543588867e+003,4.3125639648e+003,4.3532050781e+003,4.2770512695e+003,4.3248715820e+003,4.3234614258e+003,4.3326923828e+003,4.3162822266e+003,4.2734614258e+003,4.2948715820e+003,4.2920512695e+003,4.2567949219e+003,4.2837177734e+003,
1.2578125000e+000,4.2558974609e+003,4.2288461914e+003,4.2848715820e+003,4.3308974609e+003,4.2511538086e+003,4.2971796875e+003,4.3019228516e+003,4.3082050781e+003,4.2892309570e+003,4.2470512695e+003,4.2628203125e+003,4.2732050781e+003,4.2276923828e+003,4.2574360352e+003,
1.2656250000e+000,4.2493588867e+003,4.2229487305e+003,4.2780771484e+003,4.3193588867e+003,4.2441025391e+003,4.2907690430e+003,4.3000000000e+003,4.3032050781e+003,4.2853847656e+003,4.2419228516e+003,4.2606411133e+003,4.2721796875e+003,4.2164101563e+003,4.2498715820e+003,
1.2734375000e+000,4.2226923828e+003,4.1829487305e+003,4.2576923828e+003,4.2875639648e+003,4.2043588867e+003,4.2637177734e+003,4.2735898438e+003,4.2751284180e+003,4.2666665039e+003,4.2101284180e+003,4.2343588867e+003,4.2429487305e+003,4.1887177734e+003,4.2176923828e+003,
1.2812500000e+000,4.2166665039e+003,4.1767949219e+003,4.2539741211e+003,4.2869228516e+003,4.1950000000e+003,4.2562822266e+003,4.2647436523e+003,4.2694873047e+003,4.2630771484e+003,4.2064101563e+003,4.2291025391e+003,4.2357690430e+003,4.1874360352e+003,4.2133334961e+003,
1.2890625000e+000,4.2166665039e+003,4.1792309570e+003,4.2551284180e+003,4.2894873047e+003,4.1947436523e+003,4.2538461914e+003,4.2628203125e+003,4.2694873047e+003,4.2646152344e+003,4.2107690430e+003,4.2328203125e+003,4.2367949219e+003,4.1916665039e+003,4.2158974609e+003,
1.2968750000e+000,4.2302563477e+003,4.1875639648e+003,4.2607690430e+003,4.3007690430e+003,4.1888461914e+003,4.2430771484e+003,4.2519228516e+003,4.2651284180e+003,4.2608974609e+003,4.2102563477e+003,4.2375639648e+003,4.2441025391e+003,4.1866665039e+003,4.2220512695e+003,
1.3046875000e+000,4.2385898438e+003,4.1965385742e+003,4.2675639648e+003,4.3142309570e+003,4.1851284180e+003,4.2473076172e+003,4.2567949219e+003,4.2675639648e+003,4.2617949219e+003,4.2153847656e+003,4.2492309570e+003,4.2560258789e+003,4.1937177734e+003,4.2335898438e+003,
1.3125000000e+000,4.2838461914e+003,4.2437177734e+003,4.3119228516e+003,4.3629487305e+003,4.2341025391e+003,4.2916665039e+003,4.3007690430e+003,4.3150000000e+003,4.3053847656e+003,4.2706411133e+003,4.2994873047e+003,4.3065385742e+003,4.2388461914e+003,4.2798715820e+003,
1.3203125000e+000,4.1539741211e+003,4.1001284180e+003,4.1892309570e+003,4.2412822266e+003,4.1284614258e+003,4.1700000000e+003,4.1766665039e+003,4.1894873047e+003,4.1735898438e+003,4.1282050781e+003,4.1474360352e+003,4.1650000000e+003,4.1048715820e+003,4.1425639648e+003,
1.3281250000e+000,4.1541025391e+003,4.1042309570e+003,4.1846152344e+003,4.2387177734e+003,4.1300000000e+003,4.1710258789e+003,4.1797436523e+003,4.1879487305e+003,4.1697436523e+003,4.1242309570e+003,4.1501284180e+003,4.1600000000e+003,4.1061538086e+003,4.1434614258e+003,
1.3359375000e+000,4.2392309570e+003,4.1964101563e+003,4.2629487305e+003,4.3173076172e+003,4.2117949219e+003,4.2569228516e+003,4.2706411133e+003,4.2733334961e+003,4.2502563477e+003,4.2117949219e+003,4.2387177734e+003,4.2466665039e+003,4.1869228516e+003,4.2307690430e+003,
1.3437500000e+000,4.2507690430e+003,4.2006411133e+003,4.2747436523e+003,4.3278203125e+003,4.2161538086e+003,4.2678203125e+003,4.2811538086e+003,4.2823076172e+003,4.2593588867e+003,4.2200000000e+003,4.2437177734e+003,4.2584614258e+003,4.1906411133e+003,4.2382050781e+003,
1.3515625000e+000,4.2891025391e+003,4.2310258789e+003,4.3089741211e+003,4.3648715820e+003,4.2471796875e+003,4.3082050781e+003,4.3198715820e+003,4.3179487305e+003,4.2983334961e+003,4.2542309570e+003,4.2800000000e+003,4.2930771484e+003,4.2174360352e+003,4.2658974609e+003,
1.3593750000e+000,4.3192309570e+003,4.2655126953e+003,4.3379487305e+003,4.3982050781e+003,4.2848715820e+003,4.3416665039e+003,4.3521796875e+003,4.3505126953e+003,4.3344873047e+003,4.2892309570e+003,4.3143588867e+003,4.3233334961e+003,4.2469228516e+003,4.2937177734e+003,
1.3671875000e+000,4.3082050781e+003,4.2680771484e+003,4.3329487305e+003,4.4135898438e+003,4.2756411133e+003,4.3300000000e+003,4.3376923828e+003,4.3430771484e+003,4.3393588867e+003,4.3008974609e+003,4.3052563477e+003,4.3110258789e+003,4.2419228516e+003,4.2866665039e+003,
1.3750000000e+000,4.2458974609e+003,4.2024360352e+003,4.2714101563e+003,4.3584614258e+003,4.1971796875e+003,4.2648715820e+003,4.2733334961e+003,4.2785898438e+003,4.2765385742e+003,4.2389741211e+003,4.2429487305e+003,4.2471796875e+003,4.1802563477e+003,4.2262822266e+003,
1.3828125000e+000,4.1703847656e+003,4.1226923828e+003,4.1948715820e+003,4.2851284180e+003,4.1103847656e+003,4.1884614258e+003,4.1979487305e+003,4.1998715820e+003,4.1983334961e+003,4.1578203125e+003,4.1666665039e+003,4.1714101563e+003,4.1038461914e+003,4.1525639648e+003,
1.3906250000e+000,4.1082050781e+003,4.0589743652e+003,4.1307690430e+003,4.2203847656e+003,4.0489743652e+003,4.1264101563e+003,4.1366665039e+003,4.1332050781e+003,4.1319228516e+003,4.0862819824e+003,4.1001284180e+003,4.1091025391e+003,4.0402563477e+003,4.0911538086e+003,
1.3984375000e+000,4.2335898438e+003,4.1939741211e+003,4.2519228516e+003,4.3284614258e+003,4.1994873047e+003,4.2323076172e+003,4.2448715820e+003,4.2426923828e+003,4.2430771484e+003,4.2058974609e+003,4.2178203125e+003,4.2216665039e+003,4.1647436523e+003,4.2124360352e+003,
1.4062500000e+000,4.3620512695e+003,4.3324360352e+003,4.3725639648e+003,4.4506411133e+003,4.3400000000e+003,4.3660258789e+003,4.3715385742e+003,4.3898715820e+003,4.3760258789e+003,4.3525639648e+003,4.3582050781e+003,4.3569228516e+003,4.3034614258e+003,4.3474360352e+003,
1.4140625000e+000,4.3505126953e+003,4.3241025391e+003,4.3634614258e+003,4.4433334961e+003,4.3352563477e+003,4.3588461914e+003,4.3650000000e+003,4.3852563477e+003,4.3696152344e+003,4.3444873047e+003,4.3465385742e+003,4.3470512695e+003,4.3003847656e+003,4.3378203125e+003,
1.4218750000e+000,4.3533334961e+003,4.3288461914e+003,4.3744873047e+003,4.4516665039e+003,4.3282050781e+003,4.3630771484e+003,4.3775639648e+003,4.3934614258e+003,4.3760258789e+003,4.3473076172e+003,4.3578203125e+003,4.3550000000e+003,4.3067949219e+003,4.3442309570e+003,
1.4296875000e+000,4.3752563477e+003,4.3552563477e+003,4.3943588867e+003,4.4523076172e+003,4.3501284180e+003,4.3967949219e+003,4.4043588867e+003,4.4152563477e+003,4.3911538086e+003,4.3787177734e+003,4.3847436523e+003,4.3829487305e+003,4.3167949219e+003,4.3679487305e+003,
1.4375000000e+000,4.3564101563e+003,4.3338461914e+003,4.3767949219e+003,4.4334614258e+003,4.3288461914e+003,4.3782050781e+003,4.3848715820e+003,4.3919228516e+003,4.3669228516e+003,4.3525639648e+003,4.3625639648e+003,4.3614101563e+003,4.2915385742e+003,4.3442309570e+003,
1.4453125000e+000,4.3650000000e+003,4.3442309570e+003,4.3883334961e+003,4.4508974609e+003,4.3323076172e+003,4.3837177734e+003,4.3912822266e+003,4.3910258789e+003,4.3720512695e+003,4.3516665039e+003,4.3685898438e+003,4.3678203125e+003,4.2947436523e+003,4.3478203125e+003,
1.4531250000e+000,4.3761538086e+003,4.3583334961e+003,4.4010258789e+003,4.4639741211e+003,4.3412822266e+003,4.3943588867e+003,4.4021796875e+003,4.4008974609e+003,4.3869228516e+003,4.3666665039e+003,4.3796152344e+003,4.3807690430e+003,4.3096152344e+003,4.3625639648e+003,
1.4609375000e+000,4.3474360352e+003,4.3176923828e+003,4.3776923828e+003,4.4230771484e+003,4.3052563477e+003,4.3612822266e+003,4.3688461914e+003,4.3697436523e+003,4.3598715820e+003,4.3437177734e+003,4.3424360352e+003,4.3505126953e+003,4.2860258789e+003,4.3401284180e+003,
1.4687500000e+000,4.3426923828e+003,4.3092309570e+003,4.3706411133e+003,4.4165385742e+003,4.3084614258e+003,4.3517949219e+003,4.3587177734e+003,4.3614101563e+003,4.3492309570e+003,4.3326923828e+003,4.3376923828e+003,4.3424360352e+003,4.2771796875e+003,4.3306411133e+003,
1.4765625000e+000,4.3541025391e+003,4.3316665039e+003,4.3737177734e+003,4.4280771484e+003,4.3366665039e+003,4.3538461914e+003,4.3632050781e+003,4.3715385742e+003,4.3560258789e+003,4.3366665039e+003,4.3612822266e+003,4.3541025391e+003,4.2826923828e+003,4.3370512695e+003,
1.4843750000e+000,4.3589741211e+003,4.3441025391e+003,4.3766665039e+003,4.4303847656e+003,4.3373076172e+003,4.3573076172e+003,4.3689741211e+003,4.3808974609e+003,4.3671796875e+003,4.3458974609e+003,4.3712822266e+003,4.3614101563e+003,4.2880771484e+003,4.3435898438e+003,
1.4921875000e+000,4.3121796875e+003,4.2912822266e+003,4.3339741211e+003,4.3829487305e+003,4.2656411133e+003,4.3197436523e+003,4.3287177734e+003,4.3515385742e+003,4.3439741211e+003,4.3255126953e+003,4.3111538086e+003,4.3169228516e+003,4.2546152344e+003,4.3014101563e+003,
1.5000000000e+000,4.2774360352e+003,4.2516665039e+003,4.2987177734e+003,4.3546152344e+003,4.2374360352e+003,4.2853847656e+003,4.2929487305e+003,4.3157690430e+003,4.3057690430e+003,4.2912822266e+003,4.2719228516e+003,4.2810258789e+003,4.2226923828e+003,4.2664101563e+003,
1.5078125000e+000,4.2516665039e+003,4.2244873047e+003,4.2711538086e+003,4.3343588867e+003,4.2223076172e+003,4.2567949219e+003,4.2650000000e+003,4.2847436523e+003,4.2724360352e+003,4.2600000000e+003,4.2460258789e+003,4.2525639648e+003,4.1956411133e+003,4.2398715820e+003,
1.5156250000e+000,4.2438461914e+003,4.2183334961e+003,4.2620512695e+003,4.3273076172e+003,4.2219228516e+003,4.2450000000e+003,4.2555126953e+003,4.2712822266e+003,4.2580771484e+003,4.2442309570e+003,4.2414101563e+003,4.2415385742e+003,4.1826923828e+003,4.2311538086e+003,
1.5234375000e+000,4.2087177734e+003,4.1844873047e+003,4.2366665039e+003,4.2856411133e+003,4.1728203125e+003,4.2242309570e+003,4.2344873047e+003,4.2411538086e+003,4.2276923828e+003,4.1976923828e+003,4.2028203125e+003,4.2110258789e+003,4.1393588867e+003,4.2000000000e+003,
1.5312500000e+000,4.1874360352e+003,4.1597436523e+003,4.2134614258e+003,4.2747436523e+003,4.1565385742e+003,4.2060258789e+003,4.2148715820e+003,4.2189741211e+003,4.2048715820e+003,4.1764101563e+003,4.1767949219e+003,4.1879487305e+003,4.1211538086e+003,4.1785898438e+003,
1.5390625000e+000,4.1888461914e+003,4.1603847656e+003,4.2043588867e+003,4.2953847656e+003,4.1506411133e+003,4.2015385742e+003,4.2123076172e+003,4.2137177734e+003,4.2003847656e+003,4.1714101563e+003,4.1758974609e+003,4.1787177734e+003,4.1223076172e+003,4.1730771484e+003,
1.5468750000e+000,4.1285898438e+003,4.1014101563e+003,4.1443588867e+003,4.2229487305e+003,4.0801281738e+003,4.1401284180e+003,4.1491025391e+003,4.1485898438e+003,4.1406411133e+003,4.1019228516e+003,4.1057690430e+003,4.1232050781e+003,4.0574357910e+003,4.1084614258e+003,
1.5546875000e+000,4.0857692871e+003,4.0560256348e+003,4.1002563477e+003,4.1800000000e+003,4.0488461914e+003,4.0983334961e+003,4.1074360352e+003,4.1047436523e+003,4.0983334961e+003,4.0603845215e+003,4.0616667480e+003,4.0788461914e+003,4.0157692871e+003,4.0639743652e+003,
1.5625000000e+000,4.0746154785e+003,4.0424357910e+003,4.0785898438e+003,4.1596152344e+003,4.0512819824e+003,4.0860256348e+003,4.1003847656e+003,4.0898718262e+003,4.0871794434e+003,4.0521794434e+003,4.0453845215e+003,4.0532050781e+003,4.0153845215e+003,4.0429487305e+003,
1.5703125000e+000,4.1464101563e+003,4.1097436523e+003,4.1438461914e+003,4.2223076172e+003,4.0952563477e+003,4.1519228516e+003,4.1598715820e+003,4.1575639648e+003,4.1596152344e+003,4.1187177734e+003,4.1221796875e+003,4.1235898438e+003,4.0824357910e+003,4.1051284180e+003,
1.5781250000e+000,4.1435898438e+003,4.1024360352e+003,4.1417949219e+003,4.2210258789e+003,4.0883332520e+003,4.1461538086e+003,4.1511538086e+003,4.1516665039e+003,4.1544873047e+003,4.1137177734e+003,4.1183334961e+003,4.1193588867e+003,4.0751281738e+003,4.0996152344e+003,
1.5859375000e+000,4.1219228516e+003,4.0858974609e+003,4.1143588867e+003,4.1801284180e+003,4.0816667480e+003,4.1188461914e+003,4.1191025391e+003,4.1267949219e+003,4.1252563477e+003,4.0923076172e+003,4.0888461914e+003,4.0950000000e+003,4.0607692871e+003,4.0797436523e+003,
1.5937500000e+000,4.1214101563e+003,4.0851281738e+003,4.1120512695e+003,4.1728203125e+003,4.0851281738e+003,4.1180771484e+003,4.1178203125e+003,4.1258974609e+003,4.1233334961e+003,4.0898718262e+003,4.0855129395e+003,4.0987177734e+003,4.0628205566e+003,4.0819230957e+003,
1.6015625000e+000,4.1564101563e+003,4.1129487305e+003,4.1448715820e+003,4.2102563477e+003,4.1178203125e+003,4.1483334961e+003,4.1456411133e+003,4.1534614258e+003,4.1510258789e+003,4.1187177734e+003,4.1184614258e+003,4.1365385742e+003,4.0980771484e+003,4.1161538086e+003,
1.6093750000e+000,4.1858974609e+003,4.1425639648e+003,4.1725639648e+003,4.2451284180e+003,4.1441025391e+003,4.1741025391e+003,4.1700000000e+003,4.1776923828e+003,4.1761538086e+003,4.1497436523e+003,4.1500000000e+003,4.1615385742e+003,4.1285898438e+003,4.1420512695e+003,
1.6171875000e+000,4.2215385742e+003,4.1933334961e+003,4.2100000000e+003,4.2791025391e+003,4.1858974609e+003,4.2114101563e+003,4.2124360352e+003,4.2114101563e+003,4.2073076172e+003,4.2024360352e+003,4.1916665039e+003,4.1948715820e+003,4.1679487305e+003,4.1746152344e+003,
1.6250000000e+000,4.2243588867e+003,4.1975639648e+003,4.2134614258e+003,4.2728203125e+003,4.1915385742e+003,4.2191025391e+003,4.2221796875e+003,4.2184614258e+003,4.2112822266e+003,4.2062822266e+003,4.1944873047e+003,4.2038461914e+003,4.1692309570e+003,4.1810258789e+003,
1.6328125000e+000,4.2274360352e+003,4.1993588867e+003,4.2157690430e+003,4.2675639648e+003,4.1914101563e+003,4.2267949219e+003,4.2298715820e+003,4.2267949219e+003,4.2167949219e+003,4.2083334961e+003,4.1974360352e+003,4.2123076172e+003,4.1708974609e+003,4.1878203125e+003,
1.6406250000e+000,4.2221796875e+003,4.1907690430e+003,4.2100000000e+003,4.2588461914e+003,4.1757690430e+003,4.2234614258e+003,4.2258974609e+003,4.2257690430e+003,4.2141025391e+003,4.2016665039e+003,4.1917949219e+003,4.2097436523e+003,4.1648715820e+003,4.1851284180e+003,
1.6484375000e+000,4.1526923828e+003,4.1158974609e+003,4.1498715820e+003,4.2057690430e+003,4.0983334961e+003,4.1456411133e+003,4.1578203125e+003,4.1500000000e+003,4.1441025391e+003,4.1301284180e+003,4.1237177734e+003,4.1348715820e+003,4.0882050781e+003,4.1085898438e+003,
1.6562500000e+000,4.1625639648e+003,4.1275639648e+003,4.1564101563e+003,4.2076923828e+003,4.1215385742e+003,4.1569228516e+003,4.1674360352e+003,4.1614101563e+003,4.1566665039e+003,4.1426923828e+003,4.1332050781e+003,4.1447436523e+003,4.0961538086e+003,4.1170512695e+003,
1.6640625000e+000,4.1335898438e+003,4.0952563477e+003,4.1225639648e+003,4.1525639648e+003,4.0887180176e+003,4.1287177734e+003,4.1325639648e+003,4.1424360352e+003,4.1366665039e+003,4.1151284180e+003,4.0956411133e+003,4.1139741211e+003,4.0661538086e+003,4.0937180176e+003,
1.6718750000e+000,4.0828205566e+003,4.0466667480e+003,4.0730769043e+003,4.1269228516e+003,4.0353845215e+003,4.0711538086e+003,4.0751281738e+003,4.0838461914e+003,4.0837180176e+003,4.0639743652e+003,4.0447436523e+003,4.0596154785e+003,4.0133332520e+003,4.0373076172e+003,
1.6796875000e+000,4.0680769043e+003,4.0325642090e+003,4.0565385742e+003,4.1120512695e+003,4.0233332520e+003,4.0560256348e+003,4.0573076172e+003,4.0670512695e+003,4.0667949219e+003,4.0473076172e+003,4.0311538086e+003,4.0441025391e+003,3.9939743652e+003,4.0196154785e+003,
1.6875000000e+000,4.0369230957e+003,3.9874357910e+003,4.0273076172e+003,4.0534614258e+003,3.9783332520e+003,4.0089743652e+003,4.0198718262e+003,4.0312819824e+003,4.0282050781e+003,4.0019230957e+003,3.9941025391e+003,4.0073076172e+003,3.9514101563e+003,3.9848718262e+003,
1.6953125000e+000,4.0344870605e+003,3.9783332520e+003,4.0230769043e+003,4.0562819824e+003,3.9703845215e+003,3.9948718262e+003,4.0098718262e+003,4.0105129395e+003,4.0083332520e+003,3.9924357910e+003,3.9798718262e+003,4.0148718262e+003,3.9391025391e+003,3.9784614258e+003,
1.7031250000e+000,4.0296154785e+003,3.9721794434e+003,4.0152563477e+003,4.0479487305e+003,3.9648718262e+003,3.9906411133e+003,4.0005129395e+003,3.9979487305e+003,3.9964101563e+003,3.9858974609e+003,3.9720512695e+003,4.0058974609e+003,3.9306411133e+003,3.9705129395e+003,
1.7109375000e+000,3.9989743652e+003,3.9339743652e+003,3.9810256348e+003,4.0043588867e+003,3.9239743652e+003,3.9708974609e+003,3.9823076172e+003,3.9660256348e+003,3.9628205566e+003,3.9503845215e+003,3.9452563477e+003,3.9619230957e+003,3.9050000000e+003,3.9426923828e+003,
1.7187500000e+000,3.9882050781e+003,3.9193588867e+003,3.9687180176e+003,3.9921794434e+003,3.9043588867e+003,3.9642307129e+003,3.9785898438e+003,3.9594870605e+003,3.9544870605e+003,3.9378205566e+003,3.9325642090e+003,3.9517949219e+003,3.8948718262e+003,3.9341025391e+003,
1.7265625000e+000,3.9882050781e+003,3.9091025391e+003,3.9617949219e+003,3.9834614258e+003,3.9005129395e+003,3.9676923828e+003,3.9807692871e+003,3.9628205566e+003,3.9598718262e+003,3.9384614258e+003,3.9244870605e+003,3.9521794434e+003,3.8848718262e+003,3.9319230957e+003,
1.7343750000e+000,4.0094870605e+003,3.9257692871e+003,3.9801281738e+003,3.9973076172e+003,3.9332050781e+003,3.9874357910e+003,3.9989743652e+003,3.9832050781e+003,3.9835898438e+003,3.9603845215e+003,3.9439743652e+003,3.9721794434e+003,3.8996154785e+003,3.9508974609e+003,
1.7421875000e+000,4.0450000000e+003,3.9589743652e+003,4.0143588867e+003,4.0278205566e+003,3.9832050781e+003,4.0203845215e+003,4.0315385742e+003,4.0187180176e+003,4.0215385742e+003,3.9962819824e+003,3.9801281738e+003,4.0071794434e+003,3.9310256348e+003,3.9853845215e+003,
1.7500000000e+000,4.1034614258e+003,4.0219230957e+003,4.0719230957e+003,4.0919230957e+003,4.0489743652e+003,4.0765385742e+003,4.0870512695e+003,4.0857692871e+003,4.0862819824e+003,4.0587180176e+003,4.0407692871e+003,4.0678205566e+003,3.9896154785e+003,4.0428205566e+003,
1.7578125000e+000,4.0902563477e+003,4.0119230957e+003,4.0576923828e+003,4.0850000000e+003,4.0275642090e+003,4.0635898438e+003,4.0728205566e+003,4.0791025391e+003,4.0762819824e+003,4.0489743652e+003,4.0262819824e+003,4.0550000000e+003,3.9771794434e+003,4.0271794434e+003,
1.7656250000e+000,4.0421794434e+003,3.9634614258e+003,4.0091025391e+003,4.0401281738e+003,3.9712819824e+003,4.0144870605e+003,4.0229487305e+003,4.0348718262e+003,4.0305129395e+003,4.0026923828e+003,3.9750000000e+003,4.0046154785e+003,3.9278205566e+003,3.9755129395e+003,
1.7734375000e+000,3.8824357910e+003,3.7857692871e+003,3.8434614258e+003,3.8885898438e+003,3.7870512695e+003,3.8416667480e+003,3.8541025391e+003,3.8575642090e+003,3.8698718262e+003,3.8298718262e+003,3.8044870605e+003,3.8302563477e+003,3.7506411133e+003,3.8093588867e+003,
1.7812500000e+000,3.8976923828e+003,3.8056411133e+003,3.8564101563e+003,3.9056411133e+003,3.8003845215e+003,3.8567949219e+003,3.8694870605e+003,3.8734614258e+003,3.8824357910e+003,3.8446154785e+003,3.8183332520e+003,3.8496154785e+003,3.7634614258e+003,3.8241025391e+003,
1.7890625000e+000,3.9767949219e+003,3.8876923828e+003,3.9330769043e+003,3.9656411133e+003,3.9056411133e+003,3.9200000000e+003,3.9352563477e+003,3.9351281738e+003,3.9387180176e+003,3.9161538086e+003,3.8979487305e+003,3.9215385742e+003,3.8403845215e+003,3.8944870605e+003,
1.7968750000e+000,4.0493588867e+003,3.9579487305e+003,4.0064101563e+003,4.0183332520e+003,3.9402563477e+003,3.9860256348e+003,4.0050000000e+003,3.9853845215e+003,3.9847436523e+003,3.9792307129e+003,3.9676923828e+003,3.9838461914e+003,3.9180769043e+003,3.9612819824e+003,
1.8046875000e+000,4.0982050781e+003,4.0094870605e+003,4.0542307129e+003,4.0657692871e+003,3.9888461914e+003,4.0360256348e+003,4.0539743652e+003,4.0310256348e+003,4.0279487305e+003,4.0265385742e+003,4.0160256348e+003,4.0339743652e+003,3.9639743652e+003,4.0093588867e+003,
1.8125000000e+000,4.2567949219e+003,4.1803847656e+003,4.2116665039e+003,4.2244873047e+003,4.1979487305e+003,4.2021796875e+003,4.2110258789e+003,4.1969228516e+003,4.1934614258e+003,4.1976923828e+003,4.1803847656e+003,4.2039741211e+003,4.1256411133e+003,4.1711538086e+003,
1.8203125000e+000,4.2424360352e+003,4.1711538086e+003,4.2071796875e+003,4.2156411133e+003,4.1879487305e+003,4.2106411133e+003,4.2214101563e+003,4.2101284180e+003,4.2066665039e+003,4.2071796875e+003,4.1894873047e+003,4.2047436523e+003,4.1293588867e+003,4.1684614258e+003,
1.8281250000e+000,4.2398715820e+003,4.1744873047e+003,4.2056411133e+003,4.2183334961e+003,4.1888461914e+003,4.2156411133e+003,4.2257690430e+003,4.2187177734e+003,4.2152563477e+003,4.2143588867e+003,4.1957690430e+003,4.2052563477e+003,4.1316665039e+003,4.1689741211e+003,
1.8359375000e+000,4.2283334961e+003,4.1766665039e+003,4.1994873047e+003,4.2119228516e+003,4.1912822266e+003,4.2148715820e+003,4.2216665039e+003,4.2283334961e+003,4.2210258789e+003,4.2224360352e+003,4.1916665039e+003,4.1980771484e+003,4.1275639648e+003,4.1612822266e+003,
1.8437500000e+000,4.2210258789e+003,4.1674360352e+003,4.1938461914e+003,4.2033334961e+003,4.1830771484e+003,4.2082050781e+003,4.2143588867e+003,4.2250000000e+003,4.2139741211e+003,4.2152563477e+003,4.1825639648e+003,4.1894873047e+003,4.1198715820e+003,4.1529487305e+003,
1.8515625000e+000,4.1948715820e+003,4.1374360352e+003,4.1703847656e+003,4.1833334961e+003,4.1512822266e+003,4.1858974609e+003,4.1916665039e+003,4.2064101563e+003,4.1926923828e+003,4.1879487305e+003,4.1515385742e+003,4.1633334961e+003,4.0932050781e+003,4.1256411133e+003,
1.8593750000e+000,4.1796152344e+003,4.1248715820e+003,4.1564101563e+003,4.1719228516e+003,4.1329487305e+003,4.1726923828e+003,4.1792309570e+003,4.1926923828e+003,4.1821796875e+003,4.1738461914e+003,4.1342309570e+003,4.1502563477e+003,4.0785898438e+003,4.1117949219e+003,
1.8671875000e+000,4.1702563477e+003,4.1215385742e+003,4.1485898438e+003,4.1628203125e+003,4.1214101563e+003,4.1642309570e+003,4.1716665039e+003,4.1828203125e+003,4.1765385742e+003,4.1680771484e+003,4.1264101563e+003,4.1435898438e+003,4.0705129395e+003,4.1055126953e+003,
1.8750000000e+000,4.1583334961e+003,4.1196152344e+003,4.1415385742e+003,4.1421796875e+003,4.1141025391e+003,4.1507690430e+003,4.1584614258e+003,4.1680771484e+003,4.1625639648e+003,4.1635898438e+003,4.1297436523e+003,4.1344873047e+003,4.0611538086e+003,4.0996152344e+003,
1.8828125000e+000,4.1410258789e+003,4.1000000000e+003,4.1257690430e+003,4.1214101563e+003,4.1044873047e+003,4.1317949219e+003,4.1383334961e+003,4.1478203125e+003,4.1387177734e+003,4.1433334961e+003,4.1160258789e+003,4.1150000000e+003,4.0430769043e+003,4.0816667480e+003,
1.8906250000e+000,4.1191025391e+003,4.0711538086e+003,4.1033334961e+003,4.0982050781e+003,4.0893588867e+003,4.1073076172e+003,4.1124360352e+003,4.1205126953e+003,4.1092309570e+003,4.1128203125e+003,4.0883332520e+003,4.0876923828e+003,4.0191025391e+003,4.0556411133e+003,
1.8984375000e+000,4.2216665039e+003,4.1808974609e+003,4.2042309570e+003,4.2114101563e+003,4.1619228516e+003,4.1889741211e+003,4.2047436523e+003,4.1926923828e+003,4.1867949219e+003,4.2008974609e+003,4.1811538086e+003,4.1928203125e+003,4.1216665039e+003,4.1582050781e+003,
1.9062500000e+000,4.2857690430e+003,4.2508974609e+003,4.2674360352e+003,4.2756411133e+003,4.2374360352e+003,4.2502563477e+003,4.2643588867e+003,4.2510258789e+003,4.2403847656e+003,4.2633334961e+003,4.2487177734e+003,4.2612822266e+003,4.1858974609e+003,4.2246152344e+003,
1.9140625000e+000,4.4487177734e+003,4.4175639648e+003,4.4317949219e+003,4.4232050781e+003,4.4388461914e+003,4.4180771484e+003,4.4170512695e+003,4.4160258789e+003,4.4064101563e+003,4.4403847656e+003,4.4152563477e+003,4.4252563477e+003,4.3565385742e+003,4.3826923828e+003,
1.9218750000e+000,4.2779487305e+003,4.2491025391e+003,4.2787177734e+003,4.2648715820e+003,4.2560258789e+003,4.2712822266e+003,4.2724360352e+003,4.2748715820e+003,4.2701284180e+003,4.2923076172e+003,4.2676923828e+003,4.2626923828e+003,4.1941025391e+003,4.2265385742e+003,
1.9296875000e+000,4.2197436523e+003,4.1907690430e+003,4.2207690430e+003,4.2123076172e+003,4.1961538086e+003,4.2180771484e+003,4.2232050781e+003,4.2211538086e+003,4.2142309570e+003,4.2344873047e+003,4.2103847656e+003,4.2047436523e+003,4.1371796875e+003,4.1706411133e+003,
1.9375000000e+000,4.2465385742e+003,4.2132050781e+003,4.2439741211e+003,4.2237177734e+003,4.2285898438e+003,4.2425639648e+003,4.2512822266e+003,4.2526923828e+003,4.2437177734e+003,4.2596152344e+003,4.2232050781e+003,4.2293588867e+003,4.1685898438e+003,4.1973076172e+003,
1.9453125000e+000,4.1737177734e+003,4.1430771484e+003,4.1714101563e+003,4.1782050781e+003,4.1469228516e+003,4.1782050781e+003,4.1776923828e+003,4.1948715820e+003,4.1900000000e+003,4.1966665039e+003,4.1573076172e+003,4.1594873047e+003,4.0948718262e+003,4.1282050781e+003,
1.9531250000e+000,4.1106411133e+003,4.0802563477e+003,4.1091025391e+003,4.1302563477e+003,4.0811538086e+003,4.1183334961e+003,4.1202563477e+003,4.1339741211e+003,4.1273076172e+003,4.1316665039e+003,4.0960258789e+003,4.0973076172e+003,4.0283332520e+003,4.0661538086e+003,
1.9609375000e+000,4.0660256348e+003,4.0360256348e+003,4.0651281738e+003,4.0911538086e+003,4.0402563477e+003,4.0733332520e+003,4.0805129395e+003,4.0888461914e+003,4.0810256348e+003,4.0824357910e+003,4.0500000000e+003,4.0521794434e+003,3.9808974609e+003,4.0215385742e+003,
1.9687500000e+000,4.0374357910e+003,4.0084614258e+003,4.0357692871e+003,4.0501281738e+003,4.0276923828e+003,4.0400000000e+003,4.0550000000e+003,4.0600000000e+003,4.0543588867e+003,4.0497436523e+003,4.0147436523e+003,4.0220512695e+003,3.9523076172e+003,3.9946154785e+003,
1.9765625000e+000,4.0274357910e+003,3.9964101563e+003,4.0239743652e+003,4.0351281738e+003,4.0132050781e+003,4.0294870605e+003,4.0442307129e+003,4.0515385742e+003,4.0471794434e+003,4.0416667480e+003,4.0033332520e+003,4.0128205566e+003,3.9428205566e+003,3.9874357910e+003,
1.9843750000e+000,4.0065385742e+003,3.9639743652e+003,3.9967949219e+003,4.0188461914e+003,3.9529487305e+003,4.0069230957e+003,4.0179487305e+003,4.0279487305e+003,4.0250000000e+003,4.0212819824e+003,3.9821794434e+003,3.9902563477e+003,3.9175642090e+003,3.9694870605e+003,
1.9921875000e+000,4.0093588867e+003,3.9623076172e+003,3.9971794434e+003,4.0246154785e+003,3.9451281738e+003,4.0069230957e+003,4.0174357910e+003,4.0257692871e+003,4.0241025391e+003,4.0207692871e+003,3.9825642090e+003,3.9894870605e+003,3.9170512695e+003,3.9701281738e+003,
2.0000000000e+000,4.0097436523e+003,3.9635898438e+003,4.0010256348e+003,4.0220512695e+003,3.9987180176e+003,3.9976923828e+003,4.0144870605e+003,4.0088461914e+003,4.0080769043e+003,4.0080769043e+003,3.9719230957e+003,3.9934614258e+003,3.9137180176e+003,3.9683332520e+003,
2.0078125000e+000,4.0070512695e+003,3.9569230957e+003,3.9975642090e+003,4.0182050781e+003,4.0029487305e+003,3.9902563477e+003,4.0088461914e+003,3.9978205566e+003,3.9958974609e+003,4.0020512695e+003,3.9685898438e+003,3.9925642090e+003,3.9091025391e+003,3.9660256348e+003,
2.0156250000e+000,4.0203845215e+003,3.9635898438e+003,4.0073076172e+003,4.0301281738e+003,4.0056411133e+003,3.9985898438e+003,4.0173076172e+003,4.0030769043e+003,4.0003845215e+003,4.0141025391e+003,3.9824357910e+003,4.0032050781e+003,3.9201281738e+003,3.9776923828e+003,
2.0234375000e+000,4.0482050781e+003,3.9860256348e+003,4.0310256348e+003,4.0555129395e+003,4.0142307129e+003,4.0230769043e+003,4.0402563477e+003,4.0257692871e+003,4.0235898438e+003,4.0430769043e+003,4.0106411133e+003,4.0248718262e+003,3.9466667480e+003,4.0021794434e+003,
2.0312500000e+000,4.0596154785e+003,4.0079487305e+003,4.0424357910e+003,4.0710256348e+003,4.0247436523e+003,4.0348718262e+003,4.0515385742e+003,4.0369230957e+003,4.0456411133e+003,4.0560256348e+003,4.0256411133e+003,4.0325642090e+003,3.9675642090e+003,4.0164101563e+003,
2.0390625000e+000,3.9758974609e+003,3.9121794434e+003,3.9600000000e+003,3.9817949219e+003,3.9205129395e+003,3.9583332520e+003,3.9706411133e+003,3.9651281738e+003,3.9669230957e+003,3.9764101563e+003,3.9417949219e+003,3.9598718262e+003,3.8755129395e+003,3.9410256348e+003,
2.0468750000e+000,3.9688461914e+003,3.9071794434e+003,3.9558974609e+003,3.9705129395e+003,3.9152563477e+003,3.9534614258e+003,3.9683332520e+003,3.9650000000e+003,3.9660256348e+003,3.9678205566e+003,3.9348718262e+003,3.9520512695e+003,3.8694870605e+003,3.9333332520e+003,
2.0546875000e+000,3.9660256348e+003,3.9103845215e+003,3.9538461914e+003,3.9661538086e+003,3.9247436523e+003,3.9488461914e+003,3.9689743652e+003,3.9726923828e+003,3.9728205566e+003,3.9693588867e+003,3.9373076172e+003,3.9503845215e+003,3.8710256348e+003,3.9307692871e+003,
2.0625000000e+000,4.0674357910e+003,4.0062819824e+003,4.0501281738e+003,4.0558974609e+003,4.0224357910e+003,4.0488461914e+003,4.0628205566e+003,4.0708974609e+003,4.0628205566e+003,4.0693588867e+003,4.0302563477e+003,4.0407692871e+003,3.9643588867e+003,4.0202563477e+003,
2.0703125000e+000,4.1067949219e+003,4.0508974609e+003,4.0920512695e+003,4.0987177734e+003,4.0524357910e+003,4.0897436523e+003,4.1039741211e+003,4.1126923828e+003,4.1044873047e+003,4.1091025391e+003,4.0651281738e+003,4.0774357910e+003,4.0067949219e+003,4.0593588867e+003,
2.0781250000e+000,4.1324360352e+003,4.0800000000e+003,4.1246152344e+003,4.1343588867e+003,4.0755129395e+003,4.1107690430e+003,4.1296152344e+003,4.1387177734e+003,4.1311538086e+003,4.1394873047e+003,4.0894870605e+003,4.1065385742e+003,4.0348718262e+003,4.0888461914e+003,
2.0859375000e+000,4.1215385742e+003,4.0665385742e+003,4.1132050781e+003,4.1258974609e+003,4.0741025391e+003,4.0950000000e+003,4.1155126953e+003,4.1237177734e+003,4.1153847656e+003,4.1302563477e+003,4.0828205566e+003,4.0992309570e+003,4.0215385742e+003,4.0791025391e+003,
2.0937500000e+000,4.0562819824e+003,4.0010256348e+003,4.0398718262e+003,4.0626923828e+003,4.0273076172e+003,4.0303845215e+003,4.0484614258e+003,4.0461538086e+003,4.0382050781e+003,4.0551281738e+003,4.0293588867e+003,4.0405129395e+003,3.9480769043e+003,4.0191025391e+003,
2.1015625000e+000,4.0808974609e+003,4.0291025391e+003,4.0679487305e+003,4.0787180176e+003,4.0460256348e+003,4.0606411133e+003,4.0702563477e+003,4.0544870605e+003,4.0548718262e+003,4.0732050781e+003,4.0401281738e+003,4.0562819824e+003,3.9665385742e+003,4.0415385742e+003,
2.1093750000e+000,4.1107690430e+003,4.0601281738e+003,4.0960258789e+003,4.1029487305e+003,4.0803845215e+003,4.0896154785e+003,4.0974360352e+003,4.0803845215e+003,4.0825642090e+003,4.1084614258e+003,4.0696154785e+003,4.0851281738e+003,3.9969230957e+003,4.0685898438e+003,
2.1171875000e+000,4.1285898438e+003,4.0783332520e+003,4.1129487305e+003,4.1155126953e+003,4.1015385742e+003,4.1069228516e+003,4.1147436523e+003,4.0974360352e+003,4.1010258789e+003,4.1324360352e+003,4.0900000000e+003,4.1048715820e+003,4.0173076172e+003,4.0856411133e+003,
2.1250000000e+000,4.1094873047e+003,4.0551281738e+003,4.1007690430e+003,4.0888461914e+003,4.0737180176e+003,4.0878205566e+003,4.0989741211e+003,4.0846154785e+003,4.0893588867e+003,4.1189741211e+003,4.0793588867e+003,4.0894870605e+003,4.0046154785e+003,4.0696154785e+003,
2.1328125000e+000,4.0833332520e+003,4.0250000000e+003,4.0791025391e+003,4.0601281738e+003,4.0401281738e+003,4.0607692871e+003,4.0732050781e+003,4.0620512695e+003,4.0670512695e+003,4.0911538086e+003,4.0560256348e+003,4.0621794434e+003,3.9791025391e+003,4.0437180176e+003,
2.1406250000e+000,4.0557692871e+003,3.9946154785e+003,4.0537180176e+003,4.0314101563e+003,4.0102563477e+003,4.0319230957e+003,4.0462819824e+003,4.0369230957e+003,4.0423076172e+003,4.0608974609e+003,4.0288461914e+003,4.0339743652e+003,3.9491025391e+003,4.0157692871e+003,
2.1484375000e+000,4.0343588867e+003,3.9730769043e+003,4.0316667480e+003,4.0101281738e+003,3.9929487305e+003,4.0098718262e+003,4.0279487305e+003,4.0173076172e+003,4.0233332520e+003,4.0371794434e+003,4.0056411133e+003,4.0144870605e+003,3.9234614258e+003,3.9946154785e+003,
2.1562500000e+000,4.0700000000e+003,4.0125642090e+003,4.0579487305e+003,4.0403845215e+003,4.0324357910e+003,4.0511538086e+003,4.0814101563e+003,4.0674357910e+003,4.0720512695e+003,4.0787180176e+003,4.0469230957e+003,4.0553845215e+003,3.9616667480e+003,4.0358974609e+003,
2.1640625000e+000,4.0407692871e+003,3.9857692871e+003,4.0303845215e+003,4.0252563477e+003,4.0067949219e+003,4.0258974609e+003,4.0551281738e+003,4.0538461914e+003,4.0469230957e+003,4.0511538086e+003,4.0000000000e+003,4.0169230957e+003,3.9380769043e+003,4.0026923828e+003,
2.1718750000e+000,4.0470512695e+003,3.9933332520e+003,4.0375642090e+003,4.0333332520e+003,4.0043588867e+003,4.0317949219e+003,4.0621794434e+003,4.0600000000e+003,4.0537180176e+003,4.0607692871e+003,4.0135898438e+003,4.0239743652e+003,3.9476923828e+003,4.0096154785e+003,
2.1796875000e+000,4.0588461914e+003,4.0024357910e+003,4.0510256348e+003,4.0475642090e+003,4.0023076172e+003,4.0410256348e+003,4.0676923828e+003,4.0666667480e+003,4.0611538086e+003,4.0741025391e+003,4.0406411133e+003,4.0394870605e+003,3.9712819824e+003,4.0230769043e+003,
2.1875000000e+000,4.0366667480e+003,3.9897436523e+003,4.0269230957e+003,4.0269230957e+003,4.0275642090e+003,4.0329487305e+003,4.0507692871e+003,4.0337180176e+003,4.0260256348e+003,4.0457692871e+003,3.9988461914e+003,4.0178205566e+003,3.9546154785e+003,3.9965385742e+003,
2.1953125000e+000,4.0394870605e+003,3.9935898438e+003,4.0284614258e+003,4.0350000000e+003,4.0237180176e+003,4.0397436523e+003,4.0571794434e+003,4.0356411133e+003,4.0312819824e+003,4.0511538086e+003,4.0032050781e+003,4.0212819824e+003,3.9606411133e+003,4.0002563477e+003,
2.2031250000e+000,4.0476923828e+003,3.9998718262e+003,4.0319230957e+003,4.0560256348e+003,4.0156411133e+003,4.0482050781e+003,4.0612819824e+003,4.0450000000e+003,4.0475642090e+003,4.0679487305e+003,4.0196154785e+003,4.0310256348e+003,3.9796154785e+003,4.0110256348e+003,
2.2109375000e+000,4.0258974609e+003,3.9767949219e+003,4.0088461914e+003,4.0350000000e+003,3.9976923828e+003,4.0255129395e+003,4.0352563477e+003,4.0255129395e+003,4.0298718262e+003,4.0506411133e+003,4.0014101563e+003,4.0101281738e+003,3.9623076172e+003,3.9898718262e+003,
2.2187500000e+000,3.8610256348e+003,3.8030769043e+003,3.8496154785e+003,3.8503845215e+003,3.8416667480e+003,3.8560256348e+003,3.8706411133e+003,3.8565385742e+003,3.8633332520e+003,3.8734614258e+003,3.8371794434e+003,3.8498718262e+003,3.7982050781e+003,3.8271794434e+003,
2.2265625000e+000,3.8501281738e+003,3.7873076172e+003,3.8362819824e+003,3.8374357910e+003,3.8212819824e+003,3.8394870605e+003,3.8579487305e+003,3.8387180176e+003,3.8465385742e+003,3.8523076172e+003,3.8212819824e+003,3.8387180176e+003,3.7844870605e+003,3.8156411133e+003,
2.2343750000e+000,3.8920512695e+003,3.8206411133e+003,3.8680769043e+003,3.8856411133e+003,3.8465385742e+003,3.8698718262e+003,3.8892307129e+003,3.8728205566e+003,3.8807692871e+003,3.8866667480e+003,3.8539743652e+003,3.8810256348e+003,3.8197436523e+003,3.8535898438e+003,
2.2421875000e+000,3.8842307129e+003,3.8098718262e+003,3.8580769043e+003,3.8791025391e+003,3.8352563477e+003,3.8596154785e+003,3.8773076172e+003,3.8658974609e+003,3.8733332520e+003,3.8801281738e+003,3.8448718262e+003,3.8746154785e+003,3.8092307129e+003,3.8448718262e+003,
2.2500000000e+000,3.8757692871e+003,3.8048718262e+003,3.8508974609e+003,3.8538461914e+003,3.8214101563e+003,3.8532050781e+003,3.8734614258e+003,3.8616667480e+003,3.8674357910e+003,3.8684614258e+003,3.8323076172e+003,3.8576923828e+003,3.8058974609e+003,3.8353845215e+003,
2.2578125000e+000,4.0071794434e+003,3.9417949219e+003,3.9787180176e+003,3.9791025391e+003,3.9544870605e+003,3.9821794434e+003,4.0056411133e+003,3.9920512695e+003,3.9933332520e+003,3.9984614258e+003,3.9608974609e+003,3.9824357910e+003,3.9407692871e+003,3.9623076172e+003,
2.2656250000e+000,4.2069228516e+003,4.1478203125e+003,4.1725639648e+003,4.1744873047e+003,4.1607690430e+003,4.1760258789e+003,4.2010258789e+003,4.1893588867e+003,4.1839741211e+003,4.2001284180e+003,4.1602563477e+003,4.1756411133e+003,4.1416665039e+003,4.1556411133e+003,
2.2734375000e+000,4.4226923828e+003,4.3720512695e+003,4.3825639648e+003,4.3880771484e+003,4.3880771484e+003,4.3850000000e+003,4.4082050781e+003,4.4026923828e+003,4.3903847656e+003,4.4230771484e+003,4.3807690430e+003,4.3873076172e+003,4.3574360352e+003,4.3656411133e+003,
2.2812500000e+000,4.7484614258e+003,4.7510258789e+003,4.7239741211e+003,4.7206411133e+003,4.7351284180e+003,4.7188461914e+003,4.7253847656e+003,4.7430771484e+003,4.7239741211e+003,4.7955126953e+003,4.7596152344e+003,4.7430771484e+003,4.7038461914e+003,4.7064101563e+003,
2.2890625000e+000,4.7541025391e+003,4.7611538086e+003,4.7402563477e+003,4.7284614258e+003,4.7426923828e+003,4.7310258789e+003,4.7370512695e+003,4.7544873047e+003,4.7330771484e+003,4.8043588867e+003,4.7702563477e+003,4.7555126953e+003,4.7150000000e+003,4.7173076172e+003,
2.2968750000e+000,4.7908974609e+003,4.8056411133e+003,4.7903847656e+003,4.7767949219e+003,4.8253847656e+003,4.7892309570e+003,4.7861538086e+003,4.8043588867e+003,4.7792309570e+003,4.8607690430e+003,4.8134614258e+003,4.7964101563e+003,4.7642309570e+003,4.7597436523e+003,
2.3046875000e+000,4.8814101563e+003,4.9176923828e+003,4.8898715820e+003,4.8651284180e+003,4.9283334961e+003,4.8948715820e+003,4.8891025391e+003,4.8979487305e+003,4.8789741211e+003,4.9542309570e+003,4.9194873047e+003,4.8998715820e+003,4.8589741211e+003,4.8600000000e+003,
2.3125000000e+000,4.7728203125e+003,4.8302563477e+003,4.8169228516e+003,4.7962822266e+003,4.8205126953e+003,4.8062822266e+003,4.7967949219e+003,4.8230771484e+003,4.7982050781e+003,4.8921796875e+003,4.8450000000e+003,4.8347436523e+003,4.7782050781e+003,4.7807690430e+003,
2.3203125000e+000,4.5560258789e+003,4.6123076172e+003,4.6074360352e+003,4.5857690430e+003,4.6029487305e+003,4.5974360352e+003,4.5902563477e+003,4.6121796875e+003,4.5879487305e+003,4.6739741211e+003,4.6276923828e+003,4.6282050781e+003,4.5611538086e+003,4.5706411133e+003,
2.3281250000e+000,4.2648715820e+003,4.3047436523e+003,4.3200000000e+003,4.2901284180e+003,4.3069228516e+003,4.3107690430e+003,4.3146152344e+003,4.3184614258e+003,4.3025639648e+003,4.3523076172e+003,4.3260258789e+003,4.3341025391e+003,4.2516665039e+003,4.2824360352e+003,
2.3359375000e+000,4.2446152344e+003,4.2750000000e+003,4.2996152344e+003,4.2676923828e+003,4.2864101563e+003,4.2885898438e+003,4.2975639648e+003,4.2957690430e+003,4.2841025391e+003,4.3192309570e+003,4.2996152344e+003,4.3062822266e+003,4.2225639648e+003,4.2614101563e+003,
2.3437500000e+000,4.2384614258e+003,4.2679487305e+003,4.2911538086e+003,4.2650000000e+003,4.2903847656e+003,4.2821796875e+003,4.2966665039e+003,4.3037177734e+003,4.2933334961e+003,4.3260258789e+003,4.2875639648e+003,4.2946152344e+003,4.2246152344e+003,4.2551284180e+003,
2.3515625000e+000,4.1500000000e+003,4.1798715820e+003,4.2002563477e+003,4.1773076172e+003,4.2010258789e+003,4.1974360352e+003,4.2144873047e+003,4.2247436523e+003,4.2119228516e+003,4.2428203125e+003,4.1984614258e+003,4.2080771484e+003,4.1392309570e+003,4.1656411133e+003,
2.3593750000e+000,3.9444870605e+003,3.9579487305e+003,3.9893588867e+003,3.9771794434e+003,3.9706411133e+003,3.9951281738e+003,4.0188461914e+003,4.0247436523e+003,4.0096154785e+003,4.0220512695e+003,3.9776923828e+003,3.9971794434e+003,3.9166667480e+003,3.9535898438e+003,
2.3671875000e+000,3.8878205566e+003,3.8892307129e+003,3.9296154785e+003,3.9234614258e+003,3.8979487305e+003,3.9333332520e+003,3.9579487305e+003,3.9606411133e+003,3.9469230957e+003,3.9500000000e+003,3.9087180176e+003,3.9315385742e+003,3.8447436523e+003,3.8921794434e+003,
2.3750000000e+000,3.8812819824e+003,3.8694870605e+003,3.9129487305e+003,3.9144870605e+003,3.8987180176e+003,3.9012819824e+003,3.9253845215e+003,3.9242307129e+003,3.9164101563e+003,3.9167949219e+003,3.8817949219e+003,3.9029487305e+003,3.8162819824e+003,3.8757692871e+003,
2.3828125000e+000,3.8948718262e+003,3.8820512695e+003,3.9242307129e+003,3.9282050781e+003,3.9225642090e+003,3.9146154785e+003,3.9393588867e+003,3.9344870605e+003,3.9256411133e+003,3.9292307129e+003,3.8937180176e+003,3.9162819824e+003,3.8291025391e+003,3.8866667480e+003,
2.3906250000e+000,3.9150000000e+003,3.8994870605e+003,3.9425642090e+003,3.9511538086e+003,3.9444870605e+003,3.9391025391e+003,3.9630769043e+003,3.9547436523e+003,3.9439743652e+003,3.9506411133e+003,3.9125642090e+003,3.9367949219e+003,3.8487180176e+003,3.9030769043e+003,
2.3984375000e+000,3.9410256348e+003,3.9214101563e+003,3.9664101563e+003,3.9808974609e+003,3.9633332520e+003,3.9700000000e+003,3.9914101563e+003,3.9823076172e+003,3.9701281738e+003,3.9785898438e+003,3.9366667480e+003,3.9617949219e+003,3.8739743652e+003,3.9247436523e+003,
2.4062500000e+000,3.9379487305e+003,3.9135898438e+003,3.9516667480e+003,3.9641025391e+003,3.9429487305e+003,3.9537180176e+003,3.9705129395e+003,3.9673076172e+003,3.9628205566e+003,3.9662819824e+003,3.9266667480e+003,3.9480769043e+003,3.8619230957e+003,3.9206411133e+003,
2.4140625000e+000,3.9455129395e+003,3.9079487305e+003,3.9470512695e+003,3.9561538086e+003,3.9029487305e+003,3.9603845215e+003,3.9820512695e+003,3.9514101563e+003,3.9496154785e+003,3.9630769043e+003,3.9212819824e+003,3.9396154785e+003,3.8660256348e+003,3.9146154785e+003,
2.4218750000e+000,4.0214101563e+003,3.9811538086e+003,4.0187180176e+003,4.0284614258e+003,3.9861538086e+003,4.0330769043e+003,4.0555129395e+003,4.0247436523e+003,4.0256411133e+003,4.0410256348e+003,3.9966667480e+003,4.0116667480e+003,3.9474357910e+003,3.9879487305e+003,
2.4296875000e+000,4.1335898438e+003,4.0982050781e+003,4.1261538086e+003,4.1387177734e+003,4.1424360352e+003,4.1355126953e+003,4.1553847656e+003,4.1456411133e+003,4.1489741211e+003,4.1685898438e+003,4.1219228516e+003,4.1328203125e+003,4.0682050781e+003,4.1042309570e+003,
2.4375000000e+000,4.0098718262e+003,3.9693588867e+003,4.0132050781e+003,4.0192307129e+003,4.0073076172e+003,4.0070512695e+003,4.0323076172e+003,4.0425642090e+003,4.0393588867e+003,4.0543588867e+003,4.0070512695e+003,4.0119230957e+003,3.9450000000e+003,3.9733332520e+003,
2.4453125000e+000,3.9697436523e+003,3.9274357910e+003,3.9724357910e+003,3.9851281738e+003,3.9587180176e+003,3.9682050781e+003,3.9937180176e+003,4.0056411133e+003,4.0003845215e+003,4.0150000000e+003,3.9594870605e+003,3.9665385742e+003,3.9080769043e+003,3.9303845215e+003,
2.4531250000e+000,3.8005129395e+003,3.7550000000e+003,3.8010256348e+003,3.8243588867e+003,3.7820512695e+003,3.7953845215e+003,3.8206411133e+003,3.8358974609e+003,3.8291025391e+003,3.8361538086e+003,3.7832050781e+003,3.8029487305e+003,3.7265385742e+003,3.7657692871e+003,
2.4609375000e+000,3.7185898438e+003,3.6694870605e+003,3.7160256348e+003,3.7385898438e+003,3.6942307129e+003,3.7056411133e+003,3.7337180176e+003,3.7461538086e+003,3.7411538086e+003,3.7415385742e+003,3.6993588867e+003,3.7225642090e+003,3.6337180176e+003,3.6851281738e+003,
2.4687500000e+000,3.6948718262e+003,3.6425642090e+003,3.6869230957e+003,3.7067949219e+003,3.6637180176e+003,3.6733332520e+003,3.7055129395e+003,3.7120512695e+003,3.7103845215e+003,3.7056411133e+003,3.6714101563e+003,3.6944870605e+003,3.6057692871e+003,3.6587180176e+003,
2.4765625000e+000,3.7406411133e+003,3.6879487305e+003,3.7274357910e+003,3.7452563477e+003,3.7066667480e+003,3.7146154785e+003,3.7497436523e+003,3.7502563477e+003,3.7514101563e+003,3.7458974609e+003,3.7103845215e+003,3.7323076172e+003,3.6571794434e+003,3.6993588867e+003,
2.4843750000e+000,4.0366667480e+003,4.0002563477e+003,4.0194870605e+003,4.0694870605e+003,4.0196154785e+003,4.0334614258e+003,4.0497436523e+003,4.0482050781e+003,4.0424357910e+003,4.0626923828e+003,3.9971794434e+003,4.0211538086e+003,3.9689743652e+003,3.9914101563e+003,
2.4921875000e+000,4.0580769043e+003,4.0278205566e+003,4.0376923828e+003,4.0962822266e+003,4.0360256348e+003,4.0570512695e+003,4.0689743652e+003,4.0666667480e+003,4.0615385742e+003,4.0842307129e+003,4.0285898438e+003,4.0458974609e+003,3.9848718262e+003,4.0150000000e+003,
2.5000000000e+000,4.1373076172e+003,4.1058974609e+003,4.1247436523e+003,4.1674360352e+003,4.1164101563e+003,4.1343588867e+003,4.1469228516e+003,4.1274360352e+003,4.1302563477e+003,4.1598715820e+003,4.1226923828e+003,4.1287177734e+003,4.0651281738e+003,4.0902563477e+003,
2.5078125000e+000,4.2414101563e+003,4.2111538086e+003,4.2355126953e+003,4.2850000000e+003,4.2611538086e+003,4.2403847656e+003,4.2462822266e+003,4.2296152344e+003,4.2292309570e+003,4.2715385742e+003,4.2283334961e+003,4.2319228516e+003,4.1793588867e+003,4.1996152344e+003,
2.5156250000e+000,4.2656411133e+003,4.2455126953e+003,4.2583334961e+003,4.3105126953e+003,4.2873076172e+003,4.2629487305e+003,4.2694873047e+003,4.2558974609e+003,4.2556411133e+003,4.2996152344e+003,4.2548715820e+003,4.2610258789e+003,4.2071796875e+003,4.2292309570e+003,
2.5234375000e+000,4.3110258789e+003,4.3102563477e+003,4.3085898438e+003,4.3507690430e+003,4.3192309570e+003,4.3052563477e+003,4.3157690430e+003,4.3132050781e+003,4.3211538086e+003,4.3710258789e+003,4.3121796875e+003,4.3205126953e+003,4.2533334961e+003,4.2779487305e+003,
2.5312500000e+000,4.2692309570e+003,4.2692309570e+003,4.2730771484e+003,4.3184614258e+003,4.2806411133e+003,4.2675639648e+003,4.2774360352e+003,4.2834614258e+003,4.2925639648e+003,4.3401284180e+003,4.2783334961e+003,4.2833334961e+003,4.2151284180e+003,4.2387177734e+003,
2.5390625000e+000,4.0774357910e+003,4.0841025391e+003,4.0910256348e+003,4.1387177734e+003,4.1046152344e+003,4.0864101563e+003,4.1061538086e+003,4.1242309570e+003,4.1244873047e+003,4.1465385742e+003,4.0957692871e+003,4.1064101563e+003,4.0362819824e+003,4.0637180176e+003,
2.5468750000e+000,4.0647436523e+003,4.0680769043e+003,4.0779487305e+003,4.1137177734e+003,4.0853845215e+003,4.0706411133e+003,4.0957692871e+003,4.1121796875e+003,4.1093588867e+003,4.1284614258e+003,4.0812819824e+003,4.0928205566e+003,4.0197436523e+003,4.0498718262e+003,
2.5546875000e+000,4.0470512695e+003,4.0301281738e+003,4.0642307129e+003,4.0847436523e+003,4.0365385742e+003,4.0423076172e+003,4.0717949219e+003,4.0875642090e+003,4.0796154785e+003,4.1074360352e+003,4.0600000000e+003,4.0682050781e+003,3.9902563477e+003,4.0241025391e+003,
2.5625000000e+000,4.0119230957e+003,3.9878205566e+003,4.0306411133e+003,4.0551281738e+003,3.9906411133e+003,4.0044870605e+003,4.0337180176e+003,4.0487180176e+003,4.0387180176e+003,4.0702563477e+003,4.0225642090e+003,4.0307692871e+003,3.9523076172e+003,3.9878205566e+003,
2.5703125000e+000,4.0138461914e+003,3.9996154785e+003,4.0166667480e+003,4.0534614258e+003,4.0211538086e+003,4.0155129395e+003,4.0447436523e+003,4.0387180176e+003,4.0265385742e+003,4.0507692871e+003,4.0085898438e+003,4.0269230957e+003,3.9501281738e+003,3.9887180176e+003,
2.5781250000e+000,4.0757692871e+003,4.0626923828e+003,4.0737180176e+003,4.1075639648e+003,4.0923076172e+003,4.0797436523e+003,4.1070512695e+003,4.0957692871e+003,4.0846154785e+003,4.1087177734e+003,4.0647436523e+003,4.0850000000e+003,4.0102563477e+003,4.0461538086e+003,
2.5859375000e+000,4.1117949219e+003,4.0920512695e+003,4.1132050781e+003,4.1405126953e+003,4.1205126953e+003,4.1161538086e+003,4.1328203125e+003,4.1291025391e+003,4.1200000000e+003,4.1516665039e+003,4.1000000000e+003,4.1150000000e+003,4.0464101563e+003,4.0753845215e+003,
2.5937500000e+000,4.0635898438e+003,4.0415385742e+003,4.0689743652e+003,4.0944870605e+003,4.0676923828e+003,4.0705129395e+003,4.0815385742e+003,4.0817949219e+003,4.0744870605e+003,4.1071796875e+003,4.0548718262e+003,4.0660256348e+003,3.9960256348e+003,4.0270512695e+003,
2.6015625000e+000,4.0214101563e+003,4.0002563477e+003,4.0279487305e+003,4.0520512695e+003,4.0289743652e+003,4.0330769043e+003,4.0411538086e+003,4.0376923828e+003,4.0333332520e+003,4.0638461914e+003,4.0139743652e+003,4.0239743652e+003,3.9480769043e+003,3.9853845215e+003,
2.6093750000e+000,4.0397436523e+003,4.0228205566e+003,4.0444870605e+003,4.0657692871e+003,4.0571794434e+003,4.0556411133e+003,4.0638461914e+003,4.0498718262e+003,4.0491025391e+003,4.0766667480e+003,4.0306411133e+003,4.0419230957e+003,3.9597436523e+003,4.0029487305e+003,
2.6171875000e+000,4.6658974609e+003,4.6757690430e+003,4.6648715820e+003,4.6776923828e+003,4.6953847656e+003,4.6641025391e+003,4.6639741211e+003,4.6482050781e+003,4.6494873047e+003,4.7201284180e+003,4.6700000000e+003,4.6691025391e+003,4.6093588867e+003,4.6273076172e+003,
2.6250000000e+000,5.3125639648e+003,5.3743588867e+003,5.3198715820e+003,5.3088461914e+003,5.3524360352e+003,5.2956411133e+003,5.3005126953e+003,5.3052563477e+003,5.2896152344e+003,5.4058974609e+003,5.3624360352e+003,5.3312822266e+003,5.2791025391e+003,5.2857690430e+003,
2.6328125000e+000,5.5003847656e+003,5.5810258789e+003,5.5155126953e+003,5.5037177734e+003,5.5542309570e+003,5.4889741211e+003,5.4906411133e+003,5.5103847656e+003,5.4870512695e+003,5.6160258789e+003,5.5742309570e+003,5.5287177734e+003,5.4820512695e+003,5.4791025391e+003,
2.6406250000e+000,5.5739741211e+003,5.6867949219e+003,5.6182050781e+003,5.6094873047e+003,5.6752563477e+003,5.5910258789e+003,5.5803847656e+003,5.6374360352e+003,5.5924360352e+003,5.7375639648e+003,5.6958974609e+003,5.6362822266e+003,5.5816665039e+003,5.5755126953e+003,
2.6484375000e+000,5.4462822266e+003,5.5700000000e+003,5.5053847656e+003,5.4933334961e+003,5.5683334961e+003,5.4800000000e+003,5.4662822266e+003,5.5329487305e+003,5.4802563477e+003,5.6224360352e+003,5.5802563477e+003,5.5234614258e+003,5.4608974609e+003,5.4601284180e+003,
2.6562500000e+000,4.9589741211e+003,5.0985898438e+003,5.0451284180e+003,5.0153847656e+003,5.0666665039e+003,5.0228203125e+003,5.0174360352e+003,5.0706411133e+003,5.0226923828e+003,5.1308974609e+003,5.0878203125e+003,5.0569228516e+003,4.9893588867e+003,4.9967949219e+003,
2.6640625000e+000,4.8391025391e+003,4.9775639648e+003,4.9339741211e+003,4.9037177734e+003,4.9382050781e+003,4.9091025391e+003,4.9061538086e+003,4.9532050781e+003,4.9092309570e+003,5.0067949219e+003,4.9662822266e+003,4.9412822266e+003,4.8723076172e+003,4.8830771484e+003,
2.6718750000e+000,4.5106411133e+003,4.6323076172e+003,4.6187177734e+003,4.6011538086e+003,4.6435898438e+003,4.5971796875e+003,4.5930771484e+003,4.6242309570e+003,4.5902563477e+003,4.6629487305e+003,4.6260258789e+003,4.6148715820e+003,4.5319228516e+003,4.5661538086e+003,
2.6796875000e+000,4.2687177734e+003,4.3744873047e+003,4.3698715820e+003,4.3448715820e+003,4.3765385742e+003,4.3591025391e+003,4.3576923828e+003,4.3617949219e+003,4.3423076172e+003,4.4020512695e+003,4.3623076172e+003,4.3612822266e+003,4.2815385742e+003,4.3233334961e+003,
2.6875000000e+000,4.2098715820e+003,4.3105126953e+003,4.3089741211e+003,4.2871796875e+003,4.3064101563e+003,4.3010258789e+003,4.2969228516e+003,4.2971796875e+003,4.2817949219e+003,4.3365385742e+003,4.3002563477e+003,4.2974360352e+003,4.2211538086e+003,4.2628203125e+003,
2.6953125000e+000,4.1487177734e+003,4.2439741211e+003,4.2456411133e+003,4.2325639648e+003,4.2444873047e+003,4.2416665039e+003,4.2346152344e+003,4.2328203125e+003,4.2202563477e+003,4.2682050781e+003,4.2352563477e+003,4.2326923828e+003,4.1569228516e+003,4.2001284180e+003,
2.7031250000e+000,4.0735898438e+003,4.1570512695e+003,4.1651284180e+003,4.1710258789e+003,4.1756411133e+003,4.1685898438e+003,4.1634614258e+003,4.1488461914e+003,4.1441025391e+003,4.1774360352e+003,4.1443588867e+003,4.1534614258e+003,4.0717949219e+003,4.1208974609e+003,
2.7109375000e+000,4.3101284180e+003,4.3796152344e+003,4.3829487305e+003,4.3942309570e+003,4.3679487305e+003,4.3817949219e+003,4.3797436523e+003,4.3523076172e+003,4.3650000000e+003,4.4083334961e+003,4.3719228516e+003,4.3666665039e+003,4.2987177734e+003,4.3380771484e+003,
2.7187500000e+000,4.3867949219e+003,4.4535898438e+003,4.4537177734e+003,4.4634614258e+003,4.4400000000e+003,4.4479487305e+003,4.4420512695e+003,4.4244873047e+003,4.4362822266e+003,4.4876923828e+003,4.4516665039e+003,4.4374360352e+003,4.3741025391e+003,4.4098715820e+003,
2.7265625000e+000,4.4098715820e+003,4.4747436523e+003,4.4728203125e+003,4.4825639648e+003,4.4724360352e+003,4.4632050781e+003,4.4547436523e+003,4.4489741211e+003,4.4569228516e+003,4.5117949219e+003,4.4755126953e+003,4.4596152344e+003,4.3961538086e+003,4.4310258789e+003,
2.7343750000e+000,4.3848715820e+003,4.4492309570e+003,4.4461538086e+003,4.4578203125e+003,4.4632050781e+003,4.4332050781e+003,4.4260258789e+003,4.4301284180e+003,4.4341025391e+003,4.4864101563e+003,4.4493588867e+003,4.4379487305e+003,4.3703847656e+003,4.4060258789e+003,
2.7421875000e+000,4.1841025391e+003,4.2452563477e+003,4.2552563477e+003,4.2664101563e+003,4.2474360352e+003,4.2329487305e+003,4.2478203125e+003,4.2653847656e+003,4.2623076172e+003,4.2893588867e+003,4.2592309570e+003,4.2534614258e+003,4.1597436523e+003,4.2167949219e+003,
2.7500000000e+000,4.2471796875e+003,4.2987177734e+003,4.3001284180e+003,4.3301284180e+003,4.2934614258e+003,4.2785898438e+003,4.2989741211e+003,4.3198715820e+003,4.2957690430e+003,4.3335898438e+003,4.2956411133e+003,4.2908974609e+003,4.2223076172e+003,4.2650000000e+003,
2.7578125000e+000,4.2873076172e+003,4.3398715820e+003,4.3405126953e+003,4.3689741211e+003,4.3285898438e+003,4.3139741211e+003,4.3352563477e+003,4.3532050781e+003,4.3282050781e+003,4.3694873047e+003,4.3312822266e+003,4.3270512695e+003,4.2688461914e+003,4.3033334961e+003,
2.7656250000e+000,4.3682050781e+003,4.4214101563e+003,4.4235898438e+003,4.4401284180e+003,4.4135898438e+003,4.3916665039e+003,4.4082050781e+003,4.4214101563e+003,4.3988461914e+003,4.4448715820e+003,4.4091025391e+003,4.4060258789e+003,4.3484614258e+003,4.3829487305e+003,
2.7734375000e+000,4.3837177734e+003,4.4378203125e+003,4.4384614258e+003,4.4524360352e+003,4.4438461914e+003,4.4103847656e+003,4.4228203125e+003,4.4353847656e+003,4.4147436523e+003,4.4615385742e+003,4.4238461914e+003,4.4221796875e+003,4.3582050781e+003,4.3969228516e+003,
2.7812500000e+000,4.2851284180e+003,4.3442309570e+003,4.3360258789e+003,4.3606411133e+003,4.3758974609e+003,4.3421796875e+003,4.3401284180e+003,4.3371796875e+003,4.3276923828e+003,4.3628203125e+003,4.3247436523e+003,4.3201284180e+003,4.2538461914e+003,4.2933334961e+003,
2.7890625000e+000,4.2666665039e+003,4.3280771484e+003,4.3142309570e+003,4.3385898438e+003,4.3535898438e+003,4.3343588867e+003,4.3252563477e+003,4.3147436523e+003,4.3106411133e+003,4.3421796875e+003,4.3075639648e+003,4.2982050781e+003,4.2394873047e+003,4.2739741211e+003,
2.7968750000e+000,4.2876923828e+003,4.3393588867e+003,4.3305126953e+003,4.3371796875e+003,4.3651284180e+003,4.3523076172e+003,4.3355126953e+003,4.3214101563e+003,4.3305126953e+003,4.3612822266e+003,4.3246152344e+003,4.3184614258e+003,4.2682050781e+003,4.2892309570e+003,
2.8046875000e+000,4.1908974609e+003,4.2311538086e+003,4.2356411133e+003,4.2629487305e+003,4.2510258789e+003,4.2366665039e+003,4.2308974609e+003,4.2170512695e+003,4.2329487305e+003,4.2602563477e+003,4.2292309570e+003,4.2258974609e+003,4.1689741211e+003,4.1939741211e+003,
2.8125000000e+000,4.1446152344e+003,4.1874360352e+003,4.1873076172e+003,4.2260258789e+003,4.1992309570e+003,4.1925639648e+003,4.1871796875e+003,4.1738461914e+003,4.1916665039e+003,4.2147436523e+003,4.1825639648e+003,4.1823076172e+003,4.1269228516e+003,4.1496152344e+003,
2.8203125000e+000,4.1053847656e+003,4.1491025391e+003,4.1471796875e+003,4.1910258789e+003,4.1583334961e+003,4.1556411133e+003,4.1517949219e+003,4.1398715820e+003,4.1592309570e+003,4.1755126953e+003,4.1388461914e+003,4.1458974609e+003,4.0929487305e+003,4.1110258789e+003,
2.8281250000e+000,4.0775642090e+003,4.1182050781e+003,4.1197436523e+003,4.1615385742e+003,4.1293588867e+003,4.1262822266e+003,4.1271796875e+003,4.1179487305e+003,4.1374360352e+003,4.1462822266e+003,4.1046152344e+003,4.1194873047e+003,4.0691025391e+003,4.0820512695e+003,
2.8359375000e+000,4.0114101563e+003,4.0261538086e+003,4.0484614258e+003,4.0780769043e+003,4.0151281738e+003,4.0393588867e+003,4.0630769043e+003,4.0676923828e+003,4.0692307129e+003,4.0708974609e+003,4.0414101563e+003,4.0560256348e+003,3.9962819824e+003,4.0150000000e+003,
2.8437500000e+000,4.0108974609e+003,4.0232050781e+003,4.0453845215e+003,4.0775642090e+003,4.0160256348e+003,4.0353845215e+003,4.0606411133e+003,4.0651281738e+003,4.0607692871e+003,4.0632050781e+003,4.0389743652e+003,4.0544870605e+003,3.9920512695e+003,4.0126923828e+003,
2.8515625000e+000,4.1026923828e+003,4.1096152344e+003,4.1291025391e+003,4.1653847656e+003,4.1469228516e+003,4.1098715820e+003,4.1352563477e+003,4.1412822266e+003,4.1300000000e+003,4.1343588867e+003,4.1105126953e+003,4.1321796875e+003,4.0748718262e+003,4.0888461914e+003,
2.8593750000e+000,4.1379487305e+003,4.1461538086e+003,4.1591025391e+003,4.1966665039e+003,4.1701284180e+003,4.1550000000e+003,4.1692309570e+003,4.1810258789e+003,4.1607690430e+003,4.1771796875e+003,4.1483334961e+003,4.1711538086e+003,4.1141025391e+003,4.1280771484e+003,
2.8671875000e+000,4.1521796875e+003,4.1617949219e+003,4.1685898438e+003,4.2174360352e+003,4.1844873047e+003,4.1738461914e+003,4.1825639648e+003,4.1939741211e+003,4.1751284180e+003,4.1935898438e+003,4.1629487305e+003,4.1826923828e+003,4.1284614258e+003,4.1405126953e+003,
2.8750000000e+000,4.2789741211e+003,4.2919228516e+003,4.2866665039e+003,4.3578203125e+003,4.3194873047e+003,4.3041025391e+003,4.3048715820e+003,4.3051284180e+003,4.2996152344e+003,4.3221796875e+003,4.2856411133e+003,4.2961538086e+003,4.2417949219e+003,4.2551284180e+003,
2.8828125000e+000,4.3124360352e+003,4.3293588867e+003,4.3225639648e+003,4.3865385742e+003,4.3508974609e+003,4.3389741211e+003,4.3393588867e+003,4.3366665039e+003,4.3325639648e+003,4.3582050781e+003,4.3196152344e+003,4.3288461914e+003,4.2762822266e+003,4.2875639648e+003,
2.8906250000e+000,4.3470512695e+003,4.3716665039e+003,4.3629487305e+003,4.4170512695e+003,4.3885898438e+003,4.3767949219e+003,4.3775639648e+003,4.3714101563e+003,4.3648715820e+003,4.3951284180e+003,4.3587177734e+003,4.3619228516e+003,4.3225639648e+003,4.3224360352e+003,
2.8984375000e+000,4.3623076172e+003,4.3887177734e+003,4.3791025391e+003,4.4373076172e+003,4.4056411133e+003,4.3921796875e+003,4.3937177734e+003,4.3848715820e+003,4.3775639648e+003,4.4082050781e+003,4.3747436523e+003,4.3765385742e+003,4.3411538086e+003,4.3380771484e+003,
2.9062500000e+000,4.3391025391e+003,4.3655126953e+003,4.3565385742e+003,4.4274360352e+003,4.3614101563e+003,4.3692309570e+003,4.3688461914e+003,4.3635898438e+003,4.3634614258e+003,4.3929487305e+003,4.3497436523e+003,4.3615385742e+003,4.3144873047e+003,4.3220512695e+003,
2.9140625000e+000,4.2579487305e+003,4.2806411133e+003,4.2801284180e+003,4.3461538086e+003,4.2787177734e+003,4.2924360352e+003,4.2901284180e+003,4.2915385742e+003,4.2943588867e+003,4.3224360352e+003,4.2729487305e+003,4.2861538086e+003,4.2343588867e+003,4.2448715820e+003,
2.9218750000e+000,3.9673076172e+003,3.9644870605e+003,3.9951281738e+003,4.0569230957e+003,4.0043588867e+003,4.0069230957e+003,4.0071794434e+003,4.0044870605e+003,4.0170512695e+003,4.0229487305e+003,3.9820512695e+003,3.9955129395e+003,3.9351281738e+003,3.9556411133e+003,
2.9296875000e+000,3.9566667480e+003,3.9503845215e+003,3.9779487305e+003,4.0450000000e+003,3.9942307129e+003,3.9885898438e+003,3.9929487305e+003,3.9844870605e+003,3.9992307129e+003,3.9984614258e+003,3.9641025391e+003,3.9778205566e+003,3.9191025391e+003,3.9420512695e+003,
2.9375000000e+000,3.9942307129e+003,3.9903845215e+003,4.0080769043e+003,4.0757692871e+003,4.0198718262e+003,4.0039743652e+003,4.0200000000e+003,4.0142307129e+003,4.0257692871e+003,4.0261538086e+003,3.9952563477e+003,4.0094870605e+003,3.9546154785e+003,3.9767949219e+003,
2.9453125000e+000,3.9716667480e+003,3.9661538086e+003,3.9876923828e+003,4.0491025391e+003,3.9844870605e+003,3.9724357910e+003,3.9928205566e+003,3.9956411133e+003,4.0029487305e+003,4.0061538086e+003,3.9729487305e+003,3.9902563477e+003,3.9325642090e+003,3.9546154785e+003,
2.9531250000e+000,3.9132050781e+003,3.9019230957e+003,3.9316667480e+003,3.9862819824e+003,3.9102563477e+003,3.9082050781e+003,3.9306411133e+003,3.9421794434e+003,3.9455129395e+003,3.9484614258e+003,3.9129487305e+003,3.9355129395e+003,3.8717949219e+003,3.8964101563e+003,
2.9609375000e+000,3.8044870605e+003,3.7726923828e+003,3.8079487305e+003,3.8600000000e+003,3.7971794434e+003,3.7934614258e+003,3.8191025391e+003,3.8257692871e+003,3.8128205566e+003,3.8107692871e+003,3.7764101563e+003,3.8062819824e+003,3.7416667480e+003,3.7756411133e+003,
2.9687500000e+000,3.8265385742e+003,3.7908974609e+003,3.8298718262e+003,3.8853845215e+003,3.8266667480e+003,3.8156411133e+003,3.8392307129e+003,3.8442307129e+003,3.8307692871e+003,3.8315385742e+003,3.7964101563e+003,3.8274357910e+003,3.7588461914e+003,3.7957692871e+003,
2.9765625000e+000,3.7974357910e+003,3.7496154785e+003,3.7957692871e+003,3.8573076172e+003,3.7571794434e+003,3.7816667480e+003,3.8000000000e+003,3.7951281738e+003,3.7882050781e+003,3.7769230957e+003,3.7416667480e+003,3.7923076172e+003,3.7029487305e+003,3.7580769043e+003,
2.9843750000e+000,3.8370512695e+003,3.7925642090e+003,3.8320512695e+003,3.8866667480e+003,3.8085898438e+003,3.8248718262e+003,3.8405129395e+003,3.8166667480e+003,3.8152563477e+003,3.8142307129e+003,3.7838461914e+003,3.8162819824e+003,3.7391025391e+003,3.7898718262e+003,
2.9921875000e+000,3.8687180176e+003,3.8244870605e+003,3.8620512695e+003,3.9161538086e+003,3.8546154785e+003,3.8597436523e+003,3.8702563477e+003,3.8444870605e+003,3.8457692871e+003,3.8493588867e+003,3.8165385742e+003,3.8469230957e+003,3.7702563477e+003,3.8198718262e+003,
3.0000000000e+000,4.0498718262e+003,4.0078205566e+003,4.0344870605e+003,4.0905129395e+003,4.0526923828e+003,4.0298718262e+003,4.0389743652e+003,4.0124357910e+003,4.0179487305e+003,4.0283332520e+003,3.9933332520e+003,4.0171794434e+003,3.9466667480e+003,3.9951281738e+003,
3.0078125000e+000,4.1358974609e+003,4.0991025391e+003,4.1188461914e+003,4.1741025391e+003,4.1383334961e+003,4.1116665039e+003,4.1223076172e+003,4.0987177734e+003,4.1037177734e+003,4.1215385742e+003,4.0858974609e+003,4.1020512695e+003,4.0361538086e+003,4.0806411133e+003,
3.0156250000e+000,4.2121796875e+003,4.1808974609e+003,4.1966665039e+003,4.2479487305e+003,4.1989741211e+003,4.1878203125e+003,4.1943588867e+003,4.1806411133e+003,4.1833334961e+003,4.2164101563e+003,4.1733334961e+003,4.1917949219e+003,4.1197436523e+003,4.1605126953e+003,
3.0234375000e+000,4.2011538086e+003,4.1689741211e+003,4.1861538086e+003,4.2353847656e+003,4.1783334961e+003,4.1766665039e+003,4.1808974609e+003,4.1702563477e+003,4.1717949219e+003,4.2071796875e+003,4.1617949219e+003,4.1884614258e+003,4.1098715820e+003,4.1516665039e+003,
3.0312500000e+000,4.2851284180e+003,4.2648715820e+003,4.2697436523e+003,4.3050000000e+003,4.2833334961e+003,4.2498715820e+003,4.2630771484e+003,4.2530771484e+003,4.2539741211e+003,4.2851284180e+003,4.2565385742e+003,4.2743588867e+003,4.2034614258e+003,4.2391025391e+003,
3.0390625000e+000,4.3738461914e+003,4.3610258789e+003,4.3623076172e+003,4.3883334961e+003,4.3816665039e+003,4.3362822266e+003,4.3508974609e+003,4.3433334961e+003,4.3441025391e+003,4.3783334961e+003,4.3553847656e+003,4.3639741211e+003,4.2952563477e+003,4.3291025391e+003,
3.0468750000e+000,4.5847436523e+003,4.5892309570e+003,4.5782050781e+003,4.6103847656e+003,4.5770512695e+003,4.5526923828e+003,4.5582050781e+003,4.5748715820e+003,4.5614101563e+003,4.6152563477e+003,4.5797436523e+003,4.5806411133e+003,4.5167949219e+003,4.5387177734e+003,
3.0546875000e+000,4.6075639648e+003,4.6192309570e+003,4.5997436523e+003,4.6438461914e+003,4.6071796875e+003,4.5817949219e+003,4.5867949219e+003,4.6094873047e+003,4.5884614258e+003,4.6458974609e+003,4.6071796875e+003,4.6037177734e+003,4.5489741211e+003,4.5629487305e+003,
3.0625000000e+000,4.6524360352e+003,4.6765385742e+003,4.6462822266e+003,4.6944873047e+003,4.6898715820e+003,4.6394873047e+003,4.6447436523e+003,4.6661538086e+003,4.6371796875e+003,4.6967949219e+003,4.6633334961e+003,4.6498715820e+003,4.6076923828e+003,4.6150000000e+003,
3.0703125000e+000,4.6838461914e+003,4.7121796875e+003,4.6810258789e+003,4.7206411133e+003,4.7329487305e+003,4.6750000000e+003,4.6767949219e+003,4.6979487305e+003,4.6683334961e+003,4.7300000000e+003,4.6979487305e+003,4.6848715820e+003,4.6400000000e+003,4.6501284180e+003,
3.0781250000e+000,4.6966665039e+003,4.7294873047e+003,4.6994873047e+003,4.7294873047e+003,4.7484614258e+003,4.6920512695e+003,4.6883334961e+003,4.7126923828e+003,4.6826923828e+003,4.7483334961e+003,4.7144873047e+003,4.7057690430e+003,4.6528203125e+003,4.6676923828e+003,
3.0859375000e+000,4.6723076172e+003,4.7108974609e+003,4.6826923828e+003,4.7058974609e+003,4.7230771484e+003,4.6741025391e+003,4.6651284180e+003,4.6935898438e+003,4.6629487305e+003,4.7328203125e+003,4.6962822266e+003,4.6928203125e+003,4.6306411133e+003,4.6498715820e+003,
3.0937500000e+000,4.5330771484e+003,4.5939741211e+003,4.5603847656e+003,4.5875639648e+003,4.6021796875e+003,4.5666665039e+003,4.5548715820e+003,4.5556411133e+003,4.5351284180e+003,4.6066665039e+003,4.5673076172e+003,4.5614101563e+003,4.5158974609e+003,4.5260258789e+003,
3.1015625000e+000,4.6582050781e+003,4.7210258789e+003,4.6935898438e+003,4.7176923828e+003,4.7251284180e+003,4.6985898438e+003,4.6883334961e+003,4.6834614258e+003,4.6647436523e+003,4.7419228516e+003,4.6989741211e+003,4.6902563477e+003,4.6476923828e+003,4.6569228516e+003,
3.1093750000e+000,4.6574360352e+003,4.7239741211e+003,4.6957690430e+003,4.7194873047e+003,4.7260258789e+003,4.7001284180e+003,4.6910258789e+003,4.6865385742e+003,4.6720512695e+003,4.7457690430e+003,4.7102563477e+003,4.6947436523e+003,4.6519228516e+003,4.6573076172e+003,
3.1171875000e+000,4.6823076172e+003,4.7544873047e+003,4.7215385742e+003,4.7556411133e+003,4.7493588867e+003,4.7253847656e+003,4.7184614258e+003,4.7108974609e+003,4.7020512695e+003,4.7706411133e+003,4.7424360352e+003,4.7219228516e+003,4.6789741211e+003,4.6844873047e+003,
3.1250000000e+000,4.7325639648e+003,4.8061538086e+003,4.7702563477e+003,4.8098715820e+003,4.7971796875e+003,4.7717949219e+003,4.7656411133e+003,4.7593588867e+003,4.7494873047e+003,4.8203847656e+003,4.7901284180e+003,4.7712822266e+003,4.7285898438e+003,4.7370512695e+003,
3.1328125000e+000,4.8439741211e+003,4.9271796875e+003,4.8871796875e+003,4.9096152344e+003,4.9178203125e+003,4.8782050781e+003,4.8697436523e+003,4.8825639648e+003,4.8712822266e+003,4.9567949219e+003,4.9202563477e+003,4.8937177734e+003,4.8561538086e+003,4.8598715820e+003,
3.1406250000e+000,4.6717949219e+003,4.7652563477e+003,4.7316665039e+003,4.7520512695e+003,4.7716665039e+003,4.7223076172e+003,4.7141025391e+003,4.7443588867e+003,4.7208974609e+003,4.7873076172e+003,4.7544873047e+003,4.7452563477e+003,4.6860258789e+003,4.7041025391e+003,
3.1484375000e+000,4.6002563477e+003,4.6934614258e+003,4.6608974609e+003,4.6855126953e+003,4.7028203125e+003,4.6521796875e+003,4.6461538086e+003,4.6810258789e+003,4.6521796875e+003,4.7106411133e+003,4.6810258789e+003,4.6737177734e+003,4.6110258789e+003,4.6347436523e+003,
3.1562500000e+000,4.6602563477e+003,4.7510258789e+003,4.7191025391e+003,4.7321796875e+003,4.7462822266e+003,4.7089741211e+003,4.7123076172e+003,4.7352563477e+003,4.7012822266e+003,4.7643588867e+003,4.7325639648e+003,4.7200000000e+003,4.6737177734e+003,4.6885898438e+003,
3.1640625000e+000,4.7742309570e+003,4.8711538086e+003,4.8330771484e+003,4.8466665039e+003,4.8603847656e+003,4.8223076172e+003,4.8233334961e+003,4.8455126953e+003,4.8094873047e+003,4.8825639648e+003,4.8452563477e+003,4.8329487305e+003,4.7892309570e+003,4.8017949219e+003,
3.1718750000e+000,4.7230771484e+003,4.8370512695e+003,4.7887177734e+003,4.8230771484e+003,4.8355126953e+003,4.7843588867e+003,4.7676923828e+003,4.8103847656e+003,4.7726923828e+003,4.8555126953e+003,4.8153847656e+003,4.7958974609e+003,4.7444873047e+003,4.7615385742e+003,
3.1796875000e+000,4.5532050781e+003,4.6637177734e+003,4.6246152344e+003,4.6566665039e+003,4.6667949219e+003,4.6243588867e+003,4.6067949219e+003,4.6438461914e+003,4.6114101563e+003,4.6820512695e+003,4.6467949219e+003,4.6283334961e+003,4.5771796875e+003,4.5943588867e+003,
3.1875000000e+000,4.3743588867e+003,4.4735898438e+003,4.4485898438e+003,4.4725639648e+003,4.4633334961e+003,4.4607690430e+003,4.4471796875e+003,4.4573076172e+003,4.4385898438e+003,4.4808974609e+003,4.4508974609e+003,4.4391025391e+003,4.3934614258e+003,4.4132050781e+003,
3.1953125000e+000,4.4041025391e+003,4.5003847656e+003,4.4744873047e+003,4.5023076172e+003,4.4779487305e+003,4.4930771484e+003,4.4800000000e+003,4.4839741211e+003,4.4693588867e+003,4.5051284180e+003,4.4728203125e+003,4.4619228516e+003,4.4162822266e+003,4.4406411133e+003,
3.2031250000e+000,4.4353847656e+003,4.5294873047e+003,4.5024360352e+003,4.5391025391e+003,4.5032050781e+003,4.5238461914e+003,4.5106411133e+003,4.5166665039e+003,4.5034614258e+003,4.5384614258e+003,4.5010258789e+003,4.4900000000e+003,4.4410258789e+003,4.4703847656e+003,
3.2109375000e+000,4.3998715820e+003,4.4903847656e+003,4.4666665039e+003,4.5112822266e+003,4.4744873047e+003,4.4864101563e+003,4.4743588867e+003,4.4850000000e+003,4.4728203125e+003,4.5078203125e+003,4.4653847656e+003,4.4552563477e+003,4.4017949219e+003,4.4341025391e+003,
3.2187500000e+000,3.9728205566e+003,4.0275642090e+003,4.0400000000e+003,4.0730769043e+003,4.0634614258e+003,4.0535898438e+003,4.0466667480e+003,4.0426923828e+003,4.0461538086e+003,4.0524357910e+003,4.0161538086e+003,4.0301281738e+003,3.9696154785e+003,4.0023076172e+003,
3.2265625000e+000,3.9378205566e+003,3.9652563477e+003,3.9921794434e+003,4.0351281738e+003,3.9752563477e+003,3.9820512695e+003,3.9762819824e+003,3.9928205566e+003,4.0021794434e+003,3.9984614258e+003,3.9657692871e+003,3.9783332520e+003,3.9084614258e+003,3.9584614258e+003,
3.2343750000e+000,3.9311538086e+003,3.9574357910e+003,3.9801281738e+003,4.0243588867e+003,3.9674357910e+003,3.9687180176e+003,3.9693588867e+003,3.9856411133e+003,3.9925642090e+003,3.9834614258e+003,3.9476923828e+003,3.9676923828e+003,3.8987180176e+003,3.9461538086e+003,
3.2421875000e+000,4.0397436523e+003,4.0647436523e+003,4.0716667480e+003,4.1096152344e+003,4.0730769043e+003,4.0629487305e+003,4.0696154785e+003,4.0873076172e+003,4.0834614258e+003,4.0771794434e+003,4.0389743652e+003,4.0679487305e+003,3.9982050781e+003,4.0476923828e+003,
3.2500000000e+000,4.1250000000e+003,4.1464101563e+003,4.1493588867e+003,4.1828203125e+003,4.1547436523e+003,4.1396152344e+003,4.1439741211e+003,4.1682050781e+003,4.1585898438e+003,4.1617949219e+003,4.1237177734e+003,4.1487177734e+003,4.0780769043e+003,4.1317949219e+003,
3.2578125000e+000,4.2546152344e+003,4.2666665039e+003,4.2743588867e+003,4.3119228516e+003,4.2611538086e+003,4.2506411133e+003,4.2482050781e+003,4.2819228516e+003,4.2650000000e+003,4.2850000000e+003,4.2538461914e+003,4.2678203125e+003,4.1944873047e+003,4.2542309570e+003,
3.2656250000e+000,4.5303847656e+003,4.5655126953e+003,4.5451284180e+003,4.6023076172e+003,4.5494873047e+003,4.5241025391e+003,4.5167949219e+003,4.5428203125e+003,4.5243588867e+003,4.5552563477e+003,4.5357690430e+003,4.5367949219e+003,4.4678203125e+003,4.5182050781e+003,
3.2734375000e+000,4.6148715820e+003,4.6582050781e+003,4.6316665039e+003,4.6894873047e+003,4.6530771484e+003,4.6143588867e+003,4.6033334961e+003,4.6328203125e+003,4.6123076172e+003,4.6517949219e+003,4.6293588867e+003,4.6246152344e+003,4.5584614258e+003,4.6041025391e+003,
3.2812500000e+000,4.6082050781e+003,4.6596152344e+003,4.6389741211e+003,4.6860258789e+003,4.6764101563e+003,4.6344873047e+003,4.6144873047e+003,4.6387177734e+003,4.6215385742e+003,4.6650000000e+003,4.6270512695e+003,4.6260258789e+003,4.5589741211e+003,4.6024360352e+003,
3.2890625000e+000,4.6057690430e+003,4.6583334961e+003,4.6371796875e+003,4.6839741211e+003,4.6748715820e+003,4.6376923828e+003,4.6148715820e+003,4.6339741211e+003,4.6185898438e+003,4.6610258789e+003,4.6230771484e+003,4.6214101563e+003,4.5503847656e+003,4.5979487305e+003,
3.2968750000e+000,4.6246152344e+003,4.6792309570e+003,4.6560258789e+003,4.7037177734e+003,4.6953847656e+003,4.6606411133e+003,4.6361538086e+003,4.6521796875e+003,4.6364101563e+003,4.6802563477e+003,4.6442309570e+003,4.6392309570e+003,4.5643588867e+003,4.6153847656e+003,
3.3046875000e+000,4.6362822266e+003,4.6978203125e+003,4.6728203125e+003,4.7202563477e+003,4.7171796875e+003,4.6837177734e+003,4.6602563477e+003,4.6766665039e+003,4.6576923828e+003,4.7051284180e+003,4.6676923828e+003,4.6598715820e+003,4.5864101563e+003,4.6333334961e+003,
3.3125000000e+000,4.5974360352e+003,4.6634614258e+003,4.6370512695e+003,4.6848715820e+003,4.6808974609e+003,4.6529487305e+003,4.6312822266e+003,4.6485898438e+003,4.6300000000e+003,4.6751284180e+003,4.6333334961e+003,4.6285898438e+003,4.5606411133e+003,4.6006411133e+003,
3.3203125000e+000,4.5407690430e+003,4.6111538086e+003,4.5817949219e+003,4.6315385742e+003,4.6206411133e+003,4.6032050781e+003,4.5839741211e+003,4.6011538086e+003,4.5848715820e+003,4.6246152344e+003,4.5789741211e+003,4.5783334961e+003,4.5144873047e+003,4.5493588867e+003,
3.3281250000e+000,4.6006411133e+003,4.6596152344e+003,4.6498715820e+003,4.6730771484e+003,4.6710258789e+003,4.6529487305e+003,4.6365385742e+003,4.6692309570e+003,4.6455126953e+003,4.6870512695e+003,4.6492309570e+003,4.6437177734e+003,4.5648715820e+003,4.6115385742e+003,
3.3359375000e+000,4.6024360352e+003,4.6641025391e+003,4.6528203125e+003,4.6735898438e+003,4.6801284180e+003,4.6530771484e+003,4.6382050781e+003,4.6765385742e+003,4.6501284180e+003,4.6947436523e+003,4.6507690430e+003,4.6516665039e+003,4.5734614258e+003,4.6152563477e+003,
3.3437500000e+000,4.5624360352e+003,4.6378203125e+003,4.6152563477e+003,4.6406411133e+003,4.6389741211e+003,4.6097436523e+003,4.6006411133e+003,4.6383334961e+003,4.6129487305e+003,4.6548715820e+003,4.6114101563e+003,4.6206411133e+003,4.5392309570e+003,4.5820512695e+003,
3.3515625000e+000,4.5761538086e+003,4.6550000000e+003,4.6294873047e+003,4.6547436523e+003,4.6484614258e+003,4.6182050781e+003,4.6093588867e+003,4.6473076172e+003,4.6219228516e+003,4.6638461914e+003,4.6287177734e+003,4.6332050781e+003,4.5491025391e+003,4.5982050781e+003,
3.3593750000e+000,4.5164101563e+003,4.5828203125e+003,4.5737177734e+003,4.5816665039e+003,4.5908974609e+003,4.5484614258e+003,4.5320512695e+003,4.5867949219e+003,4.5584614258e+003,4.6012822266e+003,4.5725639648e+003,4.5719228516e+003,4.4841025391e+003,4.5443588867e+003,
3.3671875000e+000,4.0843588867e+003,4.1380771484e+003,4.1488461914e+003,4.1652563477e+003,4.1358974609e+003,4.1328203125e+003,4.1219228516e+003,4.1489741211e+003,4.1371796875e+003,4.1447436523e+003,4.1083334961e+003,4.1291025391e+003,4.0510256348e+003,4.1098715820e+003,
3.3750000000e+000,4.0325642090e+003,4.0779487305e+003,4.0932050781e+003,4.1164101563e+003,4.0800000000e+003,4.0834614258e+003,4.0707692871e+003,4.0883332520e+003,4.0806411133e+003,4.0789743652e+003,4.0456411133e+003,4.0688461914e+003,3.9917949219e+003,4.0520512695e+003,
3.3828125000e+000,4.0448718262e+003,4.0756411133e+003,4.0901281738e+003,4.1205126953e+003,4.0825642090e+003,4.0950000000e+003,4.0807692871e+003,4.0867949219e+003,4.0815385742e+003,4.0743588867e+003,4.0487180176e+003,4.0702563477e+003,3.9914101563e+003,4.0493588867e+003,
3.3906250000e+000,4.0323076172e+003,4.0674357910e+003,4.0725642090e+003,4.1087177734e+003,4.0671794434e+003,4.0861538086e+003,4.0743588867e+003,4.0767949219e+003,4.0726923828e+003,4.0651281738e+003,4.0353845215e+003,4.0553845215e+003,3.9838461914e+003,4.0344870605e+003,
3.3984375000e+000,3.9889743652e+003,4.0248718262e+003,4.0205129395e+003,4.0647436523e+003,4.0308974609e+003,4.0500000000e+003,4.0374357910e+003,4.0396154785e+003,4.0364101563e+003,4.0261538086e+003,3.9866667480e+003,4.0083332520e+003,3.9473076172e+003,3.9879487305e+003,
3.4062500000e+000,3.9561538086e+003,3.9821794434e+003,3.9847436523e+003,4.0230769043e+003,3.9991025391e+003,4.0139743652e+003,4.0007692871e+003,4.0043588867e+003,4.0021794434e+003,3.9900000000e+003,3.9508974609e+003,3.9748718262e+003,3.9108974609e+003,3.9524357910e+003,
3.4140625000e+000,3.8697436523e+003,3.8637180176e+003,3.8906411133e+003,3.9061538086e+003,3.8860256348e+003,3.9043588867e+003,3.8989743652e+003,3.8939743652e+003,3.9007692871e+003,3.8830769043e+003,3.8558974609e+003,3.8792307129e+003,3.8158974609e+003,3.8512819824e+003,
3.4218750000e+000,3.8773076172e+003,3.8669230957e+003,3.8929487305e+003,3.9148718262e+003,3.8875642090e+003,3.9067949219e+003,3.9026923828e+003,3.8971794434e+003,3.9030769043e+003,3.8855129395e+003,3.8566667480e+003,3.8816667480e+003,3.8255129395e+003,3.8539743652e+003,
3.4296875000e+000,3.8924357910e+003,3.8792307129e+003,3.9008974609e+003,3.9328205566e+003,3.9007692871e+003,3.9176923828e+003,3.9130769043e+003,3.9117949219e+003,3.9138461914e+003,3.8965385742e+003,3.8624357910e+003,3.8923076172e+003,3.8416667480e+003,3.8653845215e+003,
