Time (s);AF3;F7;F3;FC5;T7;P7;O1;O2;P8;T8;FC6;F4;F8;AF4;Sampling Rate
0.0000000000e+000;3.4247436523e+003;4.1861538086e+003;4.1765385742e+003;4.1944873047e+003;4.1851284180e+003;4.1894873047e+003;4.1807690430e+003;4.1817949219e+003;4.2041025391e+003;4.2053847656e+003;4.2019228516e+003;4.1653847656e+003;4.0146154785e+003;3.8455129395e+003;128
7.8125000000e-003;3.4324357910e+003;4.1830771484e+003;4.1811538086e+003;4.1948715820e+003;4.1892309570e+003;4.1782050781e+003;4.1756411133e+003;4.1669228516e+003;4.1803847656e+003;4.1946152344e+003;4.1883334961e+003;4.1665385742e+003;4.0125642090e+003;3.8515385742e+003;
1.5625000000e-002;3.4332050781e+003;4.1843588867e+003;4.1848715820e+003;4.1953847656e+003;4.1894873047e+003;4.1784614258e+003;4.1791025391e+003;4.1670512695e+003;4.1757690430e+003;4.1907690430e+003;4.1898715820e+003;4.1726923828e+003;4.0120512695e+003;3.8567949219e+003;
2.3437500000e-002;3.4339743652e+003;4.1875639648e+003;4.1898715820e+003;4.1973076172e+003;4.1902563477e+003;4.1811538086e+003;4.1834614258e+003;4.1694873047e+003;4.1741025391e+003;4.1880771484e+003;4.1955126953e+003;4.1788461914e+003;4.0135898438e+003;3.8615385742e+003;
3.1250000000e-002;3.4362819824e+003;4.1912822266e+003;4.1919228516e+003;4.1992309570e+003;4.1907690430e+003;4.1858974609e+003;4.1851284180e+003;4.1716665039e+003;4.1721796875e+003;4.1847436523e+003;4.2005126953e+003;4.1753847656e+003;4.0180769043e+003;3.8579487305e+003;
3.9062500000e-002;3.4338461914e+003;4.1878203125e+003;4.1858974609e+003;4.1966665039e+003;4.1876923828e+003;4.1846152344e+003;4.1819228516e+003;4.1702563477e+003;4.1692309570e+003;4.1810258789e+003;4.1923076172e+003;4.1646152344e+003;4.0138461914e+003;3.8489743652e+003;
4.6875000000e-002;3.4123076172e+003;4.1746152344e+003;4.1657690430e+003;4.1817949219e+003;4.1798715820e+003;4.1829487305e+003;4.1739741211e+003;4.1743588867e+003;4.1678203125e+003;4.1723076172e+003;4.1687177734e+003;4.1469228516e+003;3.9848718262e+003;3.8301281738e+003;
5.4687500000e-002;3.4083332520e+003;4.1750000000e+003;4.1639741211e+003;4.1810258789e+003;4.1812822266e+003;4.1873076172e+003;4.1753847656e+003;4.1792309570e+003;4.1753847656e+003;4.1767949219e+003;4.1726923828e+003;4.1496152344e+003;3.9846154785e+003;3.8297436523e+003;
6.2500000000e-002;3.4055129395e+003;4.1785898438e+003;4.1679487305e+003;4.1889741211e+003;4.1789741211e+003;4.1921796875e+003;4.1846152344e+003;4.1864101563e+003;4.1912822266e+003;4.1882050781e+003;4.1814101563e+003;4.1512822266e+003;3.9962819824e+003;3.8261538086e+003;
7.0312500000e-002;3.4048718262e+003;4.1793588867e+003;4.1712822266e+003;4.1917949219e+003;4.1743588867e+003;4.1905126953e+003;4.1869228516e+003;4.1876923828e+003;4.1943588867e+003;4.1907690430e+003;4.1814101563e+003;4.1506411133e+003;4.0014101563e+003;3.8242307129e+003;
7.8125000000e-002;3.4047436523e+003;4.1784614258e+003;4.1729487305e+003;4.1901284180e+003;4.1701284180e+003;4.1876923828e+003;4.1847436523e+003;4.1870512695e+003;4.1942309570e+003;4.1903847656e+003;4.1798715820e+003;4.1510258789e+003;4.0035898438e+003;3.8243588867e+003;
8.5937500000e-002;3.4043588867e+003;4.1757690430e+003;4.1734614258e+003;4.1929487305e+003;4.1776923828e+003;4.1775639648e+003;4.1751284180e+003;4.1738461914e+003;4.1796152344e+003;4.1730771484e+003;4.1733334961e+003;4.1534614258e+003;3.9962819824e+003;3.8253845215e+003;
9.3750000000e-002;3.4076923828e+003;4.1788461914e+003;4.1769228516e+003;4.1957690430e+003;4.1791025391e+003;4.1779487305e+003;4.1730771484e+003;4.1738461914e+003;4.1796152344e+003;4.1780771484e+003;4.1782050781e+003;4.1557690430e+003;4.0019230957e+003;3.8292307129e+003;
1.0156250000e-001;3.4206411133e+003;4.1844873047e+003;4.1806411133e+003;4.1910258789e+003;4.1734614258e+003;4.1771796875e+003;4.1739741211e+003;4.1738461914e+003;4.1773076172e+003;4.1858974609e+003;4.1942309570e+003;4.1676923828e+003;4.0171794434e+003;3.8415385742e+003;
1.0937500000e-001;3.4256411133e+003;4.1923076172e+003;4.1842309570e+003;4.2007690430e+003;4.1846152344e+003;4.1732050781e+003;4.1752563477e+003;4.1694873047e+003;4.1719228516e+003;4.1851284180e+003;4.1962822266e+003;4.1753847656e+003;4.0293588867e+003;3.8539743652e+003;
1.1718750000e-001;3.4278205566e+003;4.1941025391e+003;4.1866665039e+003;4.2026923828e+003;4.1880771484e+003;4.1717949219e+003;4.1762822266e+003;4.1706411133e+003;4.1671796875e+003;4.1835898438e+003;4.1974360352e+003;4.1787177734e+003;4.0310256348e+003;3.8567949219e+003;
1.2500000000e-001;3.4296154785e+003;4.1903847656e+003;4.1856411133e+003;4.1994873047e+003;4.1747436523e+003;4.1723076172e+003;4.1774360352e+003;4.1693588867e+003;4.1598715820e+003;4.1742309570e+003;4.1969228516e+003;4.1808974609e+003;4.0251281738e+003;3.8498718262e+003;
1.3281250000e-001;3.4211538086e+003;4.1878203125e+003;4.1784614258e+003;4.1925639648e+003;4.1784614258e+003;4.1815385742e+003;4.1785898438e+003;4.1720512695e+003;4.1725639648e+003;4.1852563477e+003;4.1893588867e+003;4.1743588867e+003;4.0215385742e+003;3.8493588867e+003;
1.4062500000e-001;3.4203845215e+003;4.1880771484e+003;4.1764101563e+003;4.1905126953e+003;4.1857690430e+003;4.1869228516e+003;4.1815385742e+003;4.1775639648e+003;4.1789741211e+003;4.1915385742e+003;4.1915385742e+003;4.1744873047e+003;4.0241025391e+003;3.8480769043e+003;
1.4843750000e-001;3.4191025391e+003;4.1861538086e+003;4.1721796875e+003;4.1885898438e+003;4.1910258789e+003;4.1923076172e+003;4.1839741211e+003;4.1820512695e+003;4.1864101563e+003;4.1967949219e+003;4.1956411133e+003;4.1734614258e+003;4.0271794434e+003;3.8448718262e+003;
1.5625000000e-001;3.4123076172e+003;4.1782050781e+003;4.1632050781e+003;4.1878203125e+003;4.1888461914e+003;4.1979487305e+003;4.1853847656e+003;4.1833334961e+003;4.1956411133e+003;4.1974360352e+003;4.1951284180e+003;4.1669228516e+003;4.0256411133e+003;3.8360256348e+003;
1.6406250000e-001;3.4106411133e+003;4.1767949219e+003;4.1629487305e+003;4.1897436523e+003;4.1848715820e+003;4.1978203125e+003;4.1848715820e+003;4.1821796875e+003;4.1943588867e+003;4.1929487305e+003;4.1889741211e+003;4.1635898438e+003;4.0215385742e+003;3.8325642090e+003;
1.7187500000e-001;3.4171794434e+003;4.1821796875e+003;4.1701284180e+003;4.1924360352e+003;4.1848715820e+003;4.1967949219e+003;4.1844873047e+003;4.1794873047e+003;4.1876923828e+003;4.1815385742e+003;4.1838461914e+003;4.1576923828e+003;4.0179487305e+003;3.8282050781e+003;
1.7968750000e-001;3.4152563477e+003;4.1803847656e+003;4.1706411133e+003;4.1914101563e+003;4.1823076172e+003;4.1950000000e+003;4.1869228516e+003;4.1780771484e+003;4.1880771484e+003;4.1797436523e+003;4.1861538086e+003;4.1579487305e+003;4.0174357910e+003;3.8276923828e+003;
1.8750000000e-001;3.4085898438e+003;4.1742309570e+003;4.1701284180e+003;4.1907690430e+003;4.1751284180e+003;4.1906411133e+003;4.1916665039e+003;4.1775639648e+003;4.1884614258e+003;4.1810258789e+003;4.1867949219e+003;4.1605126953e+003;4.0158974609e+003;3.8288461914e+003;
1.9531250000e-001;3.4098718262e+003;4.1747436523e+003;4.1689741211e+003;4.1916665039e+003;4.1765385742e+003;4.1906411133e+003;4.1916665039e+003;4.1787177734e+003;4.1887177734e+003;4.1844873047e+003;4.1865385742e+003;4.1602563477e+003;4.0176923828e+003;3.8294870605e+003;
2.0312500000e-001;3.4135898438e+003;4.1787177734e+003;4.1676923828e+003;4.1934614258e+003;4.1806411133e+003;4.1919228516e+003;4.1907690430e+003;4.1803847656e+003;4.1887177734e+003;4.1876923828e+003;4.1867949219e+003;4.1583334961e+003;4.0202563477e+003;3.8285898438e+003;
2.1093750000e-001;3.4241025391e+003;4.1833334961e+003;4.1770512695e+003;4.1958974609e+003;4.1816665039e+003;4.1829487305e+003;4.1919228516e+003;4.1828203125e+003;4.1858974609e+003;4.1843588867e+003;4.1858974609e+003;4.1608974609e+003;4.0167949219e+003;3.8339743652e+003;
2.1875000000e-001;3.4284614258e+003;4.1825639648e+003;4.1769228516e+003;4.1971796875e+003;4.1823076172e+003;4.1788461914e+003;4.1878203125e+003;4.1842309570e+003;4.1835898438e+003;4.1839741211e+003;4.1861538086e+003;4.1628203125e+003;4.0175642090e+003;3.8360256348e+003;
2.2656250000e-001;3.4400000000e+003;4.1950000000e+003;4.1865385742e+003;4.2080771484e+003;4.1806411133e+003;4.1696152344e+003;4.1861538086e+003;4.1866665039e+003;4.1770512695e+003;4.1856411133e+003;4.1952563477e+003;4.1725639648e+003;4.0251281738e+003;3.8350000000e+003;
2.3437500000e-001;3.4402563477e+003;4.1930771484e+003;4.1832050781e+003;4.2035898438e+003;4.1773076172e+003;4.1671796875e+003;4.1792309570e+003;4.1797436523e+003;4.1767949219e+003;4.1857690430e+003;4.1921796875e+003;4.1692309570e+003;4.0241025391e+003;3.8379487305e+003;
2.4218750000e-001;3.4358974609e+003;4.1900000000e+003;4.1802563477e+003;4.2012822266e+003;4.1771796875e+003;4.1688461914e+003;4.1730771484e+003;4.1769228516e+003;4.1761538086e+003;4.1837177734e+003;4.1869228516e+003;4.1664101563e+003;4.0214101563e+003;3.8370512695e+003;
2.5000000000e-001;3.4193588867e+003;4.1778203125e+003;4.1641025391e+003;4.1914101563e+003;4.1756411133e+003;4.1808974609e+003;4.1651284180e+003;4.1693588867e+003;4.1816665039e+003;4.1797436523e+003;4.1783334961e+003;4.1551284180e+003;4.0130769043e+003;3.8217949219e+003;
2.5781250000e-001;3.4166667480e+003;4.1711538086e+003;4.1607690430e+003;4.1894873047e+003;4.1867949219e+003;4.1919228516e+003;4.1785898438e+003;4.1769228516e+003;4.1901284180e+003;4.1829487305e+003;4.1787177734e+003;4.1507690430e+003;4.0102563477e+003;3.8232050781e+003;
2.6562500000e-001;3.4175642090e+003;4.1692309570e+003;4.1596152344e+003;4.1885898438e+003;4.1894873047e+003;4.1938461914e+003;4.1783334961e+003;4.1775639648e+003;4.1911538086e+003;4.1847436523e+003;4.1776923828e+003;4.1487177734e+003;4.0116667480e+003;3.8234614258e+003;
2.7343750000e-001;3.4171794434e+003;4.1671796875e+003;4.1569228516e+003;4.1870512695e+003;4.1873076172e+003;4.1937177734e+003;4.1774360352e+003;4.1765385742e+003;4.1891025391e+003;4.1833334961e+003;4.1755126953e+003;4.1461538086e+003;4.0115385742e+003;3.8214101563e+003;
2.8125000000e-001;3.4180769043e+003;4.1688461914e+003;4.1562822266e+003;4.1869228516e+003;4.1791025391e+003;4.1917949219e+003;4.1800000000e+003;4.1750000000e+003;4.1834614258e+003;4.1792309570e+003;4.1758974609e+003;4.1489741211e+003;4.0116667480e+003;3.8226923828e+003;
2.8906250000e-001;3.4221794434e+003;4.1747436523e+003;4.1593588867e+003;4.1896152344e+003;4.1810258789e+003;4.1925639648e+003;4.1833334961e+003;4.1765385742e+003;4.1856411133e+003;4.1829487305e+003;4.1819228516e+003;4.1552563477e+003;4.0173076172e+003;3.8300000000e+003;
2.9687500000e-001;3.4347436523e+003;4.1919228516e+003;4.1689741211e+003;4.2006411133e+003;4.1917949219e+003;4.1951284180e+003;4.1961538086e+003;4.1893588867e+003;4.2021796875e+003;4.2069228516e+003;4.2023076172e+003;4.1738461914e+003;4.0406411133e+003;3.8512819824e+003;
3.0468750000e-001;3.4387180176e+003;4.1924360352e+003;4.1737177734e+003;4.2025639648e+003;4.1906411133e+003;4.1934614258e+003;4.1987177734e+003;4.1932050781e+003;4.2023076172e+003;4.2103847656e+003;4.2055126953e+003;4.1785898438e+003;4.0423076172e+003;3.8543588867e+003;
3.1250000000e-001;3.4471794434e+003;4.1883334961e+003;4.1805126953e+003;4.1985898438e+003;4.1914101563e+003;4.1869228516e+003;4.1939741211e+003;4.1923076172e+003;4.1943588867e+003;4.2060258789e+003;4.2073076172e+003;4.1796152344e+003;4.0380769043e+003;3.8557692871e+003;
3.2031250000e-001;3.4475642090e+003;4.1867949219e+003;4.1794873047e+003;4.1947436523e+003;4.1907690430e+003;4.1816665039e+003;4.1896152344e+003;4.1888461914e+003;4.1885898438e+003;4.1997436523e+003;4.2038461914e+003;4.1747436523e+003;4.0341025391e+003;3.8517949219e+003;
3.2812500000e-001;3.4452563477e+003;4.1864101563e+003;4.1775639648e+003;4.1929487305e+003;4.1874360352e+003;4.1765385742e+003;4.1871796875e+003;4.1865385742e+003;4.1830771484e+003;4.1933334961e+003;4.1982050781e+003;4.1694873047e+003;4.0302563477e+003;3.8451281738e+003;
3.3593750000e-001;3.4585898438e+003;4.1915385742e+003;4.1858974609e+003;4.2065385742e+003;4.1848715820e+003;4.1798715820e+003;4.1921796875e+003;4.1880771484e+003;4.1814101563e+003;4.1873076172e+003;4.1950000000e+003;4.1792309570e+003;4.0305129395e+003;3.8533332520e+003;
3.4375000000e-001;3.4583332520e+003;4.1901284180e+003;4.1843588867e+003;4.2039741211e+003;4.1832050781e+003;4.1774360352e+003;4.1887177734e+003;4.1838461914e+003;4.1779487305e+003;4.1814101563e+003;4.1928203125e+003;4.1789741211e+003;4.0293588867e+003;3.8544870605e+003;
3.5156250000e-001;3.4511538086e+003;4.1861538086e+003;4.1773076172e+003;4.1997436523e+003;4.1858974609e+003;4.1737177734e+003;4.1712822266e+003;4.1770512695e+003;4.1787177734e+003;4.1842309570e+003;4.1879487305e+003;4.1725639648e+003;4.0334614258e+003;3.8461538086e+003;
3.5937500000e-001;3.4489743652e+003;4.1900000000e+003;4.1730771484e+003;4.2051284180e+003;4.1808974609e+003;4.1864101563e+003;4.1675639648e+003;4.1716665039e+003;4.1882050781e+003;4.1892309570e+003;4.1839741211e+003;4.1638461914e+003;4.0217949219e+003;3.8412819824e+003;
3.6718750000e-001;3.4429487305e+003;4.1866665039e+003;4.1656411133e+003;4.1991025391e+003;4.1826923828e+003;4.1910258789e+003;4.1671796875e+003;4.1683334961e+003;4.1882050781e+003;4.1851284180e+003;4.1798715820e+003;4.1567949219e+003;4.0175642090e+003;3.8378205566e+003;
3.7500000000e-001;3.4158974609e+003;4.1597436523e+003;4.1452563477e+003;4.1755126953e+003;4.1860258789e+003;4.2011538086e+003;4.1792309570e+003;4.1726923828e+003;4.1874360352e+003;4.1756411133e+003;4.1570512695e+003;4.1388461914e+003;4.0001281738e+003;3.8153845215e+003;
3.8281250000e-001;3.4144870605e+003;4.1541025391e+003;4.1455126953e+003;4.1742309570e+003;4.1843588867e+003;4.2050000000e+003;4.1864101563e+003;4.1764101563e+003;4.1911538086e+003;4.1775639648e+003;4.1553847656e+003;4.1405126953e+003;3.9956411133e+003;3.8144870605e+003;
3.9062500000e-001;3.4251281738e+003;4.1566665039e+003;4.1505126953e+003;4.1787177734e+003;4.1832050781e+003;4.2064101563e+003;4.1941025391e+003;4.1783334961e+003;4.1976923828e+003;4.1878203125e+003;4.1698715820e+003;4.1515385742e+003;4.0026923828e+003;3.8276923828e+003;
3.9843750000e-001;3.4317949219e+003;4.1626923828e+003;4.1546152344e+003;4.1826923828e+003;4.1841025391e+003;4.2020512695e+003;4.1947436523e+003;4.1776923828e+003;4.1969228516e+003;4.1917949219e+003;4.1791025391e+003;4.1574360352e+003;4.0115385742e+003;3.8351281738e+003;
4.0625000000e-001;3.4485898438e+003;4.1773076172e+003;4.1689741211e+003;4.1938461914e+003;4.1867949219e+003;4.1907690430e+003;4.1925639648e+003;4.1825639648e+003;4.1970512695e+003;4.1978203125e+003;4.1891025391e+003;4.1693588867e+003;4.0285898438e+003;3.8451281738e+003;
4.1406250000e-001;3.4535898438e+003;4.1787177734e+003;4.1710258789e+003;4.1952563477e+003;4.1873076172e+003;4.1907690430e+003;4.1933334961e+003;4.1842309570e+003;4.1984614258e+003;4.1984614258e+003;4.1884614258e+003;4.1702563477e+003;4.0283332520e+003;3.8461538086e+003;
4.2187500000e-001;3.4628205566e+003;4.1816665039e+003;4.1800000000e+003;4.1946152344e+003;4.1871796875e+003;4.1832050781e+003;4.1979487305e+003;4.1862822266e+003;4.1911538086e+003;4.1897436523e+003;4.1902563477e+003;4.1773076172e+003;4.0198718262e+003;3.8496154785e+003;
4.2968750000e-001;3.4650000000e+003;4.1826923828e+003;4.1823076172e+003;4.1953847656e+003;4.1856411133e+003;4.1783334961e+003;4.1946152344e+003;4.1889741211e+003;4.1914101563e+003;4.1893588867e+003;4.1939741211e+003;4.1817949219e+003;4.0208974609e+003;3.8517949219e+003;
4.3750000000e-001;3.4679487305e+003;4.1835898438e+003;4.1846152344e+003;4.1988461914e+003;4.1817949219e+003;4.1729487305e+003;4.1898715820e+003;4.1939741211e+003;4.1951284180e+003;4.1916665039e+003;4.1982050781e+003;4.1871796875e+003;4.0265385742e+003;3.8574357910e+003;
4.4531250000e-001;3.4700000000e+003;4.1841025391e+003;4.1879487305e+003;4.2003847656e+003;4.1810258789e+003;4.1726923828e+003;4.1915385742e+003;4.1916665039e+003;4.1933334961e+003;4.1902563477e+003;4.1969228516e+003;4.1875639648e+003;4.0274357910e+003;3.8597436523e+003;
4.5312500000e-001;3.4728205566e+003;4.1843588867e+003;4.1923076172e+003;4.2008974609e+003;4.1814101563e+003;4.1734614258e+003;4.1928203125e+003;4.1852563477e+003;4.1893588867e+003;4.1874360352e+003;4.1947436523e+003;4.1865385742e+003;4.0261538086e+003;3.8605129395e+003;
4.6093750000e-001;3.4643588867e+003;4.1737177734e+003;4.1805126953e+003;4.1958974609e+003;4.1751284180e+003;4.1757690430e+003;4.1697436523e+003;4.1679487305e+003;4.1896152344e+003;4.1778203125e+003;4.1823076172e+003;4.1735898438e+003;4.0134614258e+003;3.8460256348e+003;
4.6875000000e-001;3.4642307129e+003;4.1719228516e+003;4.1784614258e+003;4.1961538086e+003;4.1732050781e+003;4.1785898438e+003;4.1706411133e+003;4.1687177734e+003;4.1914101563e+003;4.1783334961e+003;4.1811538086e+003;4.1717949219e+003;4.0161538086e+003;3.8435898438e+003;
4.7656250000e-001;3.4566667480e+003;4.1666665039e+003;4.1697436523e+003;4.1911538086e+003;4.1842309570e+003;4.1917949219e+003;4.1833334961e+003;4.1652563477e+003;4.1893588867e+003;4.1761538086e+003;4.1798715820e+003;4.1665385742e+003;4.0106411133e+003;3.8392307129e+003;
4.8437500000e-001;3.4502563477e+003;4.1644873047e+003;4.1661538086e+003;4.1865385742e+003;4.1896152344e+003;4.1933334961e+003;4.1873076172e+003;4.1643588867e+003;4.1891025391e+003;4.1760258789e+003;4.1801284180e+003;4.1666665039e+003;4.0088461914e+003;3.8397436523e+003;
4.9218750000e-001;3.4452563477e+003;4.1626923828e+003;4.1565385742e+003;4.1780771484e+003;4.1937177734e+003;4.1951284180e+003;4.1917949219e+003;4.1655126953e+003;4.1916665039e+003;4.1814101563e+003;4.1805126953e+003;4.1626923828e+003;4.0146154785e+003;3.8373076172e+003;
5.0000000000e-001;3.4539743652e+003;4.1716665039e+003;4.1560258789e+003;4.1853847656e+003;4.1870512695e+003;4.2002563477e+003;4.2034614258e+003;4.1838461914e+003;4.1907690430e+003;4.1878203125e+003;4.1792309570e+003;4.1591025391e+003;4.0117949219e+003;3.8326923828e+003;
5.0781250000e-001;3.4524357910e+003;4.1688461914e+003;4.1557690430e+003;4.1829487305e+003;4.1871796875e+003;4.1988461914e+003;4.2010258789e+003;4.1819228516e+003;4.1925639648e+003;4.1882050781e+003;4.1797436523e+003;4.1603847656e+003;4.0114101563e+003;3.8378205566e+003;
5.1562500000e-001;3.4521794434e+003;4.1632050781e+003;4.1564101563e+003;4.1779487305e+003;4.1816665039e+003;4.1916665039e+003;4.1984614258e+003;4.1732050781e+003;4.1920512695e+003;4.1862822266e+003;4.1785898438e+003;4.1605126953e+003;4.0153845215e+003;3.8407692871e+003;
5.2343750000e-001;3.4565385742e+003;4.1651284180e+003;4.1601284180e+003;4.1806411133e+003;4.1792309570e+003;4.1901284180e+003;4.1989741211e+003;4.1716665039e+003;4.1889741211e+003;4.1853847656e+003;4.1798715820e+003;4.1616665039e+003;4.0197436523e+003;3.8394870605e+003;
5.3125000000e-001;3.4726923828e+003;4.1785898438e+003;4.1738461914e+003;4.1943588867e+003;4.1870512695e+003;4.1915385742e+003;4.1955126953e+003;4.1744873047e+003;4.1788461914e+003;4.1829487305e+003;4.1903847656e+003;4.1723076172e+003;4.0314101563e+003;3.8505129395e+003;
5.3906250000e-001;3.4738461914e+003;4.1798715820e+003;4.1771796875e+003;4.1962822266e+003;4.1884614258e+003;4.1882050781e+003;4.1938461914e+003;4.1726923828e+003;4.1766665039e+003;4.1798715820e+003;4.1901284180e+003;4.1756411133e+003;4.0302563477e+003;3.8569230957e+003;
5.4687500000e-001;3.4744870605e+003;4.1800000000e+003;4.1797436523e+003;4.1973076172e+003;4.1874360352e+003;4.1828203125e+003;4.1915385742e+003;4.1691025391e+003;4.1757690430e+003;4.1762822266e+003;4.1889741211e+003;4.1776923828e+003;4.0278205566e+003;3.8614101563e+003;
5.5468750000e-001;3.4762819824e+003;4.1798715820e+003;4.1806411133e+003;4.1974360352e+003;4.1848715820e+003;4.1771796875e+003;4.1878203125e+003;4.1653847656e+003;4.1756411133e+003;4.1734614258e+003;4.1888461914e+003;4.1782050781e+003;4.0261538086e+003;3.8628205566e+003;
5.6250000000e-001;3.4814101563e+003;4.1823076172e+003;4.1802563477e+003;4.1970512695e+003;4.1806411133e+003;4.1765385742e+003;4.1712822266e+003;4.1689741211e+003;4.1798715820e+003;4.1728203125e+003;4.1892309570e+003;4.1788461914e+003;4.0307692871e+003;3.8556411133e+003;
5.7031250000e-001;3.4798718262e+003;4.1837177734e+003;4.1808974609e+003;4.1980771484e+003;4.1887177734e+003;4.1829487305e+003;4.1702563477e+003;4.1693588867e+003;4.1867949219e+003;4.1779487305e+003;4.1905126953e+003;4.1789741211e+003;4.0338461914e+003;3.8576923828e+003;
5.7812500000e-001;3.4676923828e+003;4.1747436523e+003;4.1639741211e+003;4.1865385742e+003;4.1884614258e+003;4.1917949219e+003;4.1778203125e+003;4.1675639648e+003;4.2028203125e+003;4.1891025391e+003;4.1901284180e+003;4.1641025391e+003;4.0241025391e+003;3.8551281738e+003;
5.8593750000e-001;3.4523076172e+003;4.1633334961e+003;4.1537177734e+003;4.1760258789e+003;4.1711538086e+003;4.1962822266e+003;4.1861538086e+003;4.1742309570e+003;4.2058974609e+003;4.1891025391e+003;4.1747436523e+003;4.1480771484e+003;4.0164101563e+003;3.8379487305e+003;
5.9375000000e-001;3.4511538086e+003;4.1630771484e+003;4.1507690430e+003;4.1761538086e+003;4.1789741211e+003;4.2017949219e+003;4.1901284180e+003;4.1744873047e+003;4.2080771484e+003;4.1901284180e+003;4.1743588867e+003;4.1450000000e+003;4.0169230957e+003;3.8338461914e+003;
6.0156250000e-001;3.4492307129e+003;4.1666665039e+003;4.1391025391e+003;4.1779487305e+003;4.1950000000e+003;4.2106411133e+003;4.2062822266e+003;4.1770512695e+003;4.2092309570e+003;4.1916665039e+003;4.1714101563e+003;4.1389741211e+003;4.0125642090e+003;3.8258974609e+003;
6.0937500000e-001;3.4569230957e+003;4.1666665039e+003;4.1416665039e+003;4.1792309570e+003;4.1870512695e+003;4.2057690430e+003;4.1976923828e+003;4.1750000000e+003;4.2008974609e+003;4.1911538086e+003;4.1655126953e+003;4.1393588867e+003;4.0135898438e+003;3.8228205566e+003;
6.1718750000e-001;3.4621794434e+003;4.1696152344e+003;4.1475639648e+003;4.1832050781e+003;4.1885898438e+003;4.2024360352e+003;4.1946152344e+003;4.1714101563e+003;4.1957690430e+003;4.1875639648e+003;4.1678203125e+003;4.1424360352e+003;4.0150000000e+003;3.8253845215e+003;
6.2500000000e-001;3.4689743652e+003;4.1733334961e+003;4.1528203125e+003;4.1873076172e+003;4.1919228516e+003;4.1991025391e+003;4.1932050781e+003;4.1701284180e+003;4.1915385742e+003;4.1846152344e+003;4.1717949219e+003;4.1467949219e+003;4.0180769043e+003;3.8305129395e+003;
6.3281250000e-001;3.4817949219e+003;4.1765385742e+003;4.1575639648e+003;4.1903847656e+003;4.1930771484e+003;4.1901284180e+003;4.1937177734e+003;4.1782050781e+003;4.1857690430e+003;4.1815385742e+003;4.1760258789e+003;4.1558974609e+003;4.0255129395e+003;3.8421794434e+003;
6.4062500000e-001;3.4858974609e+003;4.1762822266e+003;4.1606411133e+003;4.1908974609e+003;4.1889741211e+003;4.1835898438e+003;4.1943588867e+003;4.1829487305e+003;4.1812822266e+003;4.1788461914e+003;4.1752563477e+003;4.1603847656e+003;4.0264101563e+003;3.8457692871e+003;
6.4843750000e-001;3.4971794434e+003;4.1761538086e+003;4.1751284180e+003;4.1946152344e+003;4.1844873047e+003;4.1738461914e+003;4.1919228516e+003;4.1797436523e+003;4.1719228516e+003;4.1729487305e+003;4.1776923828e+003;4.1705126953e+003;4.0260256348e+003;3.8533332520e+003;
6.5625000000e-001;3.5062819824e+003;4.1773076172e+003;4.1820512695e+003;4.1971796875e+003;4.1866665039e+003;4.1735898438e+003;4.1880771484e+003;4.1726923828e+003;4.1701284180e+003;4.1726923828e+003;4.1828203125e+003;4.1750000000e+003;4.0296154785e+003;3.8598718262e+003;
6.6406250000e-001;3.5250000000e+003;4.1889741211e+003;4.1896152344e+003;4.2094873047e+003;4.1925639648e+003;4.1761538086e+003;4.1811538086e+003;4.1665385742e+003;4.1688461914e+003;4.1755126953e+003;4.1943588867e+003;4.1850000000e+003;4.0424357910e+003;3.8775642090e+003;
6.7187500000e-001;3.5229487305e+003;4.1914101563e+003;4.1889741211e+003;4.2107690430e+003;4.1920512695e+003;4.1764101563e+003;4.1812822266e+003;4.1705126953e+003;4.1689741211e+003;4.1766665039e+003;4.1943588867e+003;4.1862822266e+003;4.0402563477e+003;3.8762819824e+003;
6.7968750000e-001;3.5169230957e+003;4.1893588867e+003;4.1853847656e+003;4.2075639648e+003;4.1903847656e+003;4.1776923828e+003;4.1817949219e+003;4.1746152344e+003;4.1716665039e+003;4.1785898438e+003;4.1928203125e+003;4.1842309570e+003;4.0365385742e+003;3.8706411133e+003;
6.8750000000e-001;3.5105129395e+003;4.1803847656e+003;4.1737177734e+003;4.1970512695e+003;4.1952563477e+003;4.1997436523e+003;4.2012822266e+003;4.1884614258e+003;4.2057690430e+003;4.2014101563e+003;4.1957690430e+003;4.1780771484e+003;4.0467949219e+003;3.8694870605e+003;
6.9531250000e-001;3.5114101563e+003;4.1807690430e+003;4.1734614258e+003;4.1969228516e+003;4.1979487305e+003;4.2005126953e+003;4.1994873047e+003;4.1870512695e+003;4.2070512695e+003;4.2035898438e+003;4.1984614258e+003;4.1767949219e+003;4.0461538086e+003;3.8688461914e+003;
7.0312500000e-001;3.5025642090e+003;4.1733334961e+003;4.1700000000e+003;4.1924360352e+003;4.1884614258e+003;4.1992309570e+003;4.1978203125e+003;4.1862822266e+003;4.2092309570e+003;4.2014101563e+003;4.1873076172e+003;4.1662822266e+003;4.0350000000e+003;3.8543588867e+003;
7.1093750000e-001;3.5003845215e+003;4.1758974609e+003;4.1641025391e+003;4.1930771484e+003;4.1941025391e+003;4.2023076172e+003;4.1928203125e+003;4.1824360352e+003;4.2133334961e+003;4.2050000000e+003;4.1826923828e+003;4.1608974609e+003;4.0375642090e+003;3.8530769043e+003;
7.1875000000e-001;3.4988461914e+003;4.1755126953e+003;4.1620512695e+003;4.1926923828e+003;4.1910258789e+003;4.1984614258e+003;4.1908974609e+003;4.1774360352e+003;4.2071796875e+003;4.1998715820e+003;4.1793588867e+003;4.1580771484e+003;4.0311538086e+003;3.8493588867e+003;
7.2656250000e-001;3.5020512695e+003;4.1726923828e+003;4.1656411133e+003;4.1915385742e+003;4.1753847656e+003;4.1929487305e+003;4.1861538086e+003;4.1703847656e+003;4.1994873047e+003;4.1907690430e+003;4.1779487305e+003;4.1610258789e+003;4.0266667480e+003;3.8507692871e+003;
7.3437500000e-001;3.5061538086e+003;4.1726923828e+003;4.1711538086e+003;4.1952563477e+003;4.1921796875e+003;4.1858974609e+003;4.1803847656e+003;4.1719228516e+003;4.1956411133e+003;4.1896152344e+003;4.1808974609e+003;4.1646152344e+003;4.0357692871e+003;3.8532050781e+003;
7.4218750000e-001;3.5079487305e+003;4.1738461914e+003;4.1714101563e+003;4.1942309570e+003;4.1957690430e+003;4.1811538086e+003;4.1793588867e+003;4.1737177734e+003;4.1916665039e+003;4.1874360352e+003;4.1816665039e+003;4.1650000000e+003;4.0364101563e+003;3.8533332520e+003;
7.5000000000e-001;3.5111538086e+003;4.1765385742e+003;4.1719228516e+003;4.1939741211e+003;4.1948715820e+003;4.1771796875e+003;4.1798715820e+003;4.1773076172e+003;4.1889741211e+003;4.1864101563e+003;4.1846152344e+003;4.1673076172e+003;4.0383332520e+003;3.8567949219e+003;
7.5781250000e-001;3.5196154785e+003;4.1823076172e+003;4.1796152344e+003;4.2008974609e+003;4.1862822266e+003;4.1739741211e+003;4.1856411133e+003;4.1875639648e+003;4.1882050781e+003;4.1892309570e+003;4.1951284180e+003;4.1805126953e+003;4.0470512695e+003;3.8708974609e+003;
7.6562500000e-001;3.5294870605e+003;4.1802563477e+003;4.1888461914e+003;4.2071796875e+003;4.1884614258e+003;4.1757690430e+003;4.1907690430e+003;4.1853847656e+003;4.1984614258e+003;4.1969228516e+003;4.2057690430e+003;4.1932050781e+003;4.0578205566e+003;3.8793588867e+003;
7.7343750000e-001;3.5294870605e+003;4.1784614258e+003;4.1873076172e+003;4.2044873047e+003;4.1889741211e+003;4.1773076172e+003;4.1930771484e+003;4.1834614258e+003;4.2011538086e+003;4.1960258789e+003;4.2062822266e+003;4.1916665039e+003;4.0573076172e+003;3.8770512695e+003;
7.8125000000e-001;3.5282050781e+003;4.1780771484e+003;4.1861538086e+003;4.2016665039e+003;4.1878203125e+003;4.1796152344e+003;4.1962822266e+003;4.1839741211e+003;4.2012822266e+003;4.1941025391e+003;4.2053847656e+003;4.1893588867e+003;4.0561538086e+003;3.8743588867e+003;
7.8906250000e-001;3.5288461914e+003;4.1798715820e+003;4.1848715820e+003;4.2001284180e+003;4.1885898438e+003;4.1865385742e+003;4.1979487305e+003;4.1860258789e+003;4.1989741211e+003;4.1944873047e+003;4.2011538086e+003;4.1848715820e+003;4.0556411133e+003;3.8714101563e+003;
7.9687500000e-001;3.5312819824e+003;4.1796152344e+003;4.1820512695e+003;4.1998715820e+003;4.1906411133e+003;4.1903847656e+003;4.1957690430e+003;4.1851284180e+003;4.1989741211e+003;4.1966665039e+003;4.1988461914e+003;4.1828203125e+003;4.0534614258e+003;3.8703845215e+003;
8.0468750000e-001;3.5326923828e+003;4.1778203125e+003;4.1783334961e+003;4.1984614258e+003;4.1907690430e+003;4.1937177734e+003;4.1939741211e+003;4.1839741211e+003;4.1993588867e+003;4.1975639648e+003;4.1961538086e+003;4.1810258789e+003;4.0484614258e+003;3.8682050781e+003;
8.1250000000e-001;3.5157692871e+003;4.1626923828e+003;4.1634614258e+003;4.1893588867e+003;4.1838461914e+003;4.1917949219e+003;4.1844873047e+003;4.1816665039e+003;4.1978203125e+003;4.1862822266e+003;4.1811538086e+003;4.1611538086e+003;4.0432050781e+003;3.8492307129e+003;
8.2031250000e-001;3.5135898438e+003;4.1606411133e+003;4.1594873047e+003;4.1889741211e+003;4.1800000000e+003;4.1893588867e+003;4.1830771484e+003;4.1755126953e+003;4.1960258789e+003;4.1853847656e+003;4.1789741211e+003;4.1571796875e+003;4.0423076172e+003;3.8464101563e+003;
8.2812500000e-001;3.5192307129e+003;4.1635898438e+003;4.1660258789e+003;4.1896152344e+003;4.1776923828e+003;4.1947436523e+003;4.1838461914e+003;4.1696152344e+003;4.1982050781e+003;4.1873076172e+003;4.1848715820e+003;4.1679487305e+003;4.0357692871e+003;3.8475642090e+003;
8.3593750000e-001;3.5233332520e+003;4.1705126953e+003;4.1705126953e+003;4.1947436523e+003;4.1870512695e+003;4.1915385742e+003;4.1898715820e+003;4.1784614258e+003;4.1987177734e+003;4.1883334961e+003;4.1856411133e+003;4.1650000000e+003;4.0338461914e+003;3.8508974609e+003;
8.4375000000e-001;3.5283332520e+003;4.1746152344e+003;4.1737177734e+003;4.1996152344e+003;4.1907690430e+003;4.1884614258e+003;4.1897436523e+003;4.1811538086e+003;4.1975639648e+003;4.1908974609e+003;4.1883334961e+003;4.1650000000e+003;4.0374357910e+003;3.8553845215e+003;
8.5156250000e-001;3.5452563477e+003;4.1805126953e+003;4.1833334961e+003;4.2046152344e+003;4.1838461914e+003;4.1782050781e+003;4.1928203125e+003;4.1975639648e+003;4.2003847656e+003;4.1970512695e+003;4.1989741211e+003;4.1765385742e+003;4.0533332520e+003;3.8657692871e+003;
8.5937500000e-001;3.5451281738e+003;4.1794873047e+003;4.1856411133e+003;4.2041025391e+003;4.1748715820e+003;4.1742309570e+003;4.1973076172e+003;4.2052563477e+003;4.2020512695e+003;4.1951284180e+003;4.1983334961e+003;4.1792309570e+003;4.0539743652e+003;3.8656411133e+003;
8.6718750000e-001;3.5414101563e+003;4.1747436523e+003;4.1866665039e+003;4.2011538086e+003;4.1712822266e+003;4.1734614258e+003;4.2010258789e+003;4.2120512695e+003;4.2066665039e+003;4.1946152344e+003;4.1971796875e+003;4.1807690430e+003;4.0511538086e+003;3.8675642090e+003;
8.7500000000e-001;3.5396154785e+003;4.1723076172e+003;4.1851284180e+003;4.1988461914e+003;4.1780771484e+003;4.1765385742e+003;4.1998715820e+003;4.2085898438e+003;4.2064101563e+003;4.1955126953e+003;4.1970512695e+003;4.1793588867e+003;4.0494870605e+003;3.8679487305e+003;
8.8281250000e-001;3.5375642090e+003;4.1756411133e+003;4.1825639648e+003;4.1982050781e+003;4.1907690430e+003;4.1887177734e+003;4.1935898438e+003;4.1925639648e+003;4.1953847656e+003;4.1938461914e+003;4.1956411133e+003;4.1758974609e+003;4.0517949219e+003;3.8611538086e+003;
8.9062500000e-001;3.5394870605e+003;4.1782050781e+003;4.1815385742e+003;4.1994873047e+003;4.1889741211e+003;4.1928203125e+003;4.1903847656e+003;4.1903847656e+003;4.1953847656e+003;4.1932050781e+003;4.1960258789e+003;4.1752563477e+003;4.0543588867e+003;3.8601281738e+003;
8.9843750000e-001;3.5433332520e+003;4.1775639648e+003;4.1788461914e+003;4.2017949219e+003;4.1866665039e+003;4.1962822266e+003;4.1884614258e+003;4.1862822266e+003;4.1970512695e+003;4.1885898438e+003;4.1916665039e+003;4.1728203125e+003;4.0534614258e+003;3.8608974609e+003;
9.0625000000e-001;3.5441025391e+003;4.1750000000e+003;4.1784614258e+003;4.2028203125e+003;4.1883334961e+003;4.1956411133e+003;4.1897436523e+003;4.1820512695e+003;4.1960258789e+003;4.1864101563e+003;4.1883334961e+003;4.1734614258e+003;4.0506411133e+003;3.8629487305e+003;
9.1406250000e-001;3.5464101563e+003;4.1683334961e+003;4.1738461914e+003;4.1969228516e+003;4.1898715820e+003;4.1946152344e+003;4.1837177734e+003;4.1680771484e+003;4.1923076172e+003;4.1942309570e+003;4.1912822266e+003;4.1773076172e+003;4.0489743652e+003;3.8657692871e+003;
9.2187500000e-001;3.5456411133e+003;4.1670512695e+003;4.1735898438e+003;4.1941025391e+003;4.1867949219e+003;4.1935898438e+003;4.1811538086e+003;4.1679487305e+003;4.1917949219e+003;4.1947436523e+003;4.1912822266e+003;4.1735898438e+003;4.0473076172e+003;3.8614101563e+003;
9.2968750000e-001;3.5442307129e+003;4.1662822266e+003;4.1753847656e+003;4.1924360352e+003;4.1842309570e+003;4.1917949219e+003;4.1807690430e+003;4.1706411133e+003;4.1916665039e+003;4.1917949219e+003;4.1885898438e+003;4.1680771484e+003;4.0444870605e+003;3.8555129395e+003;
9.3750000000e-001;3.5428205566e+003;4.1656411133e+003;4.1770512695e+003;4.1916665039e+003;4.1826923828e+003;4.1896152344e+003;4.1810258789e+003;4.1742309570e+003;4.1915385742e+003;4.1879487305e+003;4.1850000000e+003;4.1625639648e+003;4.0423076172e+003;3.8506411133e+003;
9.4531250000e-001;3.5393588867e+003;4.1616665039e+003;4.1693588867e+003;4.1910258789e+003;4.1737177734e+003;4.1808974609e+003;4.1832050781e+003;4.1811538086e+003;4.1875639648e+003;4.1857690430e+003;4.1788461914e+003;4.1610258789e+003;4.0353845215e+003;3.8493588867e+003;
9.5312500000e-001;3.5342307129e+003;4.1566665039e+003;4.1632050781e+003;4.1903847656e+003;4.1798715820e+003;4.1755126953e+003;4.1824360352e+003;4.1765385742e+003;4.1952563477e+003;4.1869228516e+003;4.1801284180e+003;4.1561538086e+003;4.0397436523e+003;3.8473076172e+003;
9.6093750000e-001;3.5323076172e+003;4.1553847656e+003;4.1583334961e+003;4.1901284180e+003;4.1758974609e+003;4.1739741211e+003;4.1847436523e+003;4.1780771484e+003;4.1948715820e+003;4.1867949219e+003;4.1791025391e+003;4.1532050781e+003;4.0420512695e+003;3.8474357910e+003;
9.6875000000e-001;3.5310256348e+003;4.1538461914e+003;4.1551284180e+003;4.1893588867e+003;4.1774360352e+003;4.1758974609e+003;4.1916665039e+003;4.1837177734e+003;4.1957690430e+003;4.1874360352e+003;4.1792309570e+003;4.1533334961e+003;4.0405129395e+003;3.8470512695e+003;
9.7656250000e-001;3.5417949219e+003;4.1607690430e+003;4.1684614258e+003;4.1893588867e+003;4.1748715820e+003;4.1800000000e+003;4.1947436523e+003;4.1819228516e+003;4.1906411133e+003;4.1842309570e+003;4.1802563477e+003;4.1600000000e+003;4.0364101563e+003;3.8491025391e+003;
9.8437500000e-001;3.5493588867e+003;4.1617949219e+003;4.1708974609e+003;4.1897436523e+003;4.1694873047e+003;4.1814101563e+003;4.1917949219e+003;4.1807690430e+003;4.1933334961e+003;4.1853847656e+003;4.1844873047e+003;4.1625639648e+003;4.0443588867e+003;3.8558974609e+003;
9.9218750000e-001;3.5550000000e+003;4.1648715820e+003;4.1697436523e+003;4.1898715820e+003;4.1756411133e+003;4.1888461914e+003;4.1857690430e+003;4.1775639648e+003;4.1966665039e+003;4.1884614258e+003;4.1915385742e+003;4.1669228516e+003;4.0562819824e+003;3.8664101563e+003;
1.0000000000e+000;3.5528205566e+003;4.1680771484e+003;4.1684614258e+003;4.1914101563e+003;4.1851284180e+003;4.1920512695e+003;4.1829487305e+003;4.1751284180e+003;4.1932050781e+003;4.1871796875e+003;4.1897436523e+003;4.1688461914e+003;4.0550000000e+003;3.8660256348e+003;
1.0078125000e+000;3.5575642090e+003;4.1702563477e+003;4.1662822266e+003;4.1901284180e+003;4.1956411133e+003;4.1930771484e+003;4.1732050781e+003;4.1665385742e+003;4.1910258789e+003;4.1835898438e+003;4.1838461914e+003;4.1648715820e+003;4.0460256348e+003;3.8635898438e+003;
1.0156250000e+000;3.5621794434e+003;4.1679487305e+003;4.1673076172e+003;4.1860258789e+003;4.1891025391e+003;4.1921796875e+003;4.1733334961e+003;4.1678203125e+003;4.1969228516e+003;4.1850000000e+003;4.1861538086e+003;4.1632050781e+003;4.0475642090e+003;3.8666667480e+003;
1.0234375000e+000;3.5642307129e+003;4.1671796875e+003;4.1714101563e+003;4.1835898438e+003;4.1764101563e+003;4.1932050781e+003;4.1787177734e+003;4.1752563477e+003;4.2042309570e+003;4.1896152344e+003;4.1893588867e+003;4.1679487305e+003;4.0537180176e+003;3.8703845215e+003;
1.0312500000e+000;3.5608974609e+003;4.1673076172e+003;4.1688461914e+003;4.1852563477e+003;4.1752563477e+003;4.1942309570e+003;4.1800000000e+003;4.1775639648e+003;4.2042309570e+003;4.1910258789e+003;4.1884614258e+003;4.1683334961e+003;4.0550000000e+003;3.8676923828e+003;
1.0390625000e+000;3.5493588867e+003;4.1600000000e+003;4.1510258789e+003;4.1843588867e+003;4.1846152344e+003;4.1923076172e+003;4.1828203125e+003;4.1821796875e+003;4.2025639648e+003;4.1855126953e+003;4.1842309570e+003;4.1516665039e+003;4.0457692871e+003;3.8542307129e+003;
1.0468750000e+000;3.5494870605e+003;4.1589741211e+003;4.1526923828e+003;4.1839741211e+003;4.1861538086e+003;4.1923076172e+003;4.1869228516e+003;4.1871796875e+003;4.2053847656e+003;4.1857690430e+003;4.1857690430e+003;4.1521796875e+003;4.0460256348e+003;3.8547436523e+003;
1.0546875000e+000;3.5519230957e+003;4.1598715820e+003;4.1569228516e+003;4.1856411133e+003;4.1851284180e+003;4.1928203125e+003;4.1911538086e+003;4.1925639648e+003;4.2100000000e+003;4.1892309570e+003;4.1884614258e+003;4.1564101563e+003;4.0497436523e+003;3.8569230957e+003;
1.0625000000e+000;3.5550000000e+003;4.1623076172e+003;4.1600000000e+003;4.1887177734e+003;4.1816665039e+003;4.1915385742e+003;4.1938461914e+003;4.1964101563e+003;4.2138461914e+003;4.1933334961e+003;4.1901284180e+003;4.1603847656e+003;4.0538461914e+003;3.8580769043e+003;
1.0703125000e+000;3.5612819824e+003;4.1700000000e+003;4.1620512695e+003;4.1930771484e+003;4.1923076172e+003;4.1775639648e+003;4.1939741211e+003;4.1926923828e+003;4.2001284180e+003;4.1828203125e+003;4.1828203125e+003;4.1534614258e+003;4.0491025391e+003;3.8541025391e+003;
1.0781250000e+000;3.5783332520e+003;4.1697436523e+003;4.1751284180e+003;4.1961538086e+003;4.1921796875e+003;4.1857690430e+003;4.1907690430e+003;4.1901284180e+003;4.1970512695e+003;4.1776923828e+003;4.1869228516e+003;4.1624360352e+003;4.0625642090e+003;3.8626923828e+003;
1.0859375000e+000;3.5808974609e+003;4.1717949219e+003;4.1770512695e+003;4.1971796875e+003;4.1905126953e+003;4.1861538086e+003;4.1864101563e+003;4.1879487305e+003;4.1966665039e+003;4.1787177734e+003;4.1903847656e+003;4.1648715820e+003;4.0630769043e+003;3.8662819824e+003;
1.0937500000e+000;3.5856411133e+003;4.1737177734e+003;4.1744873047e+003;4.1950000000e+003;4.1946152344e+003;4.1882050781e+003;4.1744873047e+003;4.1842309570e+003;4.1932050781e+003;4.1800000000e+003;4.1952563477e+003;4.1708974609e+003;4.0612819824e+003;3.8726923828e+003;
1.1015625000e+000;3.5952563477e+003;4.1738461914e+003;4.1800000000e+003;4.1969228516e+003;4.1897436523e+003;4.1923076172e+003;4.1787177734e+003;4.1903847656e+003;4.2003847656e+003;4.1923076172e+003;4.2050000000e+003;4.1769228516e+003;4.0789743652e+003;3.8865385742e+003;
1.1093750000e+000;3.5955129395e+003;4.1732050781e+003;4.1796152344e+003;4.1973076172e+003;4.1907690430e+003;4.1943588867e+003;4.1794873047e+003;4.1898715820e+003;4.2008974609e+003;4.1946152344e+003;4.2047436523e+003;4.1752563477e+003;4.0826923828e+003;3.8882050781e+003;
1.1171875000e+000;3.5891025391e+003;4.1698715820e+003;4.1743588867e+003;4.1956411133e+003;4.1892309570e+003;4.1947436523e+003;4.1817949219e+003;4.1882050781e+003;4.1947436523e+003;4.1874360352e+003;4.1938461914e+003;4.1761538086e+003;4.0691025391e+003;3.8832050781e+003;
1.1250000000e+000;3.5830769043e+003;4.1667949219e+003;4.1692309570e+003;4.1914101563e+003;4.1873076172e+003;4.1933334961e+003;4.1833334961e+003;4.1882050781e+003;4.1929487305e+003;4.1821796875e+003;4.1887177734e+003;4.1755126953e+003;4.0593588867e+003;3.8776923828e+003;
1.1328125000e+000;3.5633332520e+003;4.1562822266e+003;4.1517949219e+003;4.1757690430e+003;4.1823076172e+003;4.1946152344e+003;4.1894873047e+003;4.1941025391e+003;4.1957690430e+003;4.1776923828e+003;4.1833334961e+003;4.1562822266e+003;4.0556411133e+003;3.8600000000e+003;
1.1406250000e+000;3.5621794434e+003;4.1552563477e+003;4.1520512695e+003;4.1761538086e+003;4.1802563477e+003;4.1964101563e+003;4.1914101563e+003;4.1987177734e+003;4.1956411133e+003;4.1775639648e+003;4.1810258789e+003;4.1529487305e+003;4.0569230957e+003;3.8571794434e+003;
1.1484375000e+000;3.5700000000e+003;4.1553847656e+003;4.1562822266e+003;4.1802563477e+003;4.1819228516e+003;4.1956411133e+003;4.1915385742e+003;4.2067949219e+003;4.1964101563e+003;4.1787177734e+003;4.1778203125e+003;4.1552563477e+003;4.0548718262e+003;3.8569230957e+003;
1.1562500000e+000;3.5729487305e+003;4.1538461914e+003;4.1553847656e+003;4.1805126953e+003;4.1828203125e+003;4.1920512695e+003;4.1920512695e+003;4.2078203125e+003;4.1961538086e+003;4.1778203125e+003;4.1774360352e+003;4.1561538086e+003;4.0516667480e+003;3.8569230957e+003;
1.1640625000e+000;3.5737180176e+003;4.1498715820e+003;4.1523076172e+003;4.1769228516e+003;4.1644873047e+003;4.1769228516e+003;4.1950000000e+003;4.2101284180e+003;4.1864101563e+003;4.1675639648e+003;4.1787177734e+003;4.1567949219e+003;4.0460256348e+003;3.8608974609e+003;
1.1718750000e+000;3.5766667480e+003;4.1507690430e+003;4.1548715820e+003;4.1778203125e+003;4.1610258789e+003;4.1755126953e+003;4.1937177734e+003;4.2126923828e+003;4.1855126953e+003;4.1688461914e+003;4.1819228516e+003;4.1582050781e+003;4.0507692871e+003;3.8648718262e+003;
1.1796875000e+000;3.5794870605e+003;4.1517949219e+003;4.1576923828e+003;4.1802563477e+003;4.1641025391e+003;4.1766665039e+003;4.1937177734e+003;4.2142309570e+003;4.1875639648e+003;4.1730771484e+003;4.1846152344e+003;4.1594873047e+003;4.0564101563e+003;3.8661538086e+003;
1.1875000000e+000;3.5810256348e+003;4.1528203125e+003;4.1601284180e+003;4.1839741211e+003;4.1725639648e+003;4.1797436523e+003;4.1964101563e+003;4.2137177734e+003;4.1915385742e+003;4.1783334961e+003;4.1852563477e+003;4.1606411133e+003;4.0596154785e+003;3.8633332520e+003;
1.1953125000e+000;3.5921794434e+003;4.1621796875e+003;4.1610258789e+003;4.1873076172e+003;4.1929487305e+003;4.1962822266e+003;4.1905126953e+003;4.2067949219e+003;4.2076923828e+003;4.2015385742e+003;4.1928203125e+003;4.1647436523e+003;4.0646154785e+003;3.8658974609e+003;
1.2031250000e+000;3.5948718262e+003;4.1626923828e+003;4.1608974609e+003;4.1850000000e+003;4.1894873047e+003;4.1947436523e+003;4.1844873047e+003;4.2071796875e+003;4.2084614258e+003;4.2021796875e+003;4.1965385742e+003;4.1660258789e+003;4.0689743652e+003;3.8716667480e+003;
1.2109375000e+000;3.5993588867e+003;4.1620512695e+003;4.1628203125e+003;4.1852563477e+003;4.1902563477e+003;4.1967949219e+003;4.1864101563e+003;4.2029487305e+003;4.2071796875e+003;4.1925639648e+003;4.1958974609e+003;4.1673076172e+003;4.0750000000e+003;3.8689743652e+003;
1.2187500000e+000;3.5964101563e+003;4.1603847656e+003;4.1605126953e+003;4.1776923828e+003;4.1833334961e+003;4.1958974609e+003;4.1844873047e+003;4.1944873047e+003;4.1938461914e+003;4.1864101563e+003;4.1885898438e+003;4.1600000000e+003;4.0617949219e+003;3.8720512695e+003;
1.2265625000e+000;3.5942307129e+003;4.1574360352e+003;4.1615385742e+003;4.1761538086e+003;4.1815385742e+003;4.1924360352e+003;4.1824360352e+003;4.1889741211e+003;4.1911538086e+003;4.1828203125e+003;4.1851284180e+003;4.1593588867e+003;4.0617949219e+003;3.8753845215e+003;
1.2343750000e+000;3.5933332520e+003;4.1500000000e+003;4.1539741211e+003;4.1803847656e+003;4.1806411133e+003;4.1920512695e+003;4.1857690430e+003;4.1798715820e+003;4.1869228516e+003;4.1723076172e+003;4.1803847656e+003;4.1576923828e+003;4.0592307129e+003;3.8684614258e+003;
1.2421875000e+000;3.5926923828e+003;4.1573076172e+003;4.1579487305e+003;4.1779487305e+003;4.1660258789e+003;4.1837177734e+003;4.1907690430e+003;4.1933334961e+003;4.1735898438e+003;4.1635898438e+003;4.1802563477e+003;4.1555126953e+003;4.0498718262e+003;3.8669230957e+003;
1.2500000000e+000;3.5939743652e+003;4.1569228516e+003;4.1596152344e+003;4.1757690430e+003;4.1661538086e+003;4.1812822266e+003;4.1911538086e+003;4.1958974609e+003;4.1748715820e+003;4.1633334961e+003;4.1812822266e+003;4.1580771484e+003;4.0524357910e+003;3.8714101563e+003;
1.2578125000e+000;3.6092307129e+003;4.1602563477e+003;4.1685898438e+003;4.1855126953e+003;4.1800000000e+003;4.1810258789e+003;4.2053847656e+003;4.2084614258e+003;4.1821796875e+003;4.1684614258e+003;4.1855126953e+003;4.1664101563e+003;4.0629487305e+003;3.8693588867e+003;
1.2656250000e+000;3.6133332520e+003;4.1647436523e+003;4.1719228516e+003;4.1874360352e+003;4.1829487305e+003;4.1798715820e+003;4.2069228516e+003;4.2115385742e+003;4.1824360352e+003;4.1707690430e+003;4.1861538086e+003;4.1666665039e+003;4.0646154785e+003;3.8673076172e+003;
1.2734375000e+000;3.6150000000e+003;4.1651284180e+003;4.1696152344e+003;4.1823076172e+003;4.1723076172e+003;4.1734614258e+003;4.1984614258e+003;4.2112822266e+003;4.1821796875e+003;4.1719228516e+003;4.1861538086e+003;4.1660258789e+003;4.0653845215e+003;3.8739743652e+003;
1.2812500000e+000;3.6158974609e+003;4.1612822266e+003;4.1679487305e+003;4.1811538086e+003;4.1647436523e+003;4.1724360352e+003;4.1939741211e+003;4.2110258789e+003;4.1837177734e+003;4.1737177734e+003;4.1882050781e+003;4.1679487305e+003;4.0674357910e+003;3.8814101563e+003;
1.2890625000e+000;3.6302563477e+003;4.1635898438e+003;4.1738461914e+003;4.1919228516e+003;4.1882050781e+003;4.1856411133e+003;4.1891025391e+003;4.2133334961e+003;4.2044873047e+003;4.2014101563e+003;4.2053847656e+003;4.1800000000e+003;4.0864101563e+003;3.8969230957e+003;
1.2968750000e+000;3.6311538086e+003;4.1678203125e+003;4.1725639648e+003;4.1920512695e+003;4.1973076172e+003;4.1884614258e+003;4.1858974609e+003;4.2116665039e+003;4.2102563477e+003;4.2071796875e+003;4.2053847656e+003;4.1785898438e+003;4.0880769043e+003;3.8944870605e+003;
1.3046875000e+000;3.6274357910e+003;4.1684614258e+003;4.1684614258e+003;4.1885898438e+003;4.1958974609e+003;4.1888461914e+003;4.1810258789e+003;4.2082050781e+003;4.2107690430e+003;4.2052563477e+003;4.2002563477e+003;4.1733334961e+003;4.0837180176e+003;3.8884614258e+003;
1.3125000000e+000;3.6214101563e+003;4.1642309570e+003;4.1632050781e+003;4.1833334961e+003;4.1857690430e+003;4.1880771484e+003;4.1755126953e+003;4.2037177734e+003;4.2074360352e+003;4.1980771484e+003;4.1933334961e+003;4.1660258789e+003;4.0762819824e+003;3.8812819824e+003;
1.3203125000e+000;3.6121794434e+003;4.1498715820e+003;4.1537177734e+003;4.1737177734e+003;4.1687177734e+003;4.1910258789e+003;4.1771796875e+003;4.1933334961e+003;4.1947436523e+003;4.1825639648e+003;4.1837177734e+003;4.1517949219e+003;4.0650000000e+003;3.8728205566e+003;
1.3281250000e+000;3.6079487305e+003;4.1489741211e+003;4.1503847656e+003;4.1758974609e+003;4.1729487305e+003;4.1924360352e+003;4.1846152344e+003;4.1808974609e+003;4.1842309570e+003;4.1673076172e+003;4.1734614258e+003;4.1439741211e+003;4.0521794434e+003;3.8634614258e+003;
1.3359375000e+000;3.6069230957e+003;4.1466665039e+003;4.1487177734e+003;4.1767949219e+003;4.1705126953e+003;4.1914101563e+003;4.1875639648e+003;4.1819228516e+003;4.1832050781e+003;4.1660258789e+003;4.1721796875e+003;4.1426923828e+003;4.0494870605e+003;3.8605129395e+003;
1.3437500000e+000;3.6102563477e+003;4.1480771484e+003;4.1530771484e+003;4.1805126953e+003;4.1730771484e+003;4.1920512695e+003;4.1934614258e+003;4.1875639648e+003;4.1856411133e+003;4.1683334961e+003;4.1730771484e+003;4.1467949219e+003;4.0519230957e+003;3.8657692871e+003;
1.3515625000e+000;3.6147436523e+003;4.1501284180e+003;4.1552563477e+003;4.1812822266e+003;4.1762822266e+003;4.1916665039e+003;4.1950000000e+003;4.1888461914e+003;4.1862822266e+003;4.1679487305e+003;4.1733334961e+003;4.1474360352e+003;4.0547436523e+003;3.8687180176e+003;
1.3593750000e+000;3.6229487305e+003;4.1534614258e+003;4.1574360352e+003;4.1800000000e+003;4.1741025391e+003;4.1784614258e+003;4.1979487305e+003;4.1876923828e+003;4.1751284180e+003;4.1575639648e+003;4.1660258789e+003;4.1394873047e+003;4.0489743652e+003;3.8610256348e+003;
1.3671875000e+000;3.6328205566e+003;4.1605126953e+003;4.1652563477e+003;4.1838461914e+003;4.1757690430e+003;4.1800000000e+003;4.1907690430e+003;4.1910258789e+003;4.1793588867e+003;4.1687177734e+003;4.1756411133e+003;4.1465385742e+003;4.0548718262e+003;3.8764101563e+003;
1.3750000000e+000;3.6342307129e+003;4.1612822266e+003;4.1658974609e+003;4.1852563477e+003;4.1771796875e+003;4.1805126953e+003;4.1916665039e+003;4.1900000000e+003;4.1816665039e+003;4.1703847656e+003;4.1778203125e+003;4.1520512695e+003;4.0574357910e+003;3.8785898438e+003;
1.3828125000e+000;3.6341025391e+003;4.1602563477e+003;4.1617949219e+003;4.1857690430e+003;4.1692309570e+003;4.1778203125e+003;4.1888461914e+003;4.1828203125e+003;4.1921796875e+003;4.1817949219e+003;4.1846152344e+003;4.1598715820e+003;4.0671794434e+003;3.8741025391e+003;
1.3906250000e+000;3.6370512695e+003;4.1619228516e+003;4.1616665039e+003;4.1865385742e+003;4.1712822266e+003;4.1824360352e+003;4.1844873047e+003;4.1841025391e+003;4.1993588867e+003;4.1926923828e+003;4.1891025391e+003;4.1591025391e+003;4.0735898438e+003;3.8774357910e+003;
1.3984375000e+000;3.6438461914e+003;4.1673076172e+003;4.1661538086e+003;4.1915385742e+003;4.1869228516e+003;4.1925639648e+003;4.1803847656e+003;4.1893588867e+003;4.2091025391e+003;4.2062822266e+003;4.1947436523e+003;4.1623076172e+003;4.0814101563e+003;3.8853845215e+003;
1.4062500000e+000;3.6458974609e+003;4.1684614258e+003;4.1666665039e+003;4.1929487305e+003;4.1939741211e+003;4.1939741211e+003;4.1794873047e+003;4.1892309570e+003;4.2107690430e+003;4.2060258789e+003;4.1955126953e+003;4.1655126953e+003;4.0824357910e+003;3.8862819824e+003;
1.4140625000e+000;3.6451281738e+003;4.1633334961e+003;4.1566665039e+003;4.1867949219e+003;4.1871796875e+003;4.1898715820e+003;4.1774360352e+003;4.1780771484e+003;4.2060258789e+003;4.1976923828e+003;4.1900000000e+003;4.1619228516e+003;4.0778205566e+003;3.8794870605e+003;
1.4218750000e+000;3.6466667480e+003;4.1633334961e+003;4.1593588867e+003;4.1851284180e+003;4.1832050781e+003;4.1910258789e+003;4.1801284180e+003;4.1779487305e+003;4.2015385742e+003;4.1958974609e+003;4.1883334961e+003;4.1614101563e+003;4.0751281738e+003;3.8810256348e+003;
1.4296875000e+000;3.6505129395e+003;4.1642309570e+003;4.1652563477e+003;4.1846152344e+003;4.1830771484e+003;4.1935898438e+003;4.1835898438e+003;4.1801284180e+003;4.1976923828e+003;4.1946152344e+003;4.1889741211e+003;4.1637177734e+003;4.0747436523e+003;3.8860256348e+003;
1.4375000000e+000;3.6546154785e+003;4.1646152344e+003;4.1698715820e+003;4.1843588867e+003;4.1851284180e+003;4.1956411133e+003;4.1862822266e+003;4.1814101563e+003;4.1952563477e+003;4.1932050781e+003;4.1906411133e+003;4.1664101563e+003;4.0769230957e+003;3.8912819824e+003;
1.4453125000e+000;3.6423076172e+003;4.1557690430e+003;4.1593588867e+003;4.1805126953e+003;4.1732050781e+003;4.1915385742e+003;4.1875639648e+003;4.1680771484e+003;4.1807690430e+003;4.1785898438e+003;4.1739741211e+003;4.1497436523e+003;4.0641025391e+003;3.8723076172e+003;
1.4531250000e+000;3.6406411133e+003;4.1533334961e+003;4.1570512695e+003;4.1791025391e+003;4.1746152344e+003;4.1919228516e+003;4.1875639648e+003;4.1701284180e+003;4.1771796875e+003;4.1764101563e+003;4.1702563477e+003;4.1466665039e+003;4.0570512695e+003;3.8688461914e+003;
1.4609375000e+000;3.6475642090e+003;4.1532050781e+003;4.1570512695e+003;4.1794873047e+003;4.1800000000e+003;4.1905126953e+003;4.1928203125e+003;4.1817949219e+003;4.1726923828e+003;4.1691025391e+003;4.1661538086e+003;4.1419228516e+003;4.0535898438e+003;3.8675642090e+003;
1.4687500000e+000;3.6478205566e+003;4.1552563477e+003;4.1551284180e+003;4.1807690430e+003;4.1823076172e+003;4.1879487305e+003;4.1924360352e+003;4.1891025391e+003;4.1844873047e+003;4.1855126953e+003;4.1751284180e+003;4.1478203125e+003;4.0644870605e+003;3.8737180176e+003;
1.4765625000e+000;3.6456411133e+003;4.1546152344e+003;4.1539741211e+003;4.1794873047e+003;4.1838461914e+003;4.1841025391e+003;4.1903847656e+003;4.1911538086e+003;4.1878203125e+003;4.1916665039e+003;4.1810258789e+003;4.1512822266e+003;4.0678205566e+003;3.8784614258e+003;
1.4843750000e+000;3.6557692871e+003;4.1600000000e+003;4.1630771484e+003;4.1850000000e+003;4.1829487305e+003;4.1803847656e+003;4.1847436523e+003;4.1869228516e+003;4.1988461914e+003;4.2028203125e+003;4.1925639648e+003;4.1591025391e+003;4.0843588867e+003;3.8924357910e+003;
1.4921875000e+000;3.6775642090e+003;4.1717949219e+003;4.1689741211e+003;4.1923076172e+003;4.1910258789e+003;4.1864101563e+003;4.1766665039e+003;4.1873076172e+003;4.2076923828e+003;4.2080771484e+003;4.1933334961e+003;4.1661538086e+003;4.0908974609e+003;3.8984614258e+003;
1.5000000000e+000;3.6788461914e+003;4.1728203125e+003;4.1706411133e+003;4.1932050781e+003;4.1893588867e+003;4.1844873047e+003;4.1738461914e+003;4.1867949219e+003;4.2048715820e+003;4.2057690430e+003;4.1923076172e+003;4.1683334961e+003;4.0880769043e+003;3.8985898438e+003;
1.5078125000e+000;3.6710256348e+003;4.1647436523e+003;4.1678203125e+003;4.1862822266e+003;4.1707690430e+003;4.1775639648e+003;4.1608974609e+003;4.1707690430e+003;4.1898715820e+003;4.1941025391e+003;4.1851284180e+003;4.1593588867e+003;4.0760256348e+003;3.8894870605e+003;
1.5156250000e+000;3.6702563477e+003;4.1652563477e+003;4.1675639648e+003;4.1871796875e+003;4.1728203125e+003;4.1789741211e+003;4.1614101563e+003;4.1675639648e+003;4.1871796875e+003;4.1898715820e+003;4.1816665039e+003;4.1553847656e+003;4.0730769043e+003;3.8875642090e+003;
1.5234375000e+000;3.6783332520e+003;4.1728203125e+003;4.1719228516e+003;4.1943588867e+003;4.1921796875e+003;4.1871796875e+003;4.1708974609e+003;4.1670512695e+003;4.1896152344e+003;4.1891025391e+003;4.1803847656e+003;4.1548715820e+003;4.0773076172e+003;3.8917949219e+003;
1.5312500000e+000;3.6814101563e+003;4.1734614258e+003;4.1719228516e+003;4.1943588867e+003;4.1967949219e+003;4.1901284180e+003;4.1756411133e+003;4.1676923828e+003;4.1920512695e+003;4.1907690430e+003;4.1808974609e+003;4.1560258789e+003;4.0802563477e+003;3.8944870605e+003;
1.5390625000e+000;3.6793588867e+003;4.1697436523e+003;4.1689741211e+003;4.1906411133e+003;4.1928203125e+003;4.1897436523e+003;4.1794873047e+003;4.1682050781e+003;4.1920512695e+003;4.1903847656e+003;4.1798715820e+003;4.1564101563e+003;4.0794870605e+003;3.8946154785e+003;
1.5468750000e+000;3.6657692871e+003;4.1584614258e+003;4.1593588867e+003;4.1802563477e+003;4.1761538086e+003;4.1829487305e+003;4.1834614258e+003;4.1691025391e+003;4.1852563477e+003;4.1825639648e+003;4.1743588867e+003;4.1526923828e+003;4.0705129395e+003;3.8887180176e+003;
1.5546875000e+000;3.6612819824e+003;4.1562822266e+003;4.1547436523e+003;4.1769228516e+003;4.1746152344e+003;4.1812822266e+003;4.1835898438e+003;4.1706411133e+003;4.1830771484e+003;4.1801284180e+003;4.1730771484e+003;4.1474360352e+003;4.0676923828e+003;3.8853845215e+003;
1.5625000000e+000;3.6605129395e+003;4.1562822266e+003;4.1505126953e+003;4.1756411133e+003;4.1774360352e+003;4.1823076172e+003;4.1844873047e+003;4.1737177734e+003;4.1838461914e+003;4.1807690430e+003;4.1735898438e+003;4.1417949219e+003;4.0664101563e+003;3.8833332520e+003;
1.5703125000e+000;3.6701281738e+003;4.1571796875e+003;4.1529487305e+003;4.1780771484e+003;4.1812822266e+003;4.1837177734e+003;4.1956411133e+003;4.1851284180e+003;4.1851284180e+003;4.1835898438e+003;4.1734614258e+003;4.1474360352e+003;4.0712819824e+003;3.8828205566e+003;
1.5781250000e+000;3.6732050781e+003;4.1579487305e+003;4.1532050781e+003;4.1767949219e+003;4.1833334961e+003;4.1825639648e+003;4.1924360352e+003;4.1823076172e+003;4.1838461914e+003;4.1832050781e+003;4.1732050781e+003;4.1444873047e+003;4.0752563477e+003;3.8826923828e+003;
1.5859375000e+000;3.6867949219e+003;4.1582050781e+003;4.1593588867e+003;4.1769228516e+003;4.1852563477e+003;4.1842309570e+003;4.1892309570e+003;4.1824360352e+003;4.1861538086e+003;4.1921796875e+003;4.1810258789e+003;4.1524360352e+003;4.0802563477e+003;3.8966667480e+003;
1.5937500000e+000;3.6879487305e+003;4.1601284180e+003;4.1657690430e+003;4.1770512695e+003;4.1847436523e+003;4.1784614258e+003;4.1748715820e+003;4.1728203125e+003;4.1852563477e+003;4.1882050781e+003;4.1739741211e+003;4.1566665039e+003;4.0717949219e+003;3.8996154785e+003;
1.6015625000e+000;3.6915385742e+003;4.1623076172e+003;4.1702563477e+003;4.1800000000e+003;4.1847436523e+003;4.1776923828e+003;4.1698715820e+003;4.1703847656e+003;4.1864101563e+003;4.1882050781e+003;4.1720512695e+003;4.1576923828e+003;4.0721794434e+003;3.9026923828e+003;
1.6093750000e+000;3.7116667480e+003;4.1730771484e+003;4.1744873047e+003;4.1920512695e+003;4.1952563477e+003;4.1865385742e+003;4.1594873047e+003;4.1693588867e+003;4.1980771484e+003;4.2002563477e+003;4.1925639648e+003;4.1732050781e+003;4.0891025391e+003;3.9275642090e+003;
1.6171875000e+000;3.7021794434e+003;4.1711538086e+003;4.1752563477e+003;4.1884614258e+003;4.1694873047e+003;4.1725639648e+003;4.1503847656e+003;4.1546152344e+003;4.1771796875e+003;4.1794873047e+003;4.1855126953e+003;4.1767949219e+003;4.0850000000e+003;3.9221794434e+003;
1.6250000000e+000;3.7017949219e+003;4.1680771484e+003;4.1743588867e+003;4.1853847656e+003;4.1662822266e+003;4.1700000000e+003;4.1483334961e+003;4.1528203125e+003;4.1752563477e+003;4.1783334961e+003;4.1841025391e+003;4.1747436523e+003;4.0871794434e+003;3.9206411133e+003;
1.6328125000e+000;3.7115385742e+003;4.1712822266e+003;4.1734614258e+003;4.1907690430e+003;4.1912822266e+003;4.1828203125e+003;4.1753847656e+003;4.1705126953e+003;4.1943588867e+003;4.1989741211e+003;4.1978203125e+003;4.1767949219e+003;4.0970512695e+003;3.9280769043e+003;
1.6406250000e+000;3.7079487305e+003;4.1705126953e+003;4.1723076172e+003;4.1906411133e+003;4.1942309570e+003;4.1878203125e+003;4.1862822266e+003;4.1767949219e+003;4.1989741211e+003;4.2016665039e+003;4.1982050781e+003;4.1764101563e+003;4.0933332520e+003;3.9261538086e+003;
1.6484375000e+000;3.6887180176e+003;4.1558974609e+003;4.1589741211e+003;4.1747436523e+003;4.1785898438e+003;4.1865385742e+003;4.1896152344e+003;4.1815385742e+003;4.1952563477e+003;4.1938461914e+003;4.1842309570e+003;4.1607690430e+003;4.0788461914e+003;3.9102563477e+003;
1.6562500000e+000;3.6797436523e+003;4.1474360352e+003;4.1515385742e+003;4.1660258789e+003;4.1685898438e+003;4.1812822266e+003;4.1873076172e+003;4.1816665039e+003;4.1894873047e+003;4.1873076172e+003;4.1756411133e+003;4.1501284180e+003;4.0733332520e+003;3.9019230957e+003;
1.6640625000e+000;3.6762819824e+003;4.1433334961e+003;4.1480771484e+003;4.1621796875e+003;4.1639741211e+003;4.1773076172e+003;4.1865385742e+003;4.1814101563e+003;4.1850000000e+003;4.1830771484e+003;4.1714101563e+003;4.1441025391e+003;4.0715385742e+003;3.8984614258e+003;
1.6718750000e+000;3.6867949219e+003;4.1470512695e+003;4.1529487305e+003;4.1678203125e+003;4.1716665039e+003;4.1798715820e+003;4.1898715820e+003;4.1834614258e+003;4.1841025391e+003;4.1826923828e+003;4.1757690430e+003;4.1508974609e+003;4.0760256348e+003;3.9067949219e+003;
1.6796875000e+000;3.6944870605e+003;4.1506411133e+003;4.1575639648e+003;4.1723076172e+003;4.1760258789e+003;4.1821796875e+003;4.1920512695e+003;4.1858974609e+003;4.1839741211e+003;4.1825639648e+003;4.1775639648e+003;4.1575639648e+003;4.0765385742e+003;3.9110256348e+003;
1.6875000000e+000;3.7002563477e+003;4.1539741211e+003;4.1625639648e+003;4.1752563477e+003;4.1764101563e+003;4.1817949219e+003;4.1934614258e+003;4.1880771484e+003;4.1820512695e+003;4.1811538086e+003;4.1764101563e+003;4.1623076172e+003;4.0743588867e+003;3.9119230957e+003;
1.6953125000e+000;3.7239743652e+003;4.1678203125e+003;4.1789741211e+003;4.1838461914e+003;4.1855126953e+003;4.1835898438e+003;4.1867949219e+003;4.1843588867e+003;4.1900000000e+003;4.1923076172e+003;4.1929487305e+003;4.1791025391e+003;4.0893588867e+003;3.9376923828e+003;
1.7031250000e+000;3.7232050781e+003;4.1680771484e+003;4.1784614258e+003;4.1865385742e+003;4.1874360352e+003;4.1882050781e+003;4.1842309570e+003;4.1848715820e+003;4.1911538086e+003;4.1914101563e+003;4.1930771484e+003;4.1806411133e+003;4.0898718262e+003;3.9378205566e+003;
1.7109375000e+000;3.7257692871e+003;4.1679487305e+003;4.1776923828e+003;4.1875639648e+003;4.1875639648e+003;4.1865385742e+003;4.1751284180e+003;4.1811538086e+003;4.1937177734e+003;4.1951284180e+003;4.1953847656e+003;4.1829487305e+003;4.0876923828e+003;3.9387180176e+003;
1.7187500000e+000;3.7284614258e+003;4.1728203125e+003;4.1765385742e+003;4.1905126953e+003;4.1867949219e+003;4.1821796875e+003;4.1650000000e+003;4.1738461914e+003;4.1896152344e+003;4.1930771484e+003;4.1908974609e+003;4.1823076172e+003;4.0905129395e+003;3.9434614258e+003;
1.7265625000e+000;3.7255129395e+003;4.1719228516e+003;4.1744873047e+003;4.1885898438e+003;4.1848715820e+003;4.1825639648e+003;4.1592309570e+003;4.1702563477e+003;4.1848715820e+003;4.1898715820e+003;4.1858974609e+003;4.1792309570e+003;4.0875642090e+003;3.9398718262e+003;
1.7343750000e+000;3.7226923828e+003;4.1666665039e+003;4.1684614258e+003;4.1851284180e+003;4.1873076172e+003;4.1812822266e+003;4.1632050781e+003;4.1658974609e+003;4.1823076172e+003;4.1910258789e+003;4.1850000000e+003;4.1730771484e+003;4.0758974609e+003;3.9285898438e+003;
1.7421875000e+000;3.7253845215e+003;4.1669228516e+003;4.1696152344e+003;4.1856411133e+003;4.1908974609e+003;4.1829487305e+003;4.1697436523e+003;4.1703847656e+003;4.1878203125e+003;4.1946152344e+003;4.1880771484e+003;4.1719228516e+003;4.0779487305e+003;3.9267949219e+003;
1.7500000000e+000;3.7251281738e+003;4.1602563477e+003;4.1664101563e+003;4.1810258789e+003;4.1835898438e+003;4.1847436523e+003;4.1787177734e+003;4.1807690430e+003;4.1978203125e+003;4.1987177734e+003;4.1903847656e+003;4.1648715820e+003;4.0834614258e+003;3.9228205566e+003;
1.7578125000e+000;3.7201281738e+003;4.1538461914e+003;4.1620512695e+003;4.1765385742e+003;4.1733334961e+003;4.1834614258e+003;4.1829487305e+003;4.1847436523e+003;4.1984614258e+003;4.1974360352e+003;4.1884614258e+003;4.1614101563e+003;4.0815385742e+003;3.9208974609e+003;
1.7656250000e+000;3.7178205566e+003;4.1528203125e+003;4.1602563477e+003;4.1747436523e+003;4.1810258789e+003;4.1852563477e+003;4.1947436523e+003;4.1975639648e+003;4.1974360352e+003;4.1935898438e+003;4.1875639648e+003;4.1666665039e+003;4.0787180176e+003;3.9250000000e+003;
1.7734375000e+000;3.7224357910e+003;4.1575639648e+003;4.1620512695e+003;4.1764101563e+003;4.1933334961e+003;4.1869228516e+003;4.1960258789e+003;4.1989741211e+003;4.1969228516e+003;4.1933334961e+003;4.1896152344e+003;4.1680771484e+003;4.0825642090e+003;3.9264101563e+003;
1.7812500000e+000;3.7248718262e+003;4.1602563477e+003;4.1653847656e+003;4.1775639648e+003;4.1937177734e+003;4.1825639648e+003;4.1983334961e+003;4.1929487305e+003;4.1870512695e+003;4.1874360352e+003;4.1866665039e+003;4.1669228516e+003;4.0811538086e+003;3.9246154785e+003;
1.7890625000e+000;3.7232050781e+003;4.1578203125e+003;4.1656411133e+003;4.1779487305e+003;4.1850000000e+003;4.1788461914e+003;4.1979487305e+003;4.1885898438e+003;4.1811538086e+003;4.1838461914e+003;4.1837177734e+003;4.1660258789e+003;4.0761538086e+003;3.9232050781e+003;
1.7968750000e+000;3.7201281738e+003;4.1526923828e+003;4.1556411133e+003;4.1765385742e+003;4.1812822266e+003;4.1797436523e+003;4.1848715820e+003;4.1800000000e+003;4.1793588867e+003;4.1838461914e+003;4.1838461914e+003;4.1605126953e+003;4.0751281738e+003;3.9203845215e+003;
1.8046875000e+000;3.7205129395e+003;4.1539741211e+003;4.1557690430e+003;4.1760258789e+003;4.1846152344e+003;4.1806411133e+003;4.1824360352e+003;4.1792309570e+003;4.1798715820e+003;4.1846152344e+003;4.1834614258e+003;4.1587177734e+003;4.0789743652e+003;3.9210256348e+003;
1.8125000000e+000;3.7215385742e+003;4.1562822266e+003;4.1593588867e+003;4.1758974609e+003;4.1860258789e+003;4.1805126953e+003;4.1820512695e+003;4.1794873047e+003;4.1803847656e+003;4.1852563477e+003;4.1829487305e+003;4.1578203125e+003;4.0821794434e+003;3.9230769043e+003;
1.8203125000e+000;3.7379487305e+003;4.1657690430e+003;4.1737177734e+003;4.1897436523e+003;4.1897436523e+003;4.1889741211e+003;4.1805126953e+003;4.1819228516e+003;4.1950000000e+003;4.1989741211e+003;4.1947436523e+003;4.1747436523e+003;4.0911538086e+003;3.9501281738e+003;
1.8281250000e+000;3.7446154785e+003;4.1670512695e+003;4.1776923828e+003;4.1930771484e+003;4.1919228516e+003;4.1903847656e+003;4.1788461914e+003;4.1789741211e+003;4.1944873047e+003;4.2021796875e+003;4.1988461914e+003;4.1794873047e+003;4.0951281738e+003;3.9548718262e+003;
1.8359375000e+000;3.7444870605e+003;4.1641025391e+003;4.1774360352e+003;4.1843588867e+003;4.1887177734e+003;4.1823076172e+003;4.1707690430e+003;4.1658974609e+003;4.1788461914e+003;4.1943588867e+003;4.1930771484e+003;4.1706411133e+003;4.0874357910e+003;3.9453845215e+003;
1.8437500000e+000;3.7343588867e+003;4.1523076172e+003;4.1724360352e+003;4.1756411133e+003;4.1780771484e+003;4.1774360352e+003;4.1725639648e+003;4.1637177734e+003;4.1702563477e+003;4.1755126953e+003;4.1767949219e+003;4.1575639648e+003;4.0737180176e+003;3.9328205566e+003;
1.8515625000e+000;3.7329487305e+003;4.1488461914e+003;4.1706411133e+003;4.1753847656e+003;4.1752563477e+003;4.1812822266e+003;4.1789741211e+003;4.1669228516e+003;4.1735898438e+003;4.1737177734e+003;4.1735898438e+003;4.1537177734e+003;4.0706411133e+003;3.9283332520e+003;
1.8593750000e+000;3.7291025391e+003;4.1476923828e+003;4.1646152344e+003;4.1775639648e+003;4.1762822266e+003;4.1923076172e+003;4.2016665039e+003;4.1843588867e+003;4.1765385742e+003;4.1761538086e+003;4.1703847656e+003;4.1471796875e+003;4.0635898438e+003;3.9170512695e+003;
1.8671875000e+000;3.7316667480e+003;4.1492309570e+003;4.1614101563e+003;4.1765385742e+003;4.1796152344e+003;4.1929487305e+003;4.2017949219e+003;4.1848715820e+003;4.1748715820e+003;4.1770512695e+003;4.1702563477e+003;4.1461538086e+003;4.0652563477e+003;3.9178205566e+003;
1.8750000000e+000;3.7388461914e+003;4.1507690430e+003;4.1589741211e+003;4.1739741211e+003;4.1801284180e+003;4.1864101563e+003;4.1965385742e+003;4.1796152344e+003;4.1706411133e+003;4.1734614258e+003;4.1639741211e+003;4.1429487305e+003;4.0658974609e+003;3.9180769043e+003;
1.8828125000e+000;3.7405129395e+003;4.1521796875e+003;4.1611538086e+003;4.1739741211e+003;4.1764101563e+003;4.1811538086e+003;4.1947436523e+003;4.1778203125e+003;4.1694873047e+003;4.1720512695e+003;4.1606411133e+003;4.1421796875e+003;4.0637180176e+003;3.9170512695e+003;
1.8906250000e+000;3.7448718262e+003;4.1608974609e+003;4.1692309570e+003;4.1806411133e+003;4.1717949219e+003;4.1785898438e+003;4.1916665039e+003;4.1785898438e+003;4.1758974609e+003;4.1850000000e+003;4.1702563477e+003;4.1478203125e+003;4.0678205566e+003;3.9244870605e+003;
1.8984375000e+000;3.7478205566e+003;4.1638461914e+003;4.1719228516e+003;4.1835898438e+003;4.1774360352e+003;4.1820512695e+003;4.1920512695e+003;4.1801284180e+003;4.1773076172e+003;4.1869228516e+003;4.1746152344e+003;4.1506411133e+003;4.0732050781e+003;3.9287180176e+003;
1.9062500000e+000;3.7538461914e+003;4.1660258789e+003;4.1751284180e+003;4.1838461914e+003;4.1935898438e+003;4.1892309570e+003;4.1901284180e+003;4.1808974609e+003;4.1775639648e+003;4.1841025391e+003;4.1764101563e+003;4.1548715820e+003;4.0802563477e+003;3.9321794434e+003;
1.9140625000e+000;3.7562819824e+003;4.1655126953e+003;4.1743588867e+003;4.1814101563e+003;4.1982050781e+003;4.1915385742e+003;4.1861538086e+003;4.1793588867e+003;4.1792309570e+003;4.1846152344e+003;4.1757690430e+003;4.1552563477e+003;4.0810256348e+003;3.9321794434e+003;
1.9218750000e+000;3.7607692871e+003;4.1702563477e+003;4.1752563477e+003;4.1879487305e+003;4.1917949219e+003;4.1907690430e+003;4.1812822266e+003;4.1738461914e+003;4.1874360352e+003;4.1908974609e+003;4.1788461914e+003;4.1575639648e+003;4.0830769043e+003;3.9406411133e+003;
1.9296875000e+000;3.7637180176e+003;4.1725639648e+003;4.1770512695e+003;4.1917949219e+003;4.1911538086e+003;4.1889741211e+003;4.1794873047e+003;4.1719228516e+003;4.1878203125e+003;4.1893588867e+003;4.1812822266e+003;4.1605126953e+003;4.0846154785e+003;3.9451281738e+003;
1.9375000000e+000;3.7665385742e+003;4.1726923828e+003;4.1767949219e+003;4.1917949219e+003;4.1919228516e+003;4.1858974609e+003;4.1739741211e+003;4.1694873047e+003;4.1855126953e+003;4.1853847656e+003;4.1823076172e+003;4.1617949219e+003;4.0846154785e+003;3.9465385742e+003;
1.9453125000e+000;3.7670512695e+003;4.1702563477e+003;4.1750000000e+003;4.1884614258e+003;4.1910258789e+003;4.1811538086e+003;4.1662822266e+003;4.1665385742e+003;4.1805126953e+003;4.1801284180e+003;4.1807690430e+003;4.1606411133e+003;4.0815385742e+003;3.9438461914e+003;
1.9531250000e+000;3.7598718262e+003;4.1589741211e+003;4.1800000000e+003;4.1866665039e+003;4.1805126953e+003;4.1734614258e+003;4.1674360352e+003;4.1632050781e+003;4.1750000000e+003;4.1751284180e+003;4.1756411133e+003;4.1565385742e+003;4.0770512695e+003;3.9366667480e+003;
1.9609375000e+000;3.7460256348e+003;4.1478203125e+003;4.1689741211e+003;4.1723076172e+003;4.1710258789e+003;4.1723076172e+003;4.1788461914e+003;4.1717949219e+003;4.1606411133e+003;4.1596152344e+003;4.1671796875e+003;4.1508974609e+003;4.0675642090e+003;3.9324357910e+003;
1.9687500000e+000;3.7465385742e+003;4.1465385742e+003;4.1680771484e+003;4.1694873047e+003;4.1676923828e+003;4.1715385742e+003;4.1812822266e+003;4.1711538086e+003;4.1592309570e+003;4.1593588867e+003;4.1655126953e+003;4.1474360352e+003;4.0650000000e+003;3.9321794434e+003;
1.9765625000e+000;3.7496154785e+003;4.1441025391e+003;4.1655126953e+003;4.1694873047e+003;4.1698715820e+003;4.1758974609e+003;4.1920512695e+003;4.1741025391e+003;4.1675639648e+003;4.1674360352e+003;4.1701284180e+003;4.1471796875e+003;4.0707692871e+003;3.9338461914e+003;
1.9843750000e+000;3.7552563477e+003;4.1423076172e+003;4.1744873047e+003;4.1705126953e+003;4.1778203125e+003;4.1916665039e+003;4.1962822266e+003;4.1819228516e+003;4.1864101563e+003;4.1828203125e+003;4.1773076172e+003;4.1629487305e+003;4.0769230957e+003;3.9466667480e+003;
1.9921875000e+000;3.7597436523e+003;4.1452563477e+003;4.1738461914e+003;4.1708974609e+003;4.1778203125e+003;4.1896152344e+003;4.1964101563e+003;4.1791025391e+003;4.1883334961e+003;4.1846152344e+003;4.1778203125e+003;4.1621796875e+003;4.0771794434e+003;3.9487180176e+003;
2.0000000000e+000;3.7705129395e+003;4.1535898438e+003;4.1744873047e+003;4.1769228516e+003;4.1761538086e+003;4.1856411133e+003;4.1969228516e+003;4.1732050781e+003;4.1914101563e+003;4.1860258789e+003;4.1800000000e+003;4.1612822266e+003;4.0821794434e+003;3.9480769043e+003;
2.0078125000e+000;3.7758974609e+003;4.1574360352e+003;4.1769228516e+003;4.1791025391e+003;4.1741025391e+003;4.1866665039e+003;4.1930771484e+003;4.1711538086e+003;4.1939741211e+003;4.1880771484e+003;4.1832050781e+003;4.1623076172e+003;4.0873076172e+003;3.9493588867e+003;
2.0156250000e+000;3.7862819824e+003;4.1657690430e+003;4.1820512695e+003;4.1805126953e+003;4.1717949219e+003;4.1876923828e+003;4.1791025391e+003;4.1675639648e+003;4.1916665039e+003;4.1879487305e+003;4.1887177734e+003;4.1643588867e+003;4.0928205566e+003;3.9567949219e+003;
2.0234375000e+000;3.7885898438e+003;4.1673076172e+003;4.1826923828e+003;4.1832050781e+003;4.1780771484e+003;4.1843588867e+003;4.1771796875e+003;4.1662822266e+003;4.1880771484e+003;4.1848715820e+003;4.1879487305e+003;4.1648715820e+003;4.0917949219e+003;3.9571794434e+003;
2.0312500000e+000;3.7907692871e+003;4.1671796875e+003;4.1803847656e+003;4.1867949219e+003;4.1917949219e+003;4.1776923828e+003;4.1707690430e+003;4.1608974609e+003;4.1828203125e+003;4.1817949219e+003;4.1862822266e+003;4.1653847656e+003;4.0920512695e+003;3.9564101563e+003;
2.0390625000e+000;3.7903845215e+003;4.1674360352e+003;4.1793588867e+003;4.1870512695e+003;4.1923076172e+003;4.1764101563e+003;4.1669228516e+003;4.1575639648e+003;4.1806411133e+003;4.1810258789e+003;4.1857690430e+003;4.1652563477e+003;4.0924357910e+003;3.9558974609e+003;
2.0468750000e+000;3.7902563477e+003;4.1755126953e+003;4.1796152344e+003;4.1900000000e+003;4.1892309570e+003;4.1860258789e+003;4.1669228516e+003;4.1591025391e+003;4.1862822266e+003;4.1814101563e+003;4.1900000000e+003;4.1658974609e+003;4.0983334961e+003;3.9583332520e+003;
2.0546875000e+000;3.7891025391e+003;4.1748715820e+003;4.1764101563e+003;4.1893588867e+003;4.1929487305e+003;4.1912822266e+003;4.1697436523e+003;4.1646152344e+003;4.1919228516e+003;4.1838461914e+003;4.1923076172e+003;4.1641025391e+003;4.0994873047e+003;3.9584614258e+003;
2.0625000000e+000;3.7850000000e+003;4.1708974609e+003;4.1726923828e+003;4.1869228516e+003;4.1941025391e+003;4.1933334961e+003;4.1728203125e+003;4.1700000000e+003;4.1941025391e+003;4.1858974609e+003;4.1920512695e+003;4.1610258789e+003;4.0976923828e+003;3.9564101563e+003;
2.0703125000e+000;3.7793588867e+003;4.1658974609e+003;4.1708974609e+003;4.1838461914e+003;4.1906411133e+003;4.1908974609e+003;4.1757690430e+003;4.1726923828e+003;4.1915385742e+003;4.1860258789e+003;4.1885898438e+003;4.1582050781e+003;4.0943588867e+003;3.9529487305e+003;
2.0781250000e+000;3.7817949219e+003;4.1615385742e+003;4.1665385742e+003;4.1789741211e+003;4.1839741211e+003;4.1828203125e+003;4.1838461914e+003;4.1767949219e+003;4.1833334961e+003;4.1742309570e+003;4.1762822266e+003;4.1551284180e+003;4.0900000000e+003;3.9497436523e+003;
2.0859375000e+000;3.7960256348e+003;4.1723076172e+003;4.1774360352e+003;4.1829487305e+003;4.1867949219e+003;4.1891025391e+003;4.1960258789e+003;4.1867949219e+003;4.1912822266e+003;4.1780771484e+003;4.1852563477e+003;4.1650000000e+003;4.0946154785e+003;3.9629487305e+003;
2.0937500000e+000;3.8001281738e+003;4.1738461914e+003;4.1800000000e+003;4.1834614258e+003;4.1898715820e+003;4.1891025391e+003;4.1971796875e+003;4.1832050781e+003;4.1920512695e+003;4.1787177734e+003;4.1855126953e+003;4.1666665039e+003;4.0973076172e+003;3.9646154785e+003;
2.1015625000e+000;3.8037180176e+003;4.1747436523e+003;4.1824360352e+003;4.1858974609e+003;4.1896152344e+003;4.1906411133e+003;4.1988461914e+003;4.1824360352e+003;4.1885898438e+003;4.1762822266e+003;4.1838461914e+003;4.1675639648e+003;4.0975639648e+003;3.9660256348e+003;
2.1093750000e+000;3.8057692871e+003;4.1716665039e+003;4.1776923828e+003;4.1883334961e+003;4.1848715820e+003;4.1817949219e+003;4.1860258789e+003;4.1680771484e+003;4.1788461914e+003;4.1725639648e+003;4.1832050781e+003;4.1607690430e+003;4.0974360352e+003;3.9680769043e+003;
2.1171875000e+000;3.8080769043e+003;4.1723076172e+003;4.1773076172e+003;4.1883334961e+003;4.1855126953e+003;4.1803847656e+003;4.1826923828e+003;4.1634614258e+003;4.1785898438e+003;4.1720512695e+003;4.1825639648e+003;4.1616665039e+003;4.0955129395e+003;3.9670512695e+003;
2.1250000000e+000;3.8124357910e+003;4.1717949219e+003;4.1770512695e+003;4.1851284180e+003;4.1791025391e+003;4.1846152344e+003;4.1732050781e+003;4.1616665039e+003;4.1815385742e+003;4.1779487305e+003;4.1853847656e+003;4.1661538086e+003;4.0960258789e+003;3.9661538086e+003;
2.1328125000e+000;3.8121794434e+003;4.1685898438e+003;4.1760258789e+003;4.1820512695e+003;4.1738461914e+003;4.1856411133e+003;4.1698715820e+003;4.1612822266e+003;4.1817949219e+003;4.1793588867e+003;4.1856411133e+003;4.1679487305e+003;4.0983334961e+003;3.9665385742e+003;
2.1406250000e+000;3.8052563477e+003;4.1620512695e+003;4.1728203125e+003;4.1766665039e+003;4.1800000000e+003;4.1784614258e+003;4.1711538086e+003;4.1611538086e+003;4.1729487305e+003;4.1606411133e+003;4.1765385742e+003;4.1653847656e+003;4.0879487305e+003;3.9667949219e+003;
2.1484375000e+000;3.8024357910e+003;4.1625639648e+003;4.1696152344e+003;4.1760258789e+003;4.1857690430e+003;4.1800000000e+003;4.1707690430e+003;4.1664101563e+003;4.1725639648e+003;4.1565385742e+003;4.1747436523e+003;4.1612822266e+003;4.0815385742e+003;3.9635898438e+003;
2.1562500000e+000;3.7978205566e+003;4.1611538086e+003;4.1660258789e+003;4.1766665039e+003;4.1850000000e+003;4.1874360352e+003;4.1733334961e+003;4.1828203125e+003;4.1778203125e+003;4.1626923828e+003;4.1729487305e+003;4.1560258789e+003;4.0791025391e+003;3.9519230957e+003;
2.1640625000e+000;3.7980769043e+003;4.1591025391e+003;4.1689741211e+003;4.1783334961e+003;4.1819228516e+003;4.1891025391e+003;4.1776923828e+003;4.1883334961e+003;4.1820512695e+003;4.1691025391e+003;4.1739741211e+003;4.1574360352e+003;4.0829487305e+003;3.9483332520e+003;
2.1718750000e+000;3.8028205566e+003;4.1557690430e+003;4.1710258789e+003;4.1782050781e+003;4.1788461914e+003;4.1815385742e+003;4.1828203125e+003;4.1862822266e+003;4.1910258789e+003;4.1774360352e+003;4.1824360352e+003;4.1607690430e+003;4.0856411133e+003;3.9569230957e+003;
2.1796875000e+000;3.8012819824e+003;4.1561538086e+003;4.1673076172e+003;4.1764101563e+003;4.1761538086e+003;4.1774360352e+003;4.1817949219e+003;4.1878203125e+003;4.1905126953e+003;4.1760258789e+003;4.1833334961e+003;4.1600000000e+003;4.0825642090e+003;3.9606411133e+003;
2.1875000000e+000;3.8002563477e+003;4.1567949219e+003;4.1662822266e+003;4.1764101563e+003;4.1739741211e+003;4.1743588867e+003;4.1820512695e+003;4.1923076172e+003;4.1907690430e+003;4.1757690430e+003;4.1850000000e+003;4.1615385742e+003;4.0834614258e+003;3.9646154785e+003;
2.1953125000e+000;3.8024357910e+003;4.1580771484e+003;4.1696152344e+003;4.1787177734e+003;4.1743588867e+003;4.1738461914e+003;4.1839741211e+003;4.1970512695e+003;4.1929487305e+003;4.1785898438e+003;4.1889741211e+003;4.1665385742e+003;4.0910256348e+003;3.9697436523e+003;
2.2031250000e+000;3.8175642090e+003;4.1691025391e+003;4.1821796875e+003;4.1874360352e+003;4.1748715820e+003;4.1723076172e+003;4.1932050781e+003;4.1887177734e+003;4.1858974609e+003;4.1875639648e+003;4.1956411133e+003;4.1798715820e+003;4.1064101563e+003;3.9805129395e+003;
2.2109375000e+000;3.8256411133e+003;4.1693588867e+003;4.1775639648e+003;4.1902563477e+003;4.1808974609e+003;4.1685898438e+003;4.1829487305e+003;4.1816665039e+003;4.1785898438e+003;4.1788461914e+003;4.1926923828e+003;4.1771796875e+003;4.1023076172e+003;3.9830769043e+003;
2.2187500000e+000;3.8261538086e+003;4.1702563477e+003;4.1775639648e+003;4.1930771484e+003;4.1811538086e+003;4.1723076172e+003;4.1837177734e+003;4.1776923828e+003;4.1760258789e+003;4.1747436523e+003;4.1883334961e+003;4.1746152344e+003;4.0960258789e+003;3.9801281738e+003;
2.2265625000e+000;3.8221794434e+003;4.1706411133e+003;4.1729487305e+003;4.1914101563e+003;4.1832050781e+003;4.1805126953e+003;4.1832050781e+003;4.1741025391e+003;4.1751284180e+003;4.1711538086e+003;4.1751284180e+003;4.1660258789e+003;4.0843588867e+003;3.9694870605e+003;
2.2343750000e+000;3.8197436523e+003;4.1679487305e+003;4.1687177734e+003;4.1864101563e+003;4.1834614258e+003;4.1839741211e+003;4.1806411133e+003;4.1756411133e+003;4.1762822266e+003;4.1725639648e+003;4.1714101563e+003;4.1620512695e+003;4.0839743652e+003;3.9656411133e+003;
2.2421875000e+000;3.8108974609e+003;4.1580771484e+003;4.1632050781e+003;4.1770512695e+003;4.1694873047e+003;4.1862822266e+003;4.1753847656e+003;4.1789741211e+003;4.1744873047e+003;4.1710258789e+003;4.1702563477e+003;4.1575639648e+003;4.0842307129e+003;3.9602563477e+003;
2.2500000000e+000;3.8005129395e+003;4.1464101563e+003;4.1520512695e+003;4.1735898438e+003;4.1820512695e+003;4.1847436523e+003;4.1787177734e+003;4.1784614258e+003;4.1807690430e+003;4.1688461914e+003;4.1647436523e+003;4.1508974609e+003;4.0701281738e+003;3.9485898438e+003;
2.2578125000e+000;3.8001281738e+003;4.1452563477e+003;4.1520512695e+003;4.1744873047e+003;4.1878203125e+003;4.1871796875e+003;4.1819228516e+003;4.1835898438e+003;4.1839741211e+003;4.1700000000e+003;4.1639741211e+003;4.1503847656e+003;4.0688461914e+003;3.9475642090e+003;
2.2656250000e+000;3.7997436523e+003;4.1480771484e+003;4.1557690430e+003;4.1714101563e+003;4.1816665039e+003;4.1903847656e+003;4.1839741211e+003;4.1964101563e+003;4.1917949219e+003;4.1774360352e+003;4.1679487305e+003;4.1489741211e+003;4.0730769043e+003;3.9526923828e+003;
2.2734375000e+000;3.7961538086e+003;4.1453847656e+003;4.1537177734e+003;4.1688461914e+003;4.1766665039e+003;4.1861538086e+003;4.1839741211e+003;4.1966665039e+003;4.1919228516e+003;4.1764101563e+003;4.1669228516e+003;4.1461538086e+003;4.0707692871e+003;3.9503845215e+003;
2.2812500000e+000;3.7948718262e+003;4.1417949219e+003;4.1533334961e+003;4.1714101563e+003;4.1758974609e+003;4.1792309570e+003;4.1865385742e+003;4.1964101563e+003;4.1853847656e+003;4.1705126953e+003;4.1634614258e+003;4.1464101563e+003;4.0670512695e+003;3.9461538086e+003;
2.2890625000e+000;3.7996154785e+003;4.1438461914e+003;4.1541025391e+003;4.1744873047e+003;4.1792309570e+003;4.1780771484e+003;4.1865385742e+003;4.1953847656e+003;4.1811538086e+003;4.1696152344e+003;4.1641025391e+003;4.1485898438e+003;4.0689743652e+003;3.9476923828e+003;
2.2968750000e+000;3.8074357910e+003;4.1508974609e+003;4.1552563477e+003;4.1766665039e+003;4.1726923828e+003;4.1682050781e+003;4.1826923828e+003;4.1919228516e+003;4.1730771484e+003;4.1698715820e+003;4.1662822266e+003;4.1497436523e+003;4.0743588867e+003;3.9550000000e+003;
2.3046875000e+000;3.8061538086e+003;4.1515385742e+003;4.1571796875e+003;4.1760258789e+003;4.1679487305e+003;4.1648715820e+003;4.1814101563e+003;4.1926923828e+003;4.1725639648e+003;4.1706411133e+003;4.1673076172e+003;4.1514101563e+003;4.0750000000e+003;3.9569230957e+003;
2.3125000000e+000;3.8067949219e+003;4.1523076172e+003;4.1592309570e+003;4.1758974609e+003;4.1662822266e+003;4.1632050781e+003;4.1800000000e+003;4.1938461914e+003;4.1734614258e+003;4.1732050781e+003;4.1701284180e+003;4.1539741211e+003;4.0771794434e+003;3.9591025391e+003;
2.3203125000e+000;3.8105129395e+003;4.1535898438e+003;4.1610258789e+003;4.1767949219e+003;4.1678203125e+003;4.1625639648e+003;4.1792309570e+003;4.1948715820e+003;4.1743588867e+003;4.1760258789e+003;4.1735898438e+003;4.1565385742e+003;4.0806411133e+003;3.9610256348e+003;
2.3281250000e+000;3.8278205566e+003;4.1598715820e+003;4.1711538086e+003;4.1833334961e+003;4.1783334961e+003;4.1694873047e+003;4.1762822266e+003;4.1835898438e+003;4.1682050781e+003;4.1688461914e+003;4.1743588867e+003;4.1615385742e+003;4.0834614258e+003;3.9665385742e+003;
2.3359375000e+000;3.8275642090e+003;4.1593588867e+003;4.1710258789e+003;4.1823076172e+003;4.1810258789e+003;4.1750000000e+003;4.1734614258e+003;4.1797436523e+003;4.1700000000e+003;4.1696152344e+003;4.1746152344e+003;4.1611538086e+003;4.0837180176e+003;3.9680769043e+003;
2.3437500000e+000;3.8260256348e+003;4.1593588867e+003;4.1739741211e+003;4.1812822266e+003;4.1784614258e+003;4.1821796875e+003;4.1762822266e+003;4.1815385742e+003;4.1734614258e+003;4.1689741211e+003;4.1702563477e+003;4.1626923828e+003;4.0778205566e+003;3.9674357910e+003;
2.3515625000e+000;3.8242307129e+003;4.1514101563e+003;4.1667949219e+003;4.1758974609e+003;4.1644873047e+003;4.1797436523e+003;4.1769228516e+003;4.1794873047e+003;4.1769228516e+003;4.1646152344e+003;4.1701284180e+003;4.1556411133e+003;4.0712819824e+003;3.9657692871e+003;
2.3593750000e+000;3.8229487305e+003;4.1524360352e+003;4.1641025391e+003;4.1746152344e+003;4.1683334961e+003;4.1816665039e+003;4.1833334961e+003;4.1841025391e+003;4.1828203125e+003;4.1683334961e+003;4.1710258789e+003;4.1537177734e+003;4.0738461914e+003;3.9655129395e+003;
2.3671875000e+000;3.8287180176e+003;4.1535898438e+003;4.1667949219e+003;4.1729487305e+003;4.1865385742e+003;4.1923076172e+003;4.1979487305e+003;4.2066665039e+003;4.1987177734e+003;4.1812822266e+003;4.1764101563e+003;4.1583334961e+003;4.0846154785e+003;3.9685898438e+003;
2.3750000000e+000;3.8319230957e+003;4.1546152344e+003;4.1670512695e+003;4.1739741211e+003;4.1792309570e+003;4.1943588867e+003;4.2012822266e+003;4.2121796875e+003;4.2050000000e+003;4.1851284180e+003;4.1812822266e+003;4.1592309570e+003;4.0852563477e+003;3.9725642090e+003;
2.3828125000e+000;3.8376923828e+003;4.1607690430e+003;4.1703847656e+003;4.1785898438e+003;4.1828203125e+003;4.1951284180e+003;4.2029487305e+003;4.2138461914e+003;4.2065385742e+003;4.1892309570e+003;4.1839741211e+003;4.1623076172e+003;4.0893588867e+003;3.9769230957e+003;
2.3906250000e+000;3.8505129395e+003;4.1679487305e+003;4.1729487305e+003;4.1879487305e+003;4.1889741211e+003;4.1844873047e+003;4.1903847656e+003;4.2082050781e+003;4.1929487305e+003;4.1835898438e+003;4.1833334961e+003;4.1620512695e+003;4.0917949219e+003;3.9791025391e+003;
2.3984375000e+000;3.8501281738e+003;4.1680771484e+003;4.1743588867e+003;4.1882050781e+003;4.1848715820e+003;4.1789741211e+003;4.1874360352e+003;4.2032050781e+003;4.1885898438e+003;4.1789741211e+003;4.1839741211e+003;4.1619228516e+003;4.0914101563e+003;3.9785898438e+003;
2.4062500000e+000;3.8521794434e+003;4.1708974609e+003;4.1785898438e+003;4.1888461914e+003;4.1842309570e+003;4.1771796875e+003;4.1878203125e+003;4.1994873047e+003;4.1889741211e+003;4.1798715820e+003;4.1891025391e+003;4.1655126953e+003;4.0960258789e+003;3.9829487305e+003;
2.4140625000e+000;3.8580769043e+003;4.1762822266e+003;4.1841025391e+003;4.1907690430e+003;4.1888461914e+003;4.1787177734e+003;4.1896152344e+003;4.1982050781e+003;4.1921796875e+003;4.1857690430e+003;4.1967949219e+003;4.1721796875e+003;4.1046152344e+003;3.9919230957e+003;
2.4218750000e+000;3.8648718262e+003;4.1821796875e+003;4.1889741211e+003;4.1941025391e+003;4.1952563477e+003;4.1803847656e+003;4.1900000000e+003;4.1987177734e+003;4.1933334961e+003;4.1915385742e+003;4.2020512695e+003;4.1791025391e+003;4.1117949219e+003;4.0014101563e+003;
2.4296875000e+000;3.8634614258e+003;4.1794873047e+003;4.1902563477e+003;4.1965385742e+003;4.1933334961e+003;4.1702563477e+003;4.1723076172e+003;4.1919228516e+003;4.1753847656e+003;4.1815385742e+003;4.1903847656e+003;4.1792309570e+003;4.1026923828e+003;4.0019230957e+003;
2.4375000000e+000;3.8526923828e+003;4.1639741211e+003;4.1751284180e+003;4.1815385742e+003;4.1883334961e+003;4.1789741211e+003;4.1819228516e+003;4.1873076172e+003;4.1866665039e+003;4.1810258789e+003;4.1891025391e+003;4.1682050781e+003;4.0978203125e+003;3.9900000000e+003;
2.4453125000e+000;3.8482050781e+003;4.1610258789e+003;4.1701284180e+003;4.1803847656e+003;4.1862822266e+003;4.1807690430e+003;4.1819228516e+003;4.1870512695e+003;4.1878203125e+003;4.1806411133e+003;4.1856411133e+003;4.1662822266e+003;4.0928205566e+003;3.9865385742e+003;
2.4531250000e+000;3.8356411133e+003;4.1523076172e+003;4.1539741211e+003;4.1738461914e+003;4.1675639648e+003;4.1780771484e+003;4.1719228516e+003;4.1810258789e+003;4.1820512695e+003;4.1712822266e+003;4.1735898438e+003;4.1511538086e+003;4.0793588867e+003;3.9714101563e+003;
2.4609375000e+000;3.8420512695e+003;4.1539741211e+003;4.1620512695e+003;4.1721796875e+003;4.1742309570e+003;4.1848715820e+003;4.1898715820e+003;4.1894873047e+003;4.1788461914e+003;4.1726923828e+003;4.1712822266e+003;4.1517949219e+003;4.0887180176e+003;3.9776923828e+003;
2.4687500000e+000;3.8443588867e+003;4.1542309570e+003;4.1657690430e+003;4.1729487305e+003;4.1823076172e+003;4.1853847656e+003;4.1920512695e+003;4.1967949219e+003;4.1851284180e+003;4.1779487305e+003;4.1762822266e+003;4.1570512695e+003;4.0932050781e+003;3.9821794434e+003;
2.4765625000e+000;3.8433332520e+003;4.1510258789e+003;4.1642309570e+003;4.1721796875e+003;4.1773076172e+003;4.1835898438e+003;4.1910258789e+003;4.2061538086e+003;4.1916665039e+003;4.1789741211e+003;4.1810258789e+003;4.1594873047e+003;4.0905129395e+003;3.9801281738e+003;
2.4843750000e+000;3.8424357910e+003;4.1497436523e+003;4.1625639648e+003;4.1701284180e+003;4.1705126953e+003;4.1841025391e+003;4.1898715820e+003;4.2057690430e+003;4.1908974609e+003;4.1773076172e+003;4.1794873047e+003;4.1573076172e+003;4.0869230957e+003;3.9771794434e+003;
2.4921875000e+000;3.8388461914e+003;4.1494873047e+003;4.1621796875e+003;4.1641025391e+003;4.1717949219e+003;4.1824360352e+003;4.1834614258e+003;4.1950000000e+003;4.1817949219e+003;4.1741025391e+003;4.1706411133e+003;4.1482050781e+003;4.0850000000e+003;3.9732050781e+003;
2.5000000000e+000;3.8400000000e+003;4.1512822266e+003;4.1651284180e+003;4.1667949219e+003;4.1739741211e+003;4.1792309570e+003;4.1810258789e+003;4.1928203125e+003;4.1776923828e+003;4.1723076172e+003;4.1698715820e+003;4.1471796875e+003;4.0858974609e+003;3.9732050781e+003;
2.5078125000e+000;3.8543588867e+003;4.1584614258e+003;4.1716665039e+003;4.1751284180e+003;4.1756411133e+003;4.1750000000e+003;4.1752563477e+003;4.1888461914e+003;4.1728203125e+003;4.1729487305e+003;4.1747436523e+003;4.1521796875e+003;4.0912819824e+003;3.9771794434e+003;
2.5156250000e+000;3.8633332520e+003;4.1624360352e+003;4.1741025391e+003;4.1788461914e+003;4.1770512695e+003;4.1726923828e+003;4.1716665039e+003;4.1852563477e+003;4.1716665039e+003;4.1751284180e+003;4.1775639648e+003;4.1574360352e+003;4.0950000000e+003;3.9819230957e+003;
2.5234375000e+000;3.8747436523e+003;4.1726923828e+003;4.1889741211e+003;4.1925639648e+003;4.1830771484e+003;4.1600000000e+003;4.1641025391e+003;4.1780771484e+003;4.1655126953e+003;4.1743588867e+003;4.1823076172e+003;4.1693588867e+003;4.1017949219e+003;3.9976923828e+003;
2.5312500000e+000;3.8778205566e+003;4.1758974609e+003;4.1923076172e+003;4.1955126953e+003;4.1850000000e+003;4.1584614258e+003;4.1624360352e+003;4.1778203125e+003;4.1646152344e+003;4.1743588867e+003;4.1852563477e+003;4.1687177734e+003;4.1048715820e+003;4.0010256348e+003;
2.5390625000e+000;3.8816667480e+003;4.1779487305e+003;4.1921796875e+003;4.1957690430e+003;4.1866665039e+003;4.1588461914e+003;4.1624360352e+003;4.1776923828e+003;4.1646152344e+003;4.1752563477e+003;4.1874360352e+003;4.1667949219e+003;4.1073076172e+003;4.0030769043e+003;
2.5468750000e+000;3.8848718262e+003;4.1780771484e+003;4.1900000000e+003;4.1933334961e+003;4.1869228516e+003;4.1605126953e+003;4.1652563477e+003;4.1774360352e+003;4.1643588867e+003;4.1757690430e+003;4.1874360352e+003;4.1662822266e+003;4.1073076172e+003;4.0038461914e+003;
2.5546875000e+000;3.8658974609e+003;4.1569228516e+003;4.1688461914e+003;4.1726923828e+003;4.1802563477e+003;4.1765385742e+003;4.1728203125e+003;4.1785898438e+003;4.1692309570e+003;4.1729487305e+003;4.1807690430e+003;4.1630771484e+003;4.0928205566e+003;3.9942307129e+003;
2.5625000000e+000;3.8538461914e+003;4.1535898438e+003;4.1566665039e+003;4.1662822266e+003;4.1738461914e+003;4.1920512695e+003;4.1874360352e+003;4.1907690430e+003;4.1892309570e+003;4.1782050781e+003;4.1751284180e+003;4.1502563477e+003;4.0889743652e+003;3.9829487305e+003;
2.5703125000e+000;3.8534614258e+003;4.1535898438e+003;4.1564101563e+003;4.1643588867e+003;4.1755126953e+003;4.1958974609e+003;4.1876923828e+003;4.1920512695e+003;4.1934614258e+003;4.1789741211e+003;4.1769228516e+003;4.1511538086e+003;4.0882050781e+003;3.9832050781e+003;
2.5781250000e+000;3.8446154785e+003;4.1455126953e+003;4.1497436523e+003;4.1600000000e+003;4.1662822266e+003;4.1915385742e+003;4.1838461914e+003;4.1929487305e+003;4.1871796875e+003;4.1728203125e+003;4.1712822266e+003;4.1451284180e+003;4.0816667480e+003;3.9783332520e+003;
2.5859375000e+000;3.8497436523e+003;4.1479487305e+003;4.1508974609e+003;4.1637177734e+003;4.1616665039e+003;4.1800000000e+003;4.1839741211e+003;4.2017949219e+003;4.1884614258e+003;4.1778203125e+003;4.1658974609e+003;4.1430771484e+003;4.0839743652e+003;3.9751281738e+003;
2.5937500000e+000;3.8520512695e+003;4.1496152344e+003;4.1529487305e+003;4.1656411133e+003;4.1693588867e+003;4.1808974609e+003;4.1852563477e+003;4.2032050781e+003;4.1915385742e+003;4.1791025391e+003;4.1662822266e+003;4.1435898438e+003;4.0838461914e+003;3.9746154785e+003;
2.6015625000e+000;3.8535898438e+003;4.1520512695e+003;4.1587177734e+003;4.1712822266e+003;4.1806411133e+003;4.1789741211e+003;4.1848715820e+003;4.2012822266e+003;4.1937177734e+003;4.1794873047e+003;4.1658974609e+003;4.1446152344e+003;4.0846154785e+003;3.9774357910e+003;
2.6093750000e+000;3.8552563477e+003;4.1551284180e+003;4.1608974609e+003;4.1743588867e+003;4.1828203125e+003;4.1784614258e+003;4.1848715820e+003;4.1994873047e+003;4.1943588867e+003;4.1830771484e+003;4.1684614258e+003;4.1470512695e+003;4.0885898438e+003;3.9830769043e+003;
2.6171875000e+000;3.8752563477e+003;4.1714101563e+003;4.1735898438e+003;4.1823076172e+003;4.1837177734e+003;4.1789741211e+003;4.1861538086e+003;4.1929487305e+003;4.1897436523e+003;4.1894873047e+003;4.1807690430e+003;4.1610258789e+003;4.1050000000e+003;3.9994870605e+003;
2.6250000000e+000;3.8846154785e+003;4.1750000000e+003;4.1788461914e+003;4.1841025391e+003;4.1860258789e+003;4.1767949219e+003;4.1812822266e+003;4.1891025391e+003;4.1867949219e+003;4.1870512695e+003;4.1832050781e+003;4.1633334961e+003;4.1088461914e+003;4.0023076172e+003;
2.6328125000e+000;3.8925642090e+003;4.1743588867e+003;4.1823076172e+003;4.1839741211e+003;4.1869228516e+003;4.1711538086e+003;4.1687177734e+003;4.1817949219e+003;4.1811538086e+003;4.1830771484e+003;4.1855126953e+003;4.1633334961e+003;4.1111538086e+003;4.0083332520e+003;
2.6406250000e+000;3.8903845215e+003;4.1721796875e+003;4.1821796875e+003;4.1832050781e+003;4.1834614258e+003;4.1712822266e+003;4.1676923828e+003;4.1806411133e+003;4.1776923828e+003;4.1816665039e+003;4.1860258789e+003;4.1639741211e+003;4.1102563477e+003;4.0110256348e+003;
2.6484375000e+000;3.8856411133e+003;4.1673076172e+003;4.1792309570e+003;4.1770512695e+003;4.1771796875e+003;4.1808974609e+003;4.1732050781e+003;4.1775639648e+003;4.1671796875e+003;4.1738461914e+003;4.1848715820e+003;4.1675639648e+003;4.1114101563e+003;4.0105129395e+003;
2.6562500000e+000;3.8861538086e+003;4.1652563477e+003;4.1753847656e+003;4.1734614258e+003;4.1764101563e+003;4.1817949219e+003;4.1729487305e+003;4.1752563477e+003;4.1652563477e+003;4.1710258789e+003;4.1811538086e+003;4.1638461914e+003;4.1091025391e+003;4.0065385742e+003;
2.6640625000e+000;3.8855129395e+003;4.1633334961e+003;4.1719228516e+003;4.1711538086e+003;4.1753847656e+003;4.1816665039e+003;4.1730771484e+003;4.1741025391e+003;4.1648715820e+003;4.1694873047e+003;4.1755126953e+003;4.1582050781e+003;4.1039741211e+003;4.0024357910e+003;
2.6718750000e+000;3.8841025391e+003;4.1623076172e+003;4.1701284180e+003;4.1711538086e+003;4.1752563477e+003;4.1825639648e+003;4.1739741211e+003;4.1747436523e+003;4.1666665039e+003;4.1702563477e+003;4.1702563477e+003;4.1532050781e+003;4.0991025391e+003;4.0001281738e+003;
2.6796875000e+000;3.8838461914e+003;4.1610258789e+003;4.1675639648e+003;4.1691025391e+003;4.1782050781e+003;4.1919228516e+003;4.1817949219e+003;4.1900000000e+003;4.1842309570e+003;4.1744873047e+003;4.1680771484e+003;4.1456411133e+003;4.0929487305e+003;3.9991025391e+003;
2.6875000000e+000;3.8733332520e+003;4.1517949219e+003;4.1601284180e+003;4.1651284180e+003;4.1726923828e+003;4.1887177734e+003;4.1889741211e+003;4.2015385742e+003;4.1893588867e+003;4.1702563477e+003;4.1598715820e+003;4.1308974609e+003;4.0778205566e+003;3.9800000000e+003;
2.6953125000e+000;3.8732050781e+003;4.1515385742e+003;4.1601284180e+003;4.1674360352e+003;4.1729487305e+003;4.1880771484e+003;4.1898715820e+003;4.2000000000e+003;4.1916665039e+003;4.1706411133e+003;4.1578203125e+003;4.1300000000e+003;4.0780769043e+003;3.9823076172e+003;
2.7031250000e+000;3.8769230957e+003;4.1519228516e+003;4.1638461914e+003;4.1678203125e+003;4.1732050781e+003;4.1844873047e+003;4.1866665039e+003;4.1942309570e+003;4.1907690430e+003;4.1715385742e+003;4.1596152344e+003;4.1360258789e+003;4.0806411133e+003;3.9920512695e+003;
2.7109375000e+000;3.8791025391e+003;4.1505126953e+003;4.1635898438e+003;4.1650000000e+003;4.1694873047e+003;4.1806411133e+003;4.1808974609e+003;4.1900000000e+003;4.1879487305e+003;4.1717949219e+003;4.1628203125e+003;4.1380771484e+003;4.0830769043e+003;3.9943588867e+003;
2.7187500000e+000;3.8869230957e+003;4.1539741211e+003;4.1646152344e+003;4.1691025391e+003;4.1569228516e+003;4.1710258789e+003;4.1700000000e+003;4.1860258789e+003;4.1802563477e+003;4.1667949219e+003;4.1648715820e+003;4.1417949219e+003;4.0848718262e+003;3.9960256348e+003;
2.7265625000e+000;3.9093588867e+003;4.1673076172e+003;4.1850000000e+003;4.1829487305e+003;4.1834614258e+003;4.1723076172e+003;4.1732050781e+003;4.1910258789e+003;4.1830771484e+003;4.1758974609e+003;4.1787177734e+003;4.1642309570e+003;4.1016665039e+003;4.0221794434e+003;
2.7343750000e+000;3.9123076172e+003;4.1694873047e+003;4.1893588867e+003;4.1850000000e+003;4.1861538086e+003;4.1702563477e+003;4.1741025391e+003;4.1901284180e+003;4.1817949219e+003;4.1783334961e+003;4.1837177734e+003;4.1680771484e+003;4.1080771484e+003;4.0273076172e+003;
2.7421875000e+000;3.9116667480e+003;4.1706411133e+003;4.1916665039e+003;4.1860258789e+003;4.1826923828e+003;4.1671796875e+003;4.1742309570e+003;4.1884614258e+003;4.1779487305e+003;4.1773076172e+003;4.1853847656e+003;4.1697436523e+003;4.1111538086e+003;4.0292307129e+003;
2.7500000000e+000;3.9105129395e+003;4.1714101563e+003;4.1921796875e+003;4.1862822266e+003;4.1770512695e+003;4.1652563477e+003;4.1734614258e+003;4.1870512695e+003;4.1732050781e+003;4.1738461914e+003;4.1847436523e+003;4.1710258789e+003;4.1111538086e+003;4.0303845215e+003;
2.7578125000e+000;3.9156411133e+003;4.1679487305e+003;4.1874360352e+003;4.1856411133e+003;4.1771796875e+003;4.1732050781e+003;4.1797436523e+003;4.1902563477e+003;4.1646152344e+003;4.1667949219e+003;4.1862822266e+003;4.1773076172e+003;4.1092309570e+003;4.0371794434e+003;
2.7656250000e+000;3.9124357910e+003;4.1657690430e+003;4.1846152344e+003;4.1853847656e+003;4.1764101563e+003;4.1739741211e+003;4.1812822266e+003;4.1902563477e+003;4.1678203125e+003;4.1676923828e+003;4.1851284180e+003;4.1734614258e+003;4.1080771484e+003;4.0332050781e+003;
2.7734375000e+000;3.8950000000e+003;4.1584614258e+003;4.1652563477e+003;4.1703847656e+003;4.1743588867e+003;4.1741025391e+003;4.1789741211e+003;4.1902563477e+003;4.1801284180e+003;4.1680771484e+003;4.1739741211e+003;4.1525639648e+003;4.0975639648e+003;4.0135898438e+003;
2.7812500000e+000;3.8910256348e+003;4.1552563477e+003;4.1626923828e+003;4.1651284180e+003;4.1742309570e+003;4.1767949219e+003;4.1820512695e+003;4.1950000000e+003;4.1825639648e+003;4.1661538086e+003;4.1710258789e+003;4.1494873047e+003;4.0946154785e+003;4.0092307129e+003;
2.7890625000e+000;3.8869230957e+003;4.1451284180e+003;4.1626923828e+003;4.1619228516e+003;4.1726923828e+003;4.1888461914e+003;4.1900000000e+003;4.2070512695e+003;4.1930771484e+003;4.1680771484e+003;4.1678203125e+003;4.1469228516e+003;4.0923076172e+003;4.0034614258e+003;
2.7968750000e+000;3.8719230957e+003;4.1261538086e+003;4.1507690430e+003;4.1521796875e+003;4.1652563477e+003;4.1869228516e+003;4.1912822266e+003;4.2044873047e+003;4.1966665039e+003;4.1683334961e+003;4.1519228516e+003;4.1316665039e+003;4.0694870605e+003;3.9838461914e+003;
2.8046875000e+000;3.8725642090e+003;4.1279487305e+003;4.1519228516e+003;4.1515385742e+003;4.1588461914e+003;4.1829487305e+003;4.1889741211e+003;4.2035898438e+003;4.1958974609e+003;4.1692309570e+003;4.1541025391e+003;4.1329487305e+003;4.0716667480e+003;3.9861538086e+003;
2.8125000000e+000;3.8774357910e+003;4.1325639648e+003;4.1550000000e+003;4.1535898438e+003;4.1553847656e+003;4.1829487305e+003;4.1858974609e+003;4.2037177734e+003;4.1973076172e+003;4.1724360352e+003;4.1591025391e+003;4.1361538086e+003;4.0791025391e+003;3.9932050781e+003;
2.8203125000e+000;3.8951281738e+003;4.1475639648e+003;4.1656411133e+003;4.1665385742e+003;4.1655126953e+003;4.1874360352e+003;4.1834614258e+003;4.2055126953e+003;4.2000000000e+003;4.1796152344e+003;4.1714101563e+003;4.1479487305e+003;4.0976923828e+003;4.0116667480e+003;
2.8281250000e+000;3.9246154785e+003;4.1657690430e+003;4.1843588867e+003;4.1902563477e+003;4.1915385742e+003;4.1817949219e+003;4.1823076172e+003;4.2106411133e+003;4.1989741211e+003;4.1923076172e+003;4.1974360352e+003;4.1724360352e+003;4.1185898438e+003;4.0355129395e+003;
2.8359375000e+000;3.9305129395e+003;4.1678203125e+003;4.1880771484e+003;4.1930771484e+003;4.1897436523e+003;4.1770512695e+003;4.1792309570e+003;4.2108974609e+003;4.1969228516e+003;4.1938461914e+003;4.2011538086e+003;4.1761538086e+003;4.1226923828e+003;4.0403845215e+003;
2.8437500000e+000;3.9332050781e+003;4.1698715820e+003;4.1914101563e+003;4.1941025391e+003;4.1852563477e+003;4.1723076172e+003;4.1760258789e+003;4.2094873047e+003;4.1938461914e+003;4.1920512695e+003;4.2002563477e+003;4.1774360352e+003;4.1248715820e+003;4.0430769043e+003;
2.8515625000e+000;3.9337180176e+003;4.1719228516e+003;4.1938461914e+003;4.1941025391e+003;4.1825639648e+003;4.1683334961e+003;4.1738461914e+003;4.2066665039e+003;4.1907690430e+003;4.1880771484e+003;4.1973076172e+003;4.1774360352e+003;4.1256411133e+003;4.0439743652e+003;
2.8593750000e+000;3.9296154785e+003;4.1652563477e+003;4.1860258789e+003;4.1884614258e+003;4.1792309570e+003;4.1647436523e+003;4.1803847656e+003;4.2070512695e+003;4.1826923828e+003;4.1724360352e+003;4.1923076172e+003;4.1719228516e+003;4.1160258789e+003;4.0342307129e+003;
2.8671875000e+000;3.9279487305e+003;4.1646152344e+003;4.1873076172e+003;4.1885898438e+003;4.1746152344e+003;4.1684614258e+003;4.1828203125e+003;4.2087177734e+003;4.1823076172e+003;4.1751284180e+003;4.1905126953e+003;4.1716665039e+003;4.1157690430e+003;4.0334614258e+003;
2.8750000000e+000;3.9228205566e+003;4.1680771484e+003;4.1829487305e+003;4.1850000000e+003;4.1792309570e+003;4.1791025391e+003;4.1793588867e+003;4.1958974609e+003;4.1852563477e+003;4.1814101563e+003;4.1847436523e+003;4.1621796875e+003;4.1173076172e+003;4.0326923828e+003;
2.8828125000e+000;3.9198718262e+003;4.1657690430e+003;4.1748715820e+003;4.1826923828e+003;4.1852563477e+003;4.1869228516e+003;4.1882050781e+003;4.1967949219e+003;4.1839741211e+003;4.1703847656e+003;4.1789741211e+003;4.1573076172e+003;4.1067949219e+003;4.0284614258e+003;
2.8906250000e+000;3.9202563477e+003;4.1638461914e+003;4.1746152344e+003;4.1811538086e+003;4.1829487305e+003;4.1925639648e+003;4.1902563477e+003;4.1980771484e+003;4.1875639648e+003;4.1724360352e+003;4.1780771484e+003;4.1570512695e+003;4.1092309570e+003;4.0285898438e+003;
2.8984375000e+000;3.9129487305e+003;4.1565385742e+003;4.1689741211e+003;4.1771796875e+003;4.1741025391e+003;4.1919228516e+003;4.1919228516e+003;4.1917949219e+003;4.1880771484e+003;4.1716665039e+003;4.1689741211e+003;4.1455126953e+003;4.1048715820e+003;4.0171794434e+003;
2.9062500000e+000;3.9146154785e+003;4.1553847656e+003;4.1666665039e+003;4.1748715820e+003;4.1908974609e+003;4.1941025391e+003;4.1866665039e+003;4.1892309570e+003;4.1897436523e+003;4.1706411133e+003;4.1688461914e+003;4.1421796875e+003;4.0988461914e+003;4.0152563477e+003;
2.9140625000e+000;3.9137180176e+003;4.1535898438e+003;4.1688461914e+003;4.1743588867e+003;4.1885898438e+003;4.1944873047e+003;4.1862822266e+003;4.1888461914e+003;4.1920512695e+003;4.1730771484e+003;4.1701284180e+003;4.1430771484e+003;4.1012822266e+003;4.0158974609e+003;
2.9218750000e+000;3.9124357910e+003;4.1516665039e+003;4.1719228516e+003;4.1738461914e+003;4.1823076172e+003;4.1926923828e+003;4.1860258789e+003;4.1885898438e+003;4.1934614258e+003;4.1753847656e+003;4.1712822266e+003;4.1448715820e+003;4.1035898438e+003;4.0167949219e+003;
2.9296875000e+000;3.9151281738e+003;4.1525639648e+003;4.1743588867e+003;4.1739741211e+003;4.1778203125e+003;4.1885898438e+003;4.1832050781e+003;4.1917949219e+003;4.1952563477e+003;4.1801284180e+003;4.1771796875e+003;4.1519228516e+003;4.1080771484e+003;4.0225642090e+003;
2.9375000000e+000;3.9185898438e+003;4.1567949219e+003;4.1737177734e+003;4.1766665039e+003;4.1824360352e+003;4.1882050781e+003;4.1829487305e+003;4.1952563477e+003;4.1957690430e+003;4.1826923828e+003;4.1810258789e+003;4.1564101563e+003;4.1116665039e+003;4.0269230957e+003;
2.9453125000e+000;3.9221794434e+003;4.1619228516e+003;4.1748715820e+003;4.1815385742e+003;4.1870512695e+003;4.1876923828e+003;4.1847436523e+003;4.1992309570e+003;4.1960258789e+003;4.1848715820e+003;4.1842309570e+003;4.1611538086e+003;4.1165385742e+003;4.0315385742e+003;
2.9531250000e+000;3.9264101563e+003;4.1662822266e+003;4.1791025391e+003;4.1871796875e+003;4.1888461914e+003;4.1857690430e+003;4.1876923828e+003;4.2029487305e+003;4.1964101563e+003;4.1865385742e+003;4.1874360352e+003;4.1657690430e+003;4.1223076172e+003;4.0365385742e+003;
2.9609375000e+000;3.9452563477e+003;4.1684614258e+003;4.1934614258e+003;4.1919228516e+003;4.1882050781e+003;4.1857690430e+003;4.1974360352e+003;4.2144873047e+003;4.1967949219e+003;4.1937177734e+003;4.2070512695e+003;4.1780771484e+003;4.1348715820e+003;4.0544870605e+003;
2.9687500000e+000;3.9442307129e+003;4.1688461914e+003;4.1923076172e+003;4.1919228516e+003;4.1892309570e+003;4.1896152344e+003;4.1988461914e+003;4.2148715820e+003;4.1955126953e+003;4.1916665039e+003;4.2047436523e+003;4.1806411133e+003;4.1312822266e+003;4.0546154785e+003;
2.9765625000e+000;3.9364101563e+003;4.1658974609e+003;4.1839741211e+003;4.1897436523e+003;4.1879487305e+003;4.1915385742e+003;4.1887177734e+003;4.2028203125e+003;4.1885898438e+003;4.1798715820e+003;4.1853847656e+003;4.1700000000e+003;4.1175639648e+003;4.0415385742e+003;
2.9843750000e+000;3.9325642090e+003;4.1638461914e+003;4.1758974609e+003;4.1889741211e+003;4.1866665039e+003;4.1967949219e+003;4.1906411133e+003;4.1957690430e+003;4.1888461914e+003;4.1712822266e+003;4.1716665039e+003;4.1510258789e+003;4.1052563477e+003;4.0284614258e+003;
2.9921875000e+000;3.9352563477e+003;4.1658974609e+003;4.1744873047e+003;4.1901284180e+003;4.1887177734e+003;4.1988461914e+003;4.1907690430e+003;4.1951284180e+003;4.1935898438e+003;4.1715385742e+003;4.1696152344e+003;4.1511538086e+003;4.1055126953e+003;4.0288461914e+003;
3.0000000000e+000;3.9491025391e+003;4.1712822266e+003;4.1801284180e+003;4.1896152344e+003;4.1866665039e+003;4.1905126953e+003;4.1847436523e+003;4.1929487305e+003;4.1928203125e+003;4.1729487305e+003;4.1639741211e+003;4.1557690430e+003;4.1039741211e+003;4.0242307129e+003;
3.0078125000e+000;3.9505129395e+003;4.1687177734e+003;4.1756411133e+003;4.1921796875e+003;4.1901284180e+003;4.1929487305e+003;4.1796152344e+003;4.1821796875e+003;4.1933334961e+003;4.1847436523e+003;4.1705126953e+003;4.1557690430e+003;4.1041025391e+003;4.0198718262e+003;
3.0156250000e+000;3.9466667480e+003;4.1671796875e+003;4.1711538086e+003;4.1923076172e+003;4.1866665039e+003;4.1924360352e+003;4.1776923828e+003;4.1824360352e+003;4.1953847656e+003;4.1869228516e+003;4.1697436523e+003;4.1553847656e+003;4.1030771484e+003;4.0185898438e+003;
3.0234375000e+000;3.9467949219e+003;4.1682050781e+003;4.1760258789e+003;4.1873076172e+003;4.1830771484e+003;4.1900000000e+003;4.1733334961e+003;4.1891025391e+003;4.1970512695e+003;4.1826923828e+003;4.1660258789e+003;4.1557690430e+003;4.1046152344e+003;4.0188461914e+003;
3.0312500000e+000;3.9493588867e+003;4.1679487305e+003;4.1767949219e+003;4.1856411133e+003;4.1894873047e+003;4.1916665039e+003;4.1739741211e+003;4.1887177734e+003;4.1985898438e+003;4.1830771484e+003;4.1692309570e+003;4.1550000000e+003;4.1076923828e+003;4.0205129395e+003;
3.0390625000e+000;3.9488461914e+003;4.1671796875e+003;4.1752563477e+003;4.1883334961e+003;4.1960258789e+003;4.1880771484e+003;4.1820512695e+003;4.1941025391e+003;4.1975639648e+003;4.1861538086e+003;4.1750000000e+003;4.1564101563e+003;4.1105126953e+003;4.0206411133e+003;
3.0468750000e+000;3.9482050781e+003;4.1675639648e+003;4.1773076172e+003;4.1912822266e+003;4.1942309570e+003;4.1825639648e+003;4.1864101563e+003;4.2000000000e+003;4.1956411133e+003;4.1880771484e+003;4.1774360352e+003;4.1593588867e+003;4.1128203125e+003;4.0211538086e+003;
3.0546875000e+000;3.9585898438e+003;4.1697436523e+003;4.1865385742e+003;4.1958974609e+003;4.1897436523e+003;4.1751284180e+003;4.1885898438e+003;4.2075639648e+003;4.1998715820e+003;4.1912822266e+003;4.1882050781e+003;4.1706411133e+003;4.1262822266e+003;4.0343588867e+003;
3.0625000000e+000;3.9616667480e+003;4.1710258789e+003;4.1884614258e+003;4.1975639648e+003;4.1905126953e+003;4.1774360352e+003;4.1888461914e+003;4.2078203125e+003;4.2012822266e+003;4.1914101563e+003;4.1897436523e+003;4.1747436523e+003;4.1257690430e+003;4.0371794434e+003;
3.0703125000e+000;3.9624357910e+003;4.1723076172e+003;4.1885898438e+003;4.1985898438e+003;4.1911538086e+003;4.1806411133e+003;4.1885898438e+003;4.2082050781e+003;4.2007690430e+003;4.1933334961e+003;4.1900000000e+003;4.1773076172e+003;4.1238461914e+003;4.0367949219e+003;
3.0781250000e+000;3.9605129395e+003;4.1721796875e+003;4.1852563477e+003;4.1973076172e+003;4.1906411133e+003;4.1830771484e+003;4.1866665039e+003;4.2084614258e+003;4.1996152344e+003;4.1965385742e+003;4.1896152344e+003;4.1761538086e+003;4.1232050781e+003;4.0342307129e+003;
3.0859375000e+000;3.9526923828e+003;4.1651284180e+003;4.1734614258e+003;4.1900000000e+003;4.1905126953e+003;4.1861538086e+003;4.1832050781e+003;4.2023076172e+003;4.1997436523e+003;4.1911538086e+003;4.1847436523e+003;4.1664101563e+003;4.1191025391e+003;4.0303845215e+003;
3.0937500000e+000;3.9592307129e+003;4.1661538086e+003;4.1737177734e+003;4.1908974609e+003;4.1943588867e+003;4.1955126953e+003;4.1828203125e+003;4.1910258789e+003;4.1947436523e+003;4.1934614258e+003;4.1796152344e+003;4.1615385742e+003;4.1207690430e+003;4.0315385742e+003;
3.1015625000e+000;3.9553845215e+003;4.1648715820e+003;4.1725639648e+003;4.1887177734e+003;4.1910258789e+003;4.1912822266e+003;4.1805126953e+003;4.1864101563e+003;4.1902563477e+003;4.1893588867e+003;4.1778203125e+003;4.1608974609e+003;4.1212822266e+003;4.0303845215e+003;
3.1093750000e+000;3.9546154785e+003;4.1648715820e+003;4.1775639648e+003;4.1892309570e+003;4.1878203125e+003;4.1829487305e+003;4.1748715820e+003;4.1798715820e+003;4.1856411133e+003;4.1857690430e+003;4.1810258789e+003;4.1641025391e+003;4.1200000000e+003;4.0324357910e+003;
3.1171875000e+000;3.9575642090e+003;4.1664101563e+003;4.1806411133e+003;4.1923076172e+003;4.1888461914e+003;4.1823076172e+003;4.1748715820e+003;4.1803847656e+003;4.1858974609e+003;4.1875639648e+003;4.1825639648e+003;4.1651284180e+003;4.1194873047e+003;4.0334614258e+003;
3.1250000000e+000;3.9610256348e+003;4.1685898438e+003;4.1796152344e+003;4.1928203125e+003;4.1955126953e+003;4.1917949219e+003;4.1797436523e+003;4.1897436523e+003;4.1911538086e+003;4.1905126953e+003;4.1800000000e+003;4.1642309570e+003;4.1244873047e+003;4.0367949219e+003;
3.1328125000e+000;3.9520512695e+003;4.1556411133e+003;4.1726923828e+003;4.1810258789e+003;4.1733334961e+003;4.1832050781e+003;4.1857690430e+003;4.1964101563e+003;4.1896152344e+003;4.1893588867e+003;4.1796152344e+003;4.1615385742e+003;4.1197436523e+003;4.0393588867e+003;
3.1406250000e+000;3.9510256348e+003;4.1537177734e+003;4.1752563477e+003;4.1841025391e+003;4.1694873047e+003;4.1812822266e+003;4.1903847656e+003;4.1984614258e+003;4.1893588867e+003;4.1887177734e+003;4.1802563477e+003;4.1628203125e+003;4.1185898438e+003;4.0403845215e+003;
3.1484375000e+000;3.9620512695e+003;4.1648715820e+003;4.1834614258e+003;4.1907690430e+003;4.1908974609e+003;4.1834614258e+003;4.1923076172e+003;4.2057690430e+003;4.1897436523e+003;4.1838461914e+003;4.1858974609e+003;4.1724360352e+003;4.1238461914e+003;4.0506411133e+003;
3.1562500000e+000;3.9691025391e+003;4.1692309570e+003;4.1873076172e+003;4.1910258789e+003;4.1929487305e+003;4.1791025391e+003;4.1917949219e+003;4.2066665039e+003;4.1861538086e+003;4.1832050781e+003;4.1870512695e+003;4.1751284180e+003;4.1237177734e+003;4.0530769043e+003;
3.1640625000e+000;3.9830769043e+003;4.1729487305e+003;4.1974360352e+003;4.1980771484e+003;4.1882050781e+003;4.1719228516e+003;4.1911538086e+003;4.2043588867e+003;4.1830771484e+003;4.1900000000e+003;4.1929487305e+003;4.1807690430e+003;4.1297436523e+003;4.0579487305e+003;
3.1718750000e+000;3.9856411133e+003;4.1734614258e+003;4.1978203125e+003;4.2017949219e+003;4.1888461914e+003;4.1738461914e+003;4.1897436523e+003;4.2028203125e+003;4.1860258789e+003;4.1947436523e+003;4.1974360352e+003;4.1814101563e+003;4.1365385742e+003;4.0603845215e+003;
3.1796875000e+000;3.9753845215e+003;4.1737177734e+003;4.1832050781e+003;4.1956411133e+003;4.1944873047e+003;4.1862822266e+003;4.1811538086e+003;4.2028203125e+003;4.1920512695e+003;4.1956411133e+003;4.1932050781e+003;4.1694873047e+003;4.1356411133e+003;4.0533332520e+003;
3.1875000000e+000;3.9756411133e+003;4.1716665039e+003;4.1808974609e+003;4.1925639648e+003;4.1948715820e+003;4.1884614258e+003;4.1776923828e+003;4.2023076172e+003;4.1915385742e+003;4.1946152344e+003;4.1878203125e+003;4.1656411133e+003;4.1297436523e+003;4.0484614258e+003;
3.1953125000e+000;3.9782050781e+003;4.1691025391e+003;4.1796152344e+003;4.1914101563e+003;4.1965385742e+003;4.1902563477e+003;4.1750000000e+003;4.2003847656e+003;4.1914101563e+003;4.1939741211e+003;4.1843588867e+003;4.1628203125e+003;4.1262822266e+003;4.0450000000e+003;
3.2031250000e+000;3.9803845215e+003;4.1669228516e+003;4.1779487305e+003;4.1923076172e+003;4.1994873047e+003;4.1919228516e+003;4.1743588867e+003;4.1975639648e+003;4.1908974609e+003;4.1926923828e+003;4.1830771484e+003;4.1608974609e+003;4.1260258789e+003;4.0435898438e+003;
3.2109375000e+000;3.9838461914e+003;4.1712822266e+003;4.1714101563e+003;4.1910258789e+003;4.2030771484e+003;4.1960258789e+003;4.1785898438e+003;4.1847436523e+003;4.1935898438e+003;4.1956411133e+003;4.1888461914e+003;4.1614101563e+003;4.1373076172e+003;4.0492307129e+003;
3.2187500000e+000;3.9869230957e+003;4.1703847656e+003;4.1720512695e+003;4.1894873047e+003;4.2030771484e+003;4.1969228516e+003;4.1752563477e+003;4.1838461914e+003;4.1953847656e+003;4.1987177734e+003;4.1898715820e+003;4.1614101563e+003;4.1383334961e+003;4.0508974609e+003;
3.2265625000e+000;3.9850000000e+003;4.1658974609e+003;4.1762822266e+003;4.1917949219e+003;4.2012822266e+003;4.1951284180e+003;4.1753847656e+003;4.1837177734e+003;4.1848715820e+003;4.1883334961e+003;4.1850000000e+003;4.1625639648e+003;4.1302563477e+003;4.0496154785e+003;
3.2343750000e+000;3.9805129395e+003;4.1644873047e+003;4.1675639648e+003;4.1852563477e+003;4.1907690430e+003;4.1871796875e+003;4.1834614258e+003;4.1816665039e+003;4.1866665039e+003;4.1878203125e+003;4.1820512695e+003;4.1537177734e+003;4.1224360352e+003;4.0424357910e+003;
3.2421875000e+000;3.9788461914e+003;4.1630771484e+003;4.1675639648e+003;4.1829487305e+003;4.1903847656e+003;4.1847436523e+003;4.1870512695e+003;4.1875639648e+003;4.1907690430e+003;4.1891025391e+003;4.1808974609e+003;4.1515385742e+003;4.1224360352e+003;4.0385898438e+003;
3.2500000000e+000;3.9785898438e+003;4.1624360352e+003;4.1678203125e+003;4.1874360352e+003;4.1869228516e+003;4.1844873047e+003;4.1952563477e+003;4.2034614258e+003;4.1960258789e+003;4.1901284180e+003;4.1792309570e+003;4.1547436523e+003;4.1258974609e+003;4.0373076172e+003;
3.2578125000e+000;3.9824357910e+003;4.1669228516e+003;4.1725639648e+003;4.1906411133e+003;4.1853847656e+003;4.1783334961e+003;4.1979487305e+003;4.2044873047e+003;4.1894873047e+003;4.1876923828e+003;4.1896152344e+003;4.1634614258e+003;4.1293588867e+003;4.0500000000e+003;
3.2656250000e+000;3.9861538086e+003;4.1678203125e+003;4.1776923828e+003;4.1903847656e+003;4.1928203125e+003;4.1755126953e+003;4.1948715820e+003;4.2074360352e+003;4.1908974609e+003;4.1898715820e+003;4.1957690430e+003;4.1691025391e+003;4.1353847656e+003;4.0569230957e+003;
3.2734375000e+000;3.9953845215e+003;4.1721796875e+003;4.1885898438e+003;4.1985898438e+003;4.1994873047e+003;4.1778203125e+003;4.1903847656e+003;4.2158974609e+003;4.2007690430e+003;4.2056411133e+003;4.2030771484e+003;4.1842309570e+003;4.1434614258e+003;4.0687180176e+003;
3.2812500000e+000;3.9941025391e+003;4.1750000000e+003;4.1887177734e+003;4.2007690430e+003;4.1966665039e+003;4.1823076172e+003;4.1900000000e+003;4.2161538086e+003;4.2017949219e+003;4.2078203125e+003;4.2014101563e+003;4.1828203125e+003;4.1415385742e+003;4.0679487305e+003;
3.2890625000e+000;3.9876923828e+003;4.1751284180e+003;4.1798715820e+003;4.1941025391e+003;4.1974360352e+003;4.1920512695e+003;4.1842309570e+003;4.2097436523e+003;4.1983334961e+003;4.2012822266e+003;4.1956411133e+003;4.1694873047e+003;4.1358974609e+003;4.0625642090e+003;
3.2968750000e+000;3.9843588867e+003;4.1717949219e+003;4.1753847656e+003;4.1898715820e+003;4.1991025391e+003;4.1950000000e+003;4.1817949219e+003;4.2039741211e+003;4.1948715820e+003;4.1950000000e+003;4.1910258789e+003;4.1642309570e+003;4.1325639648e+003;4.0602563477e+003;
3.3046875000e+000;3.9842307129e+003;4.1673076172e+003;4.1766665039e+003;4.1906411133e+003;4.1978203125e+003;4.1962822266e+003;4.1761538086e+003;4.1887177734e+003;4.1896152344e+003;4.1939741211e+003;4.1842309570e+003;4.1648715820e+003;4.1292309570e+003;4.0606411133e+003;
3.3125000000e+000;3.9856411133e+003;4.1667949219e+003;4.1752563477e+003;4.1893588867e+003;4.1961538086e+003;4.1948715820e+003;4.1721796875e+003;4.1855126953e+003;4.1879487305e+003;4.1969228516e+003;4.1846152344e+003;4.1632050781e+003;4.1298715820e+003;4.0596154785e+003;
3.3203125000e+000;3.9861538086e+003;4.1648715820e+003;4.1728203125e+003;4.1866665039e+003;4.1932050781e+003;4.1925639648e+003;4.1691025391e+003;4.1829487305e+003;4.1848715820e+003;4.1962822266e+003;4.1838461914e+003;4.1605126953e+003;4.1287177734e+003;4.0574357910e+003;
3.3281250000e+000;3.9864101563e+003;4.1621796875e+003;4.1715385742e+003;4.1844873047e+003;4.1893588867e+003;4.1903847656e+003;4.1679487305e+003;4.1806411133e+003;4.1814101563e+003;4.1925639648e+003;4.1817949219e+003;4.1592309570e+003;4.1257690430e+003;4.0562819824e+003;
3.3359375000e+000;3.9862819824e+003;4.1619228516e+003;4.1721796875e+003;4.1853847656e+003;4.1915385742e+003;4.1947436523e+003;4.1769228516e+003;4.1833334961e+003;4.1898715820e+003;4.1924360352e+003;4.1819228516e+003;4.1579487305e+003;4.1270512695e+003;4.0601281738e+003;
3.3437500000e+000;3.9866667480e+003;4.1623076172e+003;4.1721796875e+003;4.1873076172e+003;4.1939741211e+003;4.1935898438e+003;4.1823076172e+003;4.1916665039e+003;4.1911538086e+003;4.1934614258e+003;4.1814101563e+003;4.1558974609e+003;4.1266665039e+003;4.0576923828e+003;
3.3515625000e+000;3.9989743652e+003;4.1637177734e+003;4.1760258789e+003;4.1933334961e+003;4.1971796875e+003;4.1864101563e+003;4.1980771484e+003;4.2155126953e+003;4.1951284180e+003;4.1942309570e+003;4.1921796875e+003;4.1651284180e+003;4.1274360352e+003;4.0616667480e+003;
3.3593750000e+000;4.0043588867e+003;4.1657690430e+003;4.1811538086e+003;4.1932050781e+003;4.1902563477e+003;4.1748715820e+003;4.1971796875e+003;4.2164101563e+003;4.1888461914e+003;4.1873076172e+003;4.1893588867e+003;4.1737177734e+003;4.1339741211e+003;4.0637180176e+003;
3.3671875000e+000;4.0053845215e+003;4.1656411133e+003;4.1801284180e+003;4.1921796875e+003;4.1900000000e+003;4.1752563477e+003;4.1935898438e+003;4.2141025391e+003;4.1851284180e+003;4.1866665039e+003;4.1867949219e+003;4.1726923828e+003;4.1342309570e+003;4.0643588867e+003;
3.3750000000e+000;4.0028205566e+003;4.1662822266e+003;4.1765385742e+003;4.1932050781e+003;4.1947436523e+003;4.1807690430e+003;4.1924360352e+003;4.2091025391e+003;4.1829487305e+003;4.1914101563e+003;4.1888461914e+003;4.1698715820e+003;4.1293588867e+003;4.0697436523e+003;
3.3828125000e+000;4.0082050781e+003;4.1684614258e+003;4.1788461914e+003;4.1933334961e+003;4.1964101563e+003;4.1782050781e+003;4.1870512695e+003;4.2011538086e+003;4.1833334961e+003;4.1930771484e+003;4.1921796875e+003;4.1694873047e+003;4.1330771484e+003;4.0678205566e+003;
3.3906250000e+000;4.0089743652e+003;4.1648715820e+003;4.1738461914e+003;4.1912822266e+003;4.1921796875e+003;4.1816665039e+003;4.1825639648e+003;4.1974360352e+003;4.1842309570e+003;4.1928203125e+003;4.1896152344e+003;4.1660258789e+003;4.1317949219e+003;4.0665385742e+003;
3.3984375000e+000;4.0076923828e+003;4.1620512695e+003;4.1698715820e+003;4.1896152344e+003;4.1874360352e+003;4.1869228516e+003;4.1812822266e+003;4.1956411133e+003;4.1850000000e+003;4.1912822266e+003;4.1853847656e+003;4.1633334961e+003;4.1280771484e+003;4.0655129395e+003;
3.4062500000e+000;4.0037180176e+003;4.1612822266e+003;4.1705126953e+003;4.1864101563e+003;4.1898715820e+003;4.1964101563e+003;4.1844873047e+003;4.1973076172e+003;4.1865385742e+003;4.1873076172e+003;4.1791025391e+003;4.1626923828e+003;4.1234614258e+003;4.0632050781e+003;
3.4140625000e+000;4.0003845215e+003;4.1589741211e+003;4.1671796875e+003;4.1803847656e+003;4.2046152344e+003;4.1937177734e+003;4.1805126953e+003;4.1887177734e+003;4.1791025391e+003;4.1815385742e+003;4.1720512695e+003;4.1520512695e+003;4.1201284180e+003;4.0569230957e+003;
3.4218750000e+000;3.9994870605e+003;4.1574360352e+003;4.1669228516e+003;4.1808974609e+003;4.2024360352e+003;4.1933334961e+003;4.1806411133e+003;4.1865385742e+003;4.1774360352e+003;4.1801284180e+003;4.1720512695e+003;4.1517949219e+003;4.1173076172e+003;4.0592307129e+003;
3.4296875000e+000;3.9987180176e+003;4.1566665039e+003;4.1693588867e+003;4.1826923828e+003;4.1946152344e+003;4.2010258789e+003;4.1897436523e+003;4.1948715820e+003;4.1908974609e+003;4.1892309570e+003;4.1811538086e+003;4.1593588867e+003;4.1243588867e+003;4.0652563477e+003;
