Time (s);AF3;F7;F3;FC5;T7;P7;O1;O2;P8;T8;FC6;F4;F8;AF4;Sampling Rate
0.0000000000e+000;3.9520512695e+003;3.8530769043e+003;3.8565385742e+003;3.8780769043e+003;3.8573076172e+003;3.8461538086e+003;3.8634614258e+003;3.8534614258e+003;3.8624357910e+003;3.8661538086e+003;3.8594870605e+003;3.8725642090e+003;3.8541025391e+003;3.8537180176e+003;128
7.8125000000e-003;3.9796154785e+003;3.8866667480e+003;3.8875642090e+003;3.9064101563e+003;3.8805129395e+003;3.8683332520e+003;3.8837180176e+003;3.8848718262e+003;3.8938461914e+003;3.8998718262e+003;3.8925642090e+003;3.9089743652e+003;3.8871794434e+003;3.8906411133e+003;
1.5625000000e-002;4.0535898438e+003;3.9703845215e+003;3.9669230957e+003;3.9764101563e+003;3.9597436523e+003;3.9416667480e+003;3.9589743652e+003;3.9507692871e+003;3.9656411133e+003;3.9723076172e+003;3.9648718262e+003;3.9780769043e+003;3.9648718262e+003;3.9601281738e+003;
2.3437500000e-002;4.0866667480e+003;4.0083332520e+003;4.0011538086e+003;4.0092307129e+003;3.9985898438e+003;3.9756411133e+003;3.9950000000e+003;3.9898718262e+003;4.0039743652e+003;4.0138461914e+003;4.0017949219e+003;4.0146154785e+003;4.0032050781e+003;3.9958974609e+003;
3.1250000000e-002;4.0566667480e+003;3.9866667480e+003;3.9787180176e+003;3.9888461914e+003;3.9801281738e+003;3.9589743652e+003;3.9710256348e+003;3.9719230957e+003;3.9844870605e+003;3.9917949219e+003;3.9870512695e+003;3.9920512695e+003;3.9819230957e+003;3.9764101563e+003;
3.9062500000e-002;4.0642307129e+003;3.9980769043e+003;3.9876923828e+003;3.9976923828e+003;3.9914101563e+003;3.9685898438e+003;3.9798718262e+003;3.9805129395e+003;3.9956411133e+003;3.9996154785e+003;3.9978205566e+003;3.9987180176e+003;3.9914101563e+003;3.9869230957e+003;
4.6875000000e-002;4.0634614258e+003;4.0010256348e+003;3.9871794434e+003;3.9952563477e+003;3.9928205566e+003;3.9687180176e+003;3.9864101563e+003;3.9837180176e+003;4.0008974609e+003;4.0037180176e+003;3.9965385742e+003;4.0020512695e+003;3.9929487305e+003;3.9897436523e+003;
5.4687500000e-002;4.0561538086e+003;3.9926923828e+003;3.9796154785e+003;3.9866667480e+003;3.9838461914e+003;3.9602563477e+003;3.9825642090e+003;3.9762819824e+003;3.9921794434e+003;3.9970512695e+003;3.9880769043e+003;3.9971794434e+003;3.9856411133e+003;3.9817949219e+003;
6.2500000000e-002;4.1012822266e+003;4.0434614258e+003;4.0275642090e+003;4.0348718262e+003;4.0280769043e+003;4.0017949219e+003;4.0239743652e+003;4.0244870605e+003;4.0375642090e+003;4.0482050781e+003;4.0488461914e+003;4.0487180176e+003;4.0387180176e+003;4.0339743652e+003;
7.0312500000e-002;4.0919230957e+003;4.0367949219e+003;4.0198718262e+003;4.0276923828e+003;4.0193588867e+003;3.9953845215e+003;4.0153845215e+003;4.0180769043e+003;4.0310256348e+003;4.0402563477e+003;4.0424357910e+003;4.0424357910e+003;4.0308974609e+003;4.0283332520e+003;
7.8125000000e-002;4.0820512695e+003;4.0270512695e+003;4.0103845215e+003;4.0170512695e+003;4.0096154785e+003;3.9869230957e+003;4.0078205566e+003;4.0079487305e+003;4.0201281738e+003;4.0279487305e+003;4.0303845215e+003;4.0333332520e+003;4.0196154785e+003;4.0182050781e+003;
8.5937500000e-002;4.0985898438e+003;4.0416667480e+003;4.0258974609e+003;4.0296154785e+003;4.0265385742e+003;4.0011538086e+003;4.0255129395e+003;4.0214101563e+003;4.0325642090e+003;4.0405129395e+003;4.0430769043e+003;4.0482050781e+003;4.0337180176e+003;4.0314101563e+003;
9.3750000000e-002;4.1512822266e+003;4.1055126953e+003;4.0920512695e+003;4.0932050781e+003;4.0932050781e+003;4.0632050781e+003;4.0926923828e+003;4.0878205566e+003;4.0979487305e+003;4.1100000000e+003;4.1157690430e+003;4.1150000000e+003;4.0991025391e+003;4.0993588867e+003;
1.0156250000e-001;4.1505126953e+003;4.1088461914e+003;4.0924357910e+003;4.0964101563e+003;4.0950000000e+003;4.0666667480e+003;4.0961538086e+003;4.0882050781e+003;4.0998715820e+003;4.1124360352e+003;4.1182050781e+003;4.1165385742e+003;4.1026923828e+003;4.1014101563e+003;
1.0937500000e-001;4.1801284180e+003;4.1443588867e+003;4.1310258789e+003;4.1283334961e+003;4.1334614258e+003;4.1021796875e+003;4.1234614258e+003;4.1233334961e+003;4.1373076172e+003;4.1534614258e+003;4.1525639648e+003;4.1515385742e+003;4.1402563477e+003;4.1317949219e+003;
1.1718750000e-001;4.1937177734e+003;4.1800000000e+003;4.1592309570e+003;4.1535898438e+003;4.1630771484e+003;4.1252563477e+003;4.1547436523e+003;4.1469228516e+003;4.1569228516e+003;4.1701284180e+003;4.1660258789e+003;4.1700000000e+003;4.1574360352e+003;4.1534614258e+003;
1.2500000000e-001;4.2174360352e+003;4.2069228516e+003;4.1848715820e+003;4.1776923828e+003;4.1906411133e+003;4.1507690430e+003;4.1819228516e+003;4.1756411133e+003;4.1866665039e+003;4.2020512695e+003;4.1951284180e+003;4.1984614258e+003;4.1856411133e+003;4.1814101563e+003;
1.3281250000e-001;4.1417949219e+003;4.1207690430e+003;4.1176923828e+003;4.1083334961e+003;4.1220512695e+003;4.0942307129e+003;4.1198715820e+003;4.1176923828e+003;4.1298715820e+003;4.1430771484e+003;4.1315385742e+003;4.1330771484e+003;4.1179487305e+003;4.1112822266e+003;
1.4062500000e-001;4.1503847656e+003;4.1373076172e+003;4.1276923828e+003;4.1212822266e+003;4.1312822266e+003;4.1084614258e+003;4.1344873047e+003;4.1350000000e+003;4.1456411133e+003;4.1612822266e+003;4.1408974609e+003;4.1469228516e+003;4.1332050781e+003;4.1261538086e+003;
1.4843750000e-001;4.1238461914e+003;4.1100000000e+003;4.1008974609e+003;4.0962822266e+003;4.1024360352e+003;4.0816667480e+003;4.1064101563e+003;4.1052563477e+003;4.1165385742e+003;4.1323076172e+003;4.1148715820e+003;4.1197436523e+003;4.1067949219e+003;4.1017949219e+003;
1.5625000000e-001;4.1087177734e+003;4.0937180176e+003;4.0856411133e+003;4.0824357910e+003;4.0862819824e+003;4.0652563477e+003;4.0892307129e+003;4.0853845215e+003;4.0979487305e+003;4.1121796875e+003;4.1014101563e+003;4.1032050781e+003;4.0921794434e+003;4.0875642090e+003;
1.6406250000e-001;4.1497436523e+003;4.1382050781e+003;4.1288461914e+003;4.1246152344e+003;4.1283334961e+003;4.1014101563e+003;4.1264101563e+003;4.1234614258e+003;4.1397436523e+003;4.1505126953e+003;4.1487177734e+003;4.1485898438e+003;4.1385898438e+003;4.1301284180e+003;
1.7187500000e-001;4.1305126953e+003;4.1205126953e+003;4.1097436523e+003;4.1084614258e+003;4.1034614258e+003;4.0805129395e+003;4.1066665039e+003;4.1026923828e+003;4.1138461914e+003;4.1282050781e+003;4.1206411133e+003;4.1283334961e+003;4.1161538086e+003;4.1093588867e+003;
1.7968750000e-001;4.1366665039e+003;4.1269228516e+003;4.1153847656e+003;4.1160258789e+003;4.1114101563e+003;4.0871794434e+003;4.1130771484e+003;4.1093588867e+003;4.1188461914e+003;4.1341025391e+003;4.1243588867e+003;4.1311538086e+003;4.1203847656e+003;4.1165385742e+003;
1.8750000000e-001;4.1338461914e+003;4.1323076172e+003;4.1257690430e+003;4.1239741211e+003;4.1234614258e+003;4.0997436523e+003;4.1219228516e+003;4.1229487305e+003;4.1307690430e+003;4.1416665039e+003;4.1305126953e+003;4.1391025391e+003;4.1228203125e+003;4.1233334961e+003;
1.9531250000e-001;4.1320512695e+003;4.1320512695e+003;4.1258974609e+003;4.1224360352e+003;4.1239741211e+003;4.0992309570e+003;4.1220512695e+003;4.1205126953e+003;4.1267949219e+003;4.1378203125e+003;4.1276923828e+003;4.1370512695e+003;4.1217949219e+003;4.1201284180e+003;
2.0312500000e-001;4.1573076172e+003;4.1579487305e+003;4.1493588867e+003;4.1447436523e+003;4.1494873047e+003;4.1194873047e+003;4.1439741211e+003;4.1421796875e+003;4.1474360352e+003;4.1614101563e+003;4.1506411133e+003;4.1596152344e+003;4.1474360352e+003;4.1429487305e+003;
2.1093750000e-001;4.1901284180e+003;4.1907690430e+003;4.1793588867e+003;4.1744873047e+003;4.1803847656e+003;4.1450000000e+003;4.1706411133e+003;4.1721796875e+003;4.1775639648e+003;4.1957690430e+003;4.1824360352e+003;4.1911538086e+003;4.1808974609e+003;4.1746152344e+003;
2.1875000000e-001;4.1371796875e+003;4.1405126953e+003;4.1338461914e+003;4.1293588867e+003;4.1237177734e+003;4.0956411133e+003;4.1211538086e+003;4.1139741211e+003;4.1264101563e+003;4.1389741211e+003;4.1300000000e+003;4.1403847656e+003;4.1241025391e+003;4.1229487305e+003;
2.2656250000e-001;4.1435898438e+003;4.1493588867e+003;4.1411538086e+003;4.1375639648e+003;4.1343588867e+003;4.1034614258e+003;4.1293588867e+003;4.1207690430e+003;4.1320512695e+003;4.1467949219e+003;4.1361538086e+003;4.1458974609e+003;4.1306411133e+003;4.1308974609e+003;
2.3437500000e-001;4.1314101563e+003;4.1407690430e+003;4.1287177734e+003;4.1334614258e+003;4.1330771484e+003;4.1000000000e+003;4.1233334961e+003;4.1182050781e+003;4.1219228516e+003;4.1434614258e+003;4.1294873047e+003;4.1397436523e+003;4.1246152344e+003;4.1232050781e+003;
2.4218750000e-001;4.1247436523e+003;4.1346152344e+003;4.1208974609e+003;4.1293588867e+003;4.1310258789e+003;4.0983334961e+003;4.1210258789e+003;4.1146152344e+003;4.1170512695e+003;4.1371796875e+003;4.1264101563e+003;4.1353847656e+003;4.1217949219e+003;4.1166665039e+003;
2.5000000000e-001;4.1551284180e+003;4.1652563477e+003;4.1493588867e+003;4.1551284180e+003;4.1643588867e+003;4.1306411133e+003;4.1535898438e+003;4.1460258789e+003;4.1534614258e+003;4.1693588867e+003;4.1623076172e+003;4.1650000000e+003;4.1573076172e+003;4.1488461914e+003;
2.5781250000e-001;4.1732050781e+003;4.1837177734e+003;4.1675639648e+003;4.1694873047e+003;4.1788461914e+003;4.1469228516e+003;4.1694873047e+003;4.1630771484e+003;4.1666665039e+003;4.1892309570e+003;4.1743588867e+003;4.1798715820e+003;4.1743588867e+003;4.1646152344e+003;
2.6562500000e-001;4.2193588867e+003;4.2326923828e+003;4.2143588867e+003;4.2146152344e+003;4.2294873047e+003;4.1901284180e+003;4.2166665039e+003;4.2105126953e+003;4.2137177734e+003;4.2371796875e+003;4.2226923828e+003;4.2256411133e+003;4.2246152344e+003;4.2101284180e+003;
2.7343750000e-001;4.2094873047e+003;4.2296152344e+003;4.2097436523e+003;4.2093588867e+003;4.2261538086e+003;4.1871796875e+003;4.2126923828e+003;4.2102563477e+003;4.2139741211e+003;4.2367949219e+003;4.2187177734e+003;4.2201284180e+003;4.2205126953e+003;4.2079487305e+003;
2.8125000000e-001;4.1698715820e+003;4.1916665039e+003;4.1703847656e+003;4.1735898438e+003;4.1867949219e+003;4.1533334961e+003;4.1751284180e+003;4.1719228516e+003;4.1764101563e+003;4.1980771484e+003;4.1776923828e+003;4.1801284180e+003;4.1793588867e+003;4.1714101563e+003;
2.8906250000e-001;4.2026923828e+003;4.2258974609e+003;4.2008974609e+003;4.2064101563e+003;4.2192309570e+003;4.1856411133e+003;4.2041025391e+003;4.2012822266e+003;4.2065385742e+003;4.2328203125e+003;4.2096152344e+003;4.2121796875e+003;4.2139741211e+003;4.2061538086e+003;
2.9687500000e-001;4.2048715820e+003;4.2283334961e+003;4.2051284180e+003;4.2093588867e+003;4.2229487305e+003;4.1891025391e+003;4.2078203125e+003;4.2048715820e+003;4.2094873047e+003;4.2366665039e+003;4.2148715820e+003;4.2180771484e+003;4.2197436523e+003;4.2088461914e+003;
3.0468750000e-001;4.1938461914e+003;4.2178203125e+003;4.1950000000e+003;4.1996152344e+003;4.2134614258e+003;4.1794873047e+003;4.1993588867e+003;4.1934614258e+003;4.1984614258e+003;4.2247436523e+003;4.2052563477e+003;4.2094873047e+003;4.2098715820e+003;4.1969228516e+003;
3.1250000000e-001;4.1917949219e+003;4.2167949219e+003;4.1924360352e+003;4.1983334961e+003;4.2124360352e+003;4.1770512695e+003;4.1987177734e+003;4.1900000000e+003;4.1962822266e+003;4.2215385742e+003;4.2034614258e+003;4.2082050781e+003;4.2071796875e+003;4.1935898438e+003;
3.2031250000e-001;4.1426923828e+003;4.1680771484e+003;4.1550000000e+003;4.1537177734e+003;4.1634614258e+003;4.1350000000e+003;4.1533334961e+003;4.1526923828e+003;4.1558974609e+003;4.1755126953e+003;4.1567949219e+003;4.1647436523e+003;4.1591025391e+003;4.1514101563e+003;
3.2812500000e-001;4.1229487305e+003;4.1579487305e+003;4.1294873047e+003;4.1448715820e+003;4.1546152344e+003;4.1205126953e+003;4.1392309570e+003;4.1430771484e+003;4.1485898438e+003;4.1642309570e+003;4.1437177734e+003;4.1483334961e+003;4.1496152344e+003;4.1301284180e+003;
3.3593750000e-001;4.0864101563e+003;4.1189741211e+003;4.0930769043e+003;4.1087177734e+003;4.1162822266e+003;4.0876923828e+003;4.1065385742e+003;4.1087177734e+003;4.1143588867e+003;4.1291025391e+003;4.1098715820e+003;4.1124360352e+003;4.1147436523e+003;4.0965385742e+003;
3.4375000000e-001;4.0791025391e+003;4.1046152344e+003;4.0862819824e+003;4.0966665039e+003;4.1042309570e+003;4.0815385742e+003;4.1006411133e+003;4.0984614258e+003;4.1044873047e+003;4.1194873047e+003;4.1051284180e+003;4.1043588867e+003;4.1088461914e+003;4.0948718262e+003;
3.5156250000e-001;4.0976923828e+003;4.1197436523e+003;4.1042309570e+003;4.1128203125e+003;4.1196152344e+003;4.0970512695e+003;4.1160258789e+003;4.1141025391e+003;4.1208974609e+003;4.1365385742e+003;4.1224360352e+003;4.1234614258e+003;4.1265385742e+003;4.1130771484e+003;
3.5937500000e-001;4.1115385742e+003;4.1256411133e+003;4.1158974609e+003;4.1225639648e+003;4.1287177734e+003;4.1006411133e+003;4.1233334961e+003;4.1116665039e+003;4.1201284180e+003;4.1328203125e+003;4.1214101563e+003;4.1344873047e+003;4.1269228516e+003;4.1116665039e+003;
3.6718750000e-001;4.1597436523e+003;4.1810258789e+003;4.1700000000e+003;4.1724360352e+003;4.1825639648e+003;4.1461538086e+003;4.1660258789e+003;4.1566665039e+003;4.1651284180e+003;4.1853847656e+003;4.1746152344e+003;4.1870512695e+003;4.1771796875e+003;4.1671796875e+003;
3.7500000000e-001;4.1457690430e+003;4.1685898438e+003;4.1555126953e+003;4.1592309570e+003;4.1653847656e+003;4.1317949219e+003;4.1493588867e+003;4.1407690430e+003;4.1503847656e+003;4.1716665039e+003;4.1602563477e+003;4.1734614258e+003;4.1639741211e+003;4.1553847656e+003;
3.8281250000e-001;4.1394873047e+003;4.1625639648e+003;4.1466665039e+003;4.1506411133e+003;4.1544873047e+003;4.1226923828e+003;4.1393588867e+003;4.1308974609e+003;4.1410258789e+003;4.1632050781e+003;4.1516665039e+003;4.1655126953e+003;4.1570512695e+003;4.1488461914e+003;
3.9062500000e-001;4.1397436523e+003;4.1601284180e+003;4.1441025391e+003;4.1446152344e+003;4.1500000000e+003;4.1193588867e+003;4.1339741211e+003;4.1316665039e+003;4.1387177734e+003;4.1633334961e+003;4.1530771484e+003;4.1674360352e+003;4.1594873047e+003;4.1514101563e+003;
3.9843750000e-001;4.0725642090e+003;4.0879487305e+003;4.0773076172e+003;4.0812819824e+003;4.0843588867e+003;4.0605129395e+003;4.0723076172e+003;4.0702563477e+003;4.0770512695e+003;4.0960258789e+003;4.0905129395e+003;4.1050000000e+003;4.0969228516e+003;4.0896154785e+003;
4.0625000000e-001;4.0600000000e+003;4.0750000000e+003;4.0624357910e+003;4.0700000000e+003;4.0715385742e+003;4.0498718262e+003;4.0634614258e+003;4.0569230957e+003;4.0666667480e+003;4.0815385742e+003;4.0762819824e+003;4.0892307129e+003;4.0843588867e+003;4.0762819824e+003;
4.1406250000e-001;4.0841025391e+003;4.1011538086e+003;4.0835898438e+003;4.0928205566e+003;4.0941025391e+003;4.0717949219e+003;4.0889743652e+003;4.0794870605e+003;4.0925642090e+003;4.1051284180e+003;4.0969228516e+003;4.1079487305e+003;4.1065385742e+003;4.0978203125e+003;
4.2187500000e-001;4.1434614258e+003;4.1628203125e+003;4.1435898438e+003;4.1484614258e+003;4.1502563477e+003;4.1255126953e+003;4.1461538086e+003;4.1394873047e+003;4.1530771484e+003;4.1655126953e+003;4.1487177734e+003;4.1619228516e+003;4.1579487305e+003;4.1520512695e+003;
4.2968750000e-001;4.1523076172e+003;4.1701284180e+003;4.1548715820e+003;4.1566665039e+003;4.1601284180e+003;4.1342309570e+003;4.1535898438e+003;4.1480771484e+003;4.1589741211e+003;4.1714101563e+003;4.1542309570e+003;4.1700000000e+003;4.1634614258e+003;4.1580771484e+003;
4.3750000000e-001;4.1724360352e+003;4.1891025391e+003;4.1757690430e+003;4.1753847656e+003;4.1832050781e+003;4.1539741211e+003;4.1724360352e+003;4.1665385742e+003;4.1752563477e+003;4.1887177734e+003;4.1725639648e+003;4.1889741211e+003;4.1830771484e+003;4.1753847656e+003;
4.4531250000e-001;4.2197436523e+003;4.2502563477e+003;4.2278203125e+003;4.2262822266e+003;4.2383334961e+003;4.2085898438e+003;4.2278203125e+003;4.2270512695e+003;4.2343588867e+003;4.2541025391e+003;4.2353847656e+003;4.2498715820e+003;4.2453847656e+003;4.2393588867e+003;
4.5312500000e-001;4.2387177734e+003;4.2700000000e+003;4.2491025391e+003;4.2430771484e+003;4.2587177734e+003;4.2261538086e+003;4.2453847656e+003;4.2458974609e+003;4.2519228516e+003;4.2706411133e+003;4.2557690430e+003;4.2706411133e+003;4.2655126953e+003;4.2598715820e+003;
4.6093750000e-001;4.2641025391e+003;4.2956411133e+003;4.2764101563e+003;4.2657690430e+003;4.2808974609e+003;4.2508974609e+003;4.2666665039e+003;4.2670512695e+003;4.2762822266e+003;4.2984614258e+003;4.2825639648e+003;4.2973076172e+003;4.2938461914e+003;4.2838461914e+003;
4.6875000000e-001;4.2993588867e+003;4.3351284180e+003;4.3138461914e+003;4.3024360352e+003;4.3165385742e+003;4.2814101563e+003;4.2996152344e+003;4.2970512695e+003;4.3079487305e+003;4.3328203125e+003;4.3170512695e+003;4.3301284180e+003;4.3287177734e+003;4.3208974609e+003;
4.7656250000e-001;4.2810258789e+003;4.3176923828e+003;4.3014101563e+003;4.2865385742e+003;4.3012822266e+003;4.2653847656e+003;4.2823076172e+003;4.2850000000e+003;4.2958974609e+003;4.3203847656e+003;4.3033334961e+003;4.3188461914e+003;4.3146152344e+003;4.3093588867e+003;
4.8437500000e-001;4.1644873047e+003;4.1914101563e+003;4.1874360352e+003;4.1711538086e+003;4.1829487305e+003;4.1548715820e+003;4.1747436523e+003;4.1733334961e+003;4.1783334961e+003;4.1928203125e+003;4.1894873047e+003;4.2038461914e+003;4.1988461914e+003;4.1948715820e+003;
4.9218750000e-001;4.3025639648e+003;4.3417949219e+003;4.3278203125e+003;4.3110258789e+003;4.3297436523e+003;4.2964101563e+003;4.3178203125e+003;4.3211538086e+003;4.3239741211e+003;4.3394873047e+003;4.3335898438e+003;4.3452563477e+003;4.3420512695e+003;4.3357690430e+003;
5.0000000000e-001;4.3437177734e+003;4.3885898438e+003;4.3708974609e+003;4.3544873047e+003;4.3765385742e+003;4.3402563477e+003;4.3623076172e+003;4.3670512695e+003;4.3688461914e+003;4.3873076172e+003;4.3752563477e+003;4.3885898438e+003;4.3850000000e+003;4.3798715820e+003;
5.0781250000e-001;4.3816665039e+003;4.4298715820e+003;4.4085898438e+003;4.3925639648e+003;4.4188461914e+003;4.3789741211e+003;4.4021796875e+003;4.4088461914e+003;4.4092309570e+003;4.4315385742e+003;4.4141025391e+003;4.4270512695e+003;4.4246152344e+003;4.4200000000e+003;
5.1562500000e-001;4.3906411133e+003;4.4384614258e+003;4.4171796875e+003;4.3997436523e+003;4.4310258789e+003;4.3924360352e+003;4.4147436523e+003;4.4264101563e+003;4.4237177734e+003;4.4524360352e+003;4.4296152344e+003;4.4393588867e+003;4.4373076172e+003;4.4325639648e+003;
5.2343750000e-001;4.3570512695e+003;4.4042309570e+003;4.3861538086e+003;4.3675639648e+003;4.3982050781e+003;4.3643588867e+003;4.3860258789e+003;4.3947436523e+003;4.3921796875e+003;4.4211538086e+003;4.3985898438e+003;4.4084614258e+003;4.4050000000e+003;4.4002563477e+003;
5.3125000000e-001;4.3392309570e+003;4.3887177734e+003;4.3717949219e+003;4.3523076172e+003;4.3820512695e+003;4.3491025391e+003;4.3730771484e+003;4.3755126953e+003;4.3744873047e+003;4.4024360352e+003;4.3807690430e+003;4.3916665039e+003;4.3878203125e+003;4.3834614258e+003;
5.3906250000e-001;4.3821796875e+003;4.4505126953e+003;4.4266665039e+003;4.4069228516e+003;4.4346152344e+003;4.3967949219e+003;4.4217949219e+003;4.4253847656e+003;4.4233334961e+003;4.4542309570e+003;4.4248715820e+003;4.4433334961e+003;4.4382050781e+003;4.4375639648e+003;
5.4687500000e-001;4.3578203125e+003;4.4283334961e+003;4.4041025391e+003;4.3858974609e+003;4.4150000000e+003;4.3803847656e+003;4.4051284180e+003;4.4023076172e+003;4.4008974609e+003;4.4330771484e+003;4.4055126953e+003;4.4197436523e+003;4.4191025391e+003;4.4138461914e+003;
5.5468750000e-001;4.3482050781e+003;4.4228203125e+003;4.4038461914e+003;4.3808974609e+003;4.4106411133e+003;4.3708974609e+003;4.3996152344e+003;4.3988461914e+003;4.3960258789e+003;4.4267949219e+003;4.4044873047e+003;4.4166665039e+003;4.4193588867e+003;4.4102563477e+003;
5.6250000000e-001;4.3550000000e+003;4.4232050781e+003;4.4098715820e+003;4.3883334961e+003;4.4179487305e+003;4.3757690430e+003;4.4047436523e+003;4.4033334961e+003;4.3998715820e+003;4.4332050781e+003;4.4097436523e+003;4.4232050781e+003;4.4237177734e+003;4.4180771484e+003;
5.7031250000e-001;4.3485898438e+003;4.4174360352e+003;4.4048715820e+003;4.3819228516e+003;4.4125639648e+003;4.3726923828e+003;4.3997436523e+003;4.3985898438e+003;4.3973076172e+003;4.4328203125e+003;4.4076923828e+003;4.4197436523e+003;4.4192309570e+003;4.4155126953e+003;
5.7812500000e-001;4.2820512695e+003;4.3533334961e+003;4.3429487305e+003;4.3142309570e+003;4.3439741211e+003;4.3124360352e+003;4.3344873047e+003;4.3361538086e+003;4.3324360352e+003;4.3616665039e+003;4.3388461914e+003;4.3534614258e+003;4.3529487305e+003;4.3520512695e+003;
5.8593750000e-001;4.3076923828e+003;4.3780771484e+003;4.3667949219e+003;4.3371796875e+003;4.3689741211e+003;4.3337177734e+003;4.3571796875e+003;4.3607690430e+003;4.3567949219e+003;4.3850000000e+003;4.3605126953e+003;4.3750000000e+003;4.3762822266e+003;4.3734614258e+003;
5.9375000000e-001;4.3100000000e+003;4.3758974609e+003;4.3694873047e+003;4.3400000000e+003;4.3716665039e+003;4.3342309570e+003;4.3607690430e+003;4.3634614258e+003;4.3641025391e+003;4.3907690430e+003;4.3597436523e+003;4.3748715820e+003;4.3716665039e+003;4.3693588867e+003;
6.0156250000e-001;4.2791025391e+003;4.3432050781e+003;4.3396152344e+003;4.3119228516e+003;4.3407690430e+003;4.3066665039e+003;4.3328203125e+003;4.3310258789e+003;4.3346152344e+003;4.3576923828e+003;4.3266665039e+003;4.3428203125e+003;4.3365385742e+003;4.3360258789e+003;
6.0937500000e-001;4.3088461914e+003;4.3761538086e+003;4.3657690430e+003;4.3429487305e+003;4.3679487305e+003;4.3365385742e+003;4.3562822266e+003;4.3626923828e+003;4.3616665039e+003;4.3808974609e+003;4.3524360352e+003;4.3729487305e+003;4.3674360352e+003;4.3647436523e+003;
6.1718750000e-001;4.3137177734e+003;4.3802563477e+003;4.3702563477e+003;4.3473076172e+003;4.3710258789e+003;4.3394873047e+003;4.3596152344e+003;4.3700000000e+003;4.3658974609e+003;4.3857690430e+003;4.3578203125e+003;4.3803847656e+003;4.3732050781e+003;4.3710258789e+003;
6.2500000000e-001;4.3117949219e+003;4.3742309570e+003;4.3679487305e+003;4.3417949219e+003;4.3658974609e+003;4.3298715820e+003;4.3580771484e+003;4.3607690430e+003;4.3593588867e+003;4.3773076172e+003;4.3546152344e+003;4.3765385742e+003;4.3662822266e+003;4.3684614258e+003;
6.3281250000e-001;4.3300000000e+003;4.3935898438e+003;4.3869228516e+003;4.3589741211e+003;4.3834614258e+003;4.3438461914e+003;4.3747436523e+003;4.3752563477e+003;4.3775639648e+003;4.3958974609e+003;4.3739741211e+003;4.3941025391e+003;4.3839741211e+003;4.3873076172e+003;
6.4062500000e-001;4.2661538086e+003;4.3362822266e+003;4.3291025391e+003;4.3085898438e+003;4.3212822266e+003;4.2910258789e+003;4.3144873047e+003;4.3215385742e+003;4.3188461914e+003;4.3393588867e+003;4.3157690430e+003;4.3358974609e+003;4.3255126953e+003;4.3288461914e+003;
6.4843750000e-001;4.2453847656e+003;4.3146152344e+003;4.3071796875e+003;4.2885898438e+003;4.3025639648e+003;4.2732050781e+003;4.2965385742e+003;4.2994873047e+003;4.2930771484e+003;4.3124360352e+003;4.2930771484e+003;4.3129487305e+003;4.3033334961e+003;4.3061538086e+003;
6.5625000000e-001;4.2606411133e+003;4.3284614258e+003;4.3201284180e+003;4.3002563477e+003;4.3198715820e+003;4.2869228516e+003;4.3120512695e+003;4.3106411133e+003;4.3029487305e+003;4.3219228516e+003;4.3061538086e+003;4.3255126953e+003;4.3170512695e+003;4.3194873047e+003;
6.6406250000e-001;4.2879487305e+003;4.3541025391e+003;4.3456411133e+003;4.3232050781e+003;4.3478203125e+003;4.3115385742e+003;4.3383334961e+003;4.3350000000e+003;4.3276923828e+003;4.3474360352e+003;4.3323076172e+003;4.3521796875e+003;4.3443588867e+003;4.3469228516e+003;
6.7187500000e-001;4.2888461914e+003;4.3592309570e+003;4.3458974609e+003;4.3279487305e+003;4.3501284180e+003;4.3182050781e+003;4.3432050781e+003;4.3428203125e+003;4.3373076172e+003;4.3600000000e+003;4.3373076172e+003;4.3548715820e+003;4.3541025391e+003;4.3506411133e+003;
6.7968750000e-001;4.2960258789e+003;4.3650000000e+003;4.3548715820e+003;4.3367949219e+003;4.3600000000e+003;4.3225639648e+003;4.3489741211e+003;4.3526923828e+003;4.3547436523e+003;4.3717949219e+003;4.3524360352e+003;4.3620512695e+003;4.3619228516e+003;4.3535898438e+003;
6.8750000000e-001;4.3021796875e+003;4.3720512695e+003;4.3588461914e+003;4.3415385742e+003;4.3634614258e+003;4.3287177734e+003;4.3534614258e+003;4.3584614258e+003;4.3617949219e+003;4.3796152344e+003;4.3592309570e+003;4.3685898438e+003;4.3682050781e+003;4.3584614258e+003;
6.9531250000e-001;4.2679487305e+003;4.3405126953e+003;4.3271796875e+003;4.3080771484e+003;4.3257690430e+003;4.2973076172e+003;4.3192309570e+003;4.3316665039e+003;4.3326923828e+003;4.3535898438e+003;4.3278203125e+003;4.3400000000e+003;4.3362822266e+003;4.3283334961e+003;
7.0312500000e-001;4.2616665039e+003;4.3279487305e+003;4.3215385742e+003;4.3014101563e+003;4.3150000000e+003;4.2846152344e+003;4.3105126953e+003;4.3110258789e+003;4.3091025391e+003;4.3301284180e+003;4.3098715820e+003;4.3197436523e+003;4.3229487305e+003;4.3128203125e+003;
7.1093750000e-001;4.2864101563e+003;4.3556411133e+003;4.3475639648e+003;4.3258974609e+003;4.3402563477e+003;4.3105126953e+003;4.3343588867e+003;4.3379487305e+003;4.3360258789e+003;4.3580771484e+003;4.3396152344e+003;4.3473076172e+003;4.3492309570e+003;4.3391025391e+003;
7.1875000000e-001;4.2702563477e+003;4.3432050781e+003;4.3367949219e+003;4.3130771484e+003;4.3255126953e+003;4.2994873047e+003;4.3220512695e+003;4.3235898438e+003;4.3229487305e+003;4.3430771484e+003;4.3282050781e+003;4.3366665039e+003;4.3348715820e+003;4.3288461914e+003;
7.2656250000e-001;4.2819228516e+003;4.3548715820e+003;4.3492309570e+003;4.3241025391e+003;4.3378203125e+003;4.3091025391e+003;4.3335898438e+003;4.3316665039e+003;4.3320512695e+003;4.3519228516e+003;4.3379487305e+003;4.3467949219e+003;4.3466665039e+003;4.3416665039e+003;
7.3437500000e-001;4.3134614258e+003;4.3864101563e+003;4.3808974609e+003;4.3533334961e+003;4.3701284180e+003;4.3370512695e+003;4.3628203125e+003;4.3603847656e+003;4.3610258789e+003;4.3825639648e+003;4.3687177734e+003;4.3767949219e+003;4.3794873047e+003;4.3744873047e+003;
7.4218750000e-001;4.3421796875e+003;4.4151284180e+003;4.4098715820e+003;4.3791025391e+003;4.3993588867e+003;4.3639741211e+003;4.3891025391e+003;4.3888461914e+003;4.3885898438e+003;4.4129487305e+003;4.3989741211e+003;4.4062822266e+003;4.4103847656e+003;4.4048715820e+003;
7.5000000000e-001;4.4132050781e+003;4.4878203125e+003;4.4738461914e+003;4.4417949219e+003;4.4774360352e+003;4.4365385742e+003;4.4628203125e+003;4.4656411133e+003;4.4666665039e+003;4.4975639648e+003;4.4784614258e+003;4.4823076172e+003;4.4896152344e+003;4.4794873047e+003;
7.5781250000e-001;4.4062822266e+003;4.4823076172e+003;4.4685898438e+003;4.4375639648e+003;4.4724360352e+003;4.4332050781e+003;4.4589741211e+003;4.4633334961e+003;4.4662822266e+003;4.4955126953e+003;4.4728203125e+003;4.4782050781e+003;4.4846152344e+003;4.4766665039e+003;
7.6562500000e-001;4.3724360352e+003;4.4552563477e+003;4.4425639648e+003;4.4103847656e+003;4.4414101563e+003;4.4073076172e+003;4.4335898438e+003;4.4347436523e+003;4.4369228516e+003;4.4601284180e+003;4.4414101563e+003;4.4469228516e+003;4.4547436523e+003;4.4482050781e+003;
7.7343750000e-001;4.3702563477e+003;4.4582050781e+003;4.4441025391e+003;4.4114101563e+003;4.4460258789e+003;4.4112822266e+003;4.4369228516e+003;4.4400000000e+003;4.4426923828e+003;4.4708974609e+003;4.4496152344e+003;4.4553847656e+003;4.4603847656e+003;4.4535898438e+003;
7.8125000000e-001;4.3452563477e+003;4.4332050781e+003;4.4194873047e+003;4.3907690430e+003;4.4225639648e+003;4.3919228516e+003;4.4171796875e+003;4.4170512695e+003;4.4201284180e+003;4.4446152344e+003;4.4234614258e+003;4.4292309570e+003;4.4342309570e+003;4.4297436523e+003;
7.8906250000e-001;4.3670512695e+003;4.4565385742e+003;4.4426923828e+003;4.4156411133e+003;4.4442309570e+003;4.4129487305e+003;4.4397436523e+003;4.4401284180e+003;4.4423076172e+003;4.4583334961e+003;4.4365385742e+003;4.4358974609e+003;4.4482050781e+003;4.4450000000e+003;
7.9687500000e-001;4.3496152344e+003;4.4387177734e+003;4.4256411133e+003;4.3975639648e+003;4.4237177734e+003;4.3942309570e+003;4.4196152344e+003;4.4197436523e+003;4.4205126953e+003;4.4371796875e+003;4.4148715820e+003;4.4167949219e+003;4.4256411133e+003;4.4229487305e+003;
8.0468750000e-001;4.3812822266e+003;4.4735898438e+003;4.4557690430e+003;4.4273076172e+003;4.4548715820e+003;4.4226923828e+003;4.4493588867e+003;4.4432050781e+003;4.4450000000e+003;4.4662822266e+003;4.4478203125e+003;4.4503847656e+003;4.4574360352e+003;4.4523076172e+003;
8.1250000000e-001;4.3902563477e+003;4.4843588867e+003;4.4665385742e+003;4.4378203125e+003;4.4653847656e+003;4.4334614258e+003;4.4584614258e+003;4.4567949219e+003;4.4593588867e+003;4.4819228516e+003;4.4624360352e+003;4.4624360352e+003;4.4714101563e+003;4.4665385742e+003;
8.2031250000e-001;4.2941025391e+003;4.3847436523e+003;4.3714101563e+003;4.3433334961e+003;4.3667949219e+003;4.3416665039e+003;4.3592309570e+003;4.3629487305e+003;4.3651284180e+003;4.3848715820e+003;4.3651284180e+003;4.3650000000e+003;4.3737177734e+003;4.3711538086e+003;
8.2812500000e-001;4.2462822266e+003;4.3333334961e+003;4.3207690430e+003;4.2933334961e+003;4.3157690430e+003;4.2915385742e+003;4.3076923828e+003;4.3098715820e+003;4.3117949219e+003;4.3293588867e+003;4.3119228516e+003;4.3129487305e+003;4.3216665039e+003;4.3191025391e+003;
8.3593750000e-001;4.2098715820e+003;4.2907690430e+003;4.2797436523e+003;4.2582050781e+003;4.2742309570e+003;4.2528203125e+003;4.2696152344e+003;4.2665385742e+003;4.2676923828e+003;4.2839741211e+003;4.2725639648e+003;4.2761538086e+003;4.2830771484e+003;4.2819228516e+003;
8.4375000000e-001;4.2025639648e+003;4.2810258789e+003;4.2710258789e+003;4.2529487305e+003;4.2667949219e+003;4.2475639648e+003;4.2635898438e+003;4.2584614258e+003;4.2600000000e+003;4.2747436523e+003;4.2647436523e+003;4.2687177734e+003;4.2748715820e+003;4.2751284180e+003;
8.5156250000e-001;4.2267949219e+003;4.3023076172e+003;4.2888461914e+003;4.2742309570e+003;4.2896152344e+003;4.2684614258e+003;4.2835898438e+003;4.2826923828e+003;4.2852563477e+003;4.2969228516e+003;4.2888461914e+003;4.2898715820e+003;4.2983334961e+003;4.2978203125e+003;
8.5937500000e-001;4.2247436523e+003;4.2988461914e+003;4.2850000000e+003;4.2710258789e+003;4.2860258789e+003;4.2651284180e+003;4.2796152344e+003;4.2844873047e+003;4.2855126953e+003;4.2967949219e+003;4.2889741211e+003;4.2891025391e+003;4.2971796875e+003;4.2961538086e+003;
8.6718750000e-001;4.1908974609e+003;4.2619228516e+003;4.2506411133e+003;4.2382050781e+003;4.2501284180e+003;4.2328203125e+003;4.2465385742e+003;4.2534614258e+003;4.2521796875e+003;4.2628203125e+003;4.2555126953e+003;4.2566665039e+003;4.2621796875e+003;4.2620512695e+003;
8.7500000000e-001;4.1212822266e+003;4.1773076172e+003;4.1664101563e+003;4.1647436523e+003;4.1684614258e+003;4.1567949219e+003;4.1692309570e+003;4.1641025391e+003;4.1666665039e+003;4.1744873047e+003;4.1596152344e+003;4.1647436523e+003;4.1683334961e+003;4.1712822266e+003;
8.8281250000e-001;4.1044873047e+003;4.1576923828e+003;4.1471796875e+003;4.1474360352e+003;4.1517949219e+003;4.1408974609e+003;4.1528203125e+003;4.1450000000e+003;4.1478203125e+003;4.1521796875e+003;4.1406411133e+003;4.1467949219e+003;4.1494873047e+003;4.1505126953e+003;
8.9062500000e-001;4.1998715820e+003;4.2475639648e+003;4.2411538086e+003;4.2382050781e+003;4.2469228516e+003;4.2326923828e+003;4.2507690430e+003;4.2384614258e+003;4.2396152344e+003;4.2455126953e+003;4.2339741211e+003;4.2435898438e+003;4.2471796875e+003;4.2460258789e+003;
8.9843750000e-001;4.2265385742e+003;4.2692309570e+003;4.2715385742e+003;4.2612822266e+003;4.2684614258e+003;4.2603847656e+003;4.2798715820e+003;4.2728203125e+003;4.2706411133e+003;4.2794873047e+003;4.2585898438e+003;4.2698715820e+003;4.2658974609e+003;4.2667949219e+003;
9.0625000000e-001;4.2405126953e+003;4.2837177734e+003;4.2841025391e+003;4.2724360352e+003;4.2833334961e+003;4.2728203125e+003;4.2923076172e+003;4.2867949219e+003;4.2842309570e+003;4.2935898438e+003;4.2715385742e+003;4.2807690430e+003;4.2788461914e+003;4.2767949219e+003;
9.1406250000e-001;4.2310258789e+003;4.2771796875e+003;4.2734614258e+003;4.2624360352e+003;4.2705126953e+003;4.2614101563e+003;4.2783334961e+003;4.2826923828e+003;4.2803847656e+003;4.2912822266e+003;4.2696152344e+003;4.2757690430e+003;4.2825639648e+003;4.2793588867e+003;
9.2187500000e-001;4.2226923828e+003;4.2700000000e+003;4.2657690430e+003;4.2557690430e+003;4.2614101563e+003;4.2514101563e+003;4.2697436523e+003;4.2737177734e+003;4.2712822266e+003;4.2830771484e+003;4.2660258789e+003;4.2702563477e+003;4.2779487305e+003;4.2761538086e+003;
9.2968750000e-001;4.1851284180e+003;4.2328203125e+003;4.2332050781e+003;4.2197436523e+003;4.2242309570e+003;4.2117949219e+003;4.2269228516e+003;4.2346152344e+003;4.2357690430e+003;4.2533334961e+003;4.2385898438e+003;4.2439741211e+003;4.2452563477e+003;4.2424360352e+003;
9.3750000000e-001;4.1198715820e+003;4.1650000000e+003;4.1673076172e+003;4.1556411133e+003;4.1562822266e+003;4.1515385742e+003;4.1616665039e+003;4.1680771484e+003;4.1714101563e+003;4.1856411133e+003;4.1701284180e+003;4.1782050781e+003;4.1784614258e+003;4.1756411133e+003;
9.4531250000e-001;4.0382050781e+003;4.0816667480e+003;4.0780769043e+003;4.0739743652e+003;4.0705129395e+003;4.0737180176e+003;4.0793588867e+003;4.0808974609e+003;4.0857692871e+003;4.0882050781e+003;4.0788461914e+003;4.0862819824e+003;4.0875642090e+003;4.0885898438e+003;
9.5312500000e-001;4.0321794434e+003;4.0750000000e+003;4.0691025391e+003;4.0671794434e+003;4.0634614258e+003;4.0647436523e+003;4.0711538086e+003;4.0728205566e+003;4.0765385742e+003;4.0751281738e+003;4.0700000000e+003;4.0766667480e+003;4.0755129395e+003;4.0796154785e+003;
9.6093750000e-001;4.0366667480e+003;4.0617949219e+003;4.0682050781e+003;4.0670512695e+003;4.0601281738e+003;4.0588461914e+003;4.0691025391e+003;4.0600000000e+003;4.0616667480e+003;4.0591025391e+003;4.0569230957e+003;4.0697436523e+003;4.0633332520e+003;4.0652563477e+003;
9.6875000000e-001;4.0825642090e+003;4.1048715820e+003;4.1093588867e+003;4.1089741211e+003;4.1041025391e+003;4.1000000000e+003;4.1115385742e+003;4.1001284180e+003;4.1024360352e+003;4.1016665039e+003;4.0964101563e+003;4.1096152344e+003;4.1069228516e+003;4.1056411133e+003;
9.7656250000e-001;4.1443588867e+003;4.1707690430e+003;4.1670512695e+003;4.1666665039e+003;4.1639741211e+003;4.1565385742e+003;4.1688461914e+003;4.1641025391e+003;4.1614101563e+003;4.1665385742e+003;4.1574360352e+003;4.1694873047e+003;4.1671796875e+003;4.1684614258e+003;
9.8437500000e-001;4.1330771484e+003;4.1603847656e+003;4.1570512695e+003;4.1561538086e+003;4.1515385742e+003;4.1448715820e+003;4.1582050781e+003;4.1533334961e+003;4.1457690430e+003;4.1535898438e+003;4.1470512695e+003;4.1584614258e+003;4.1530771484e+003;4.1580771484e+003;
9.9218750000e-001;4.1291025391e+003;4.1556411133e+003;4.1543588867e+003;4.1525639648e+003;4.1476923828e+003;4.1394873047e+003;4.1542309570e+003;4.1453847656e+003;4.1348715820e+003;4.1446152344e+003;4.1424360352e+003;4.1524360352e+003;4.1458974609e+003;4.1524360352e+003;
1.0000000000e+000;4.1539741211e+003;4.1798715820e+003;4.1793588867e+003;4.1762822266e+003;4.1743588867e+003;4.1614101563e+003;4.1760258789e+003;4.1638461914e+003;4.1541025391e+003;4.1655126953e+003;4.1661538086e+003;4.1737177734e+003;4.1688461914e+003;4.1738461914e+003;
1.0078125000e+000;4.1764101563e+003;4.2105126953e+003;4.2019228516e+003;4.2020512695e+003;4.2046152344e+003;4.1902563477e+003;4.2016665039e+003;4.1896152344e+003;4.1878203125e+003;4.1901284180e+003;4.1911538086e+003;4.1943588867e+003;4.1928203125e+003;4.1929487305e+003;
1.0156250000e+000;4.2629487305e+003;4.2937177734e+003;4.2905126953e+003;4.2806411133e+003;4.2888461914e+003;4.2739741211e+003;4.2884614258e+003;4.2851284180e+003;4.2847436523e+003;4.2964101563e+003;4.2861538086e+003;4.2932050781e+003;4.2883334961e+003;4.2846152344e+003;
1.0234375000e+000;4.2269228516e+003;4.2574360352e+003;4.2547436523e+003;4.2452563477e+003;4.2534614258e+003;4.2403847656e+003;4.2517949219e+003;4.2503847656e+003;4.2492309570e+003;4.2580771484e+003;4.2488461914e+003;4.2591025391e+003;4.2506411133e+003;4.2491025391e+003;
1.0312500000e+000;4.2071796875e+003;4.2380771484e+003;4.2311538086e+003;4.2237177734e+003;4.2337177734e+003;4.2194873047e+003;4.2330771484e+003;4.2293588867e+003;4.2244873047e+003;4.2276923828e+003;4.2226923828e+003;4.2328203125e+003;4.2264101563e+003;4.2242309570e+003;
1.0390625000e+000;4.3198715820e+003;4.3551284180e+003;4.3408974609e+003;4.3353847656e+003;4.3451284180e+003;4.3310258789e+003;4.3429487305e+003;4.3398715820e+003;4.3323076172e+003;4.3462822266e+003;4.3338461914e+003;4.3401284180e+003;4.3384614258e+003;4.3317949219e+003;
1.0468750000e+000;4.3287177734e+003;4.3661538086e+003;4.3497436523e+003;4.3435898438e+003;4.3553847656e+003;4.3366665039e+003;4.3494873047e+003;4.3524360352e+003;4.3437177734e+003;4.3606411133e+003;4.3464101563e+003;4.3512822266e+003;4.3493588867e+003;4.3447436523e+003;
1.0546875000e+000;4.1905126953e+003;4.2248715820e+003;4.2203847656e+003;4.2142309570e+003;4.2219228516e+003;4.2121796875e+003;4.2257690430e+003;4.2235898438e+003;4.2134614258e+003;4.2267949219e+003;4.2216665039e+003;4.2278203125e+003;4.2247436523e+003;4.2208974609e+003;
1.0625000000e+000;4.1853847656e+003;4.2182050781e+003;4.2152563477e+003;4.2094873047e+003;4.2158974609e+003;4.2089741211e+003;4.2210258789e+003;4.2133334961e+003;4.2033334961e+003;4.2160258789e+003;4.2151284180e+003;4.2212822266e+003;4.2210258789e+003;4.2142309570e+003;
1.0703125000e+000;4.2043588867e+003;4.2366665039e+003;4.2302563477e+003;4.2283334961e+003;4.2308974609e+003;4.2228203125e+003;4.2316665039e+003;4.2282050781e+003;4.2157690430e+003;4.2292309570e+003;4.2279487305e+003;4.2335898438e+003;4.2355126953e+003;4.2262822266e+003;
1.0781250000e+000;4.1630771484e+003;4.1946152344e+003;4.1882050781e+003;4.1903847656e+003;4.1889741211e+003;4.1824360352e+003;4.1907690430e+003;4.1898715820e+003;4.1747436523e+003;4.1860258789e+003;4.1838461914e+003;4.1906411133e+003;4.1902563477e+003;4.1825639648e+003;
1.0859375000e+000;4.0671794434e+003;4.0946154785e+003;4.0901281738e+003;4.0988461914e+003;4.0957692871e+003;4.0911538086e+003;4.0989741211e+003;4.0916667480e+003;4.0765385742e+003;4.0817949219e+003;4.0834614258e+003;4.0944870605e+003;4.0897436523e+003;4.0860256348e+003;
1.0937500000e+000;4.0775642090e+003;4.1028203125e+003;4.0989741211e+003;4.1078203125e+003;4.1034614258e+003;4.0992309570e+003;4.1037177734e+003;4.0980771484e+003;4.0856411133e+003;4.0911538086e+003;4.0941025391e+003;4.1052563477e+003;4.0993588867e+003;4.0966665039e+003;
1.1015625000e+000;4.0933332520e+003;4.1133334961e+003;4.1092309570e+003;4.1217949219e+003;4.1084614258e+003;4.1079487305e+003;4.1089741211e+003;4.1035898438e+003;4.0925642090e+003;4.0969228516e+003;4.1074360352e+003;4.1151284180e+003;4.1073076172e+003;4.1050000000e+003;
1.1093750000e+000;4.1296152344e+003;4.1487177734e+003;4.1417949219e+003;4.1547436523e+003;4.1416665039e+003;4.1376923828e+003;4.1423076172e+003;4.1355126953e+003;4.1232050781e+003;4.1278203125e+003;4.1428203125e+003;4.1469228516e+003;4.1400000000e+003;4.1361538086e+003;
1.1171875000e+000;4.1834614258e+003;4.2041025391e+003;4.1942309570e+003;4.2043588867e+003;4.1960258789e+003;4.1848715820e+003;4.1948715820e+003;4.1893588867e+003;4.1753847656e+003;4.1821796875e+003;4.1985898438e+003;4.2003847656e+003;4.1941025391e+003;4.1887177734e+003;
1.1250000000e+000;4.2200000000e+003;4.2433334961e+003;4.2326923828e+003;4.2384614258e+003;4.2347436523e+003;4.2180771484e+003;4.2312822266e+003;4.2298715820e+003;4.2146152344e+003;4.2244873047e+003;4.2389741211e+003;4.2411538086e+003;4.2341025391e+003;4.2280771484e+003;
1.1328125000e+000;4.2180771484e+003;4.2470512695e+003;4.2383334961e+003;4.2425639648e+003;4.2364101563e+003;4.2250000000e+003;4.2306411133e+003;4.2275639648e+003;4.2191025391e+003;4.2315385742e+003;4.2385898438e+003;4.2467949219e+003;4.2411538086e+003;4.2312822266e+003;
1.1406250000e+000;4.1810258789e+003;4.2060258789e+003;4.2006411133e+003;4.2025639648e+003;4.2029487305e+003;4.1943588867e+003;4.2017949219e+003;4.2041025391e+003;4.1970512695e+003;4.2025639648e+003;4.2133334961e+003;4.2156411133e+003;4.2137177734e+003;4.2065385742e+003;
1.1484375000e+000;4.1705126953e+003;4.1958974609e+003;4.1911538086e+003;4.1924360352e+003;4.1958974609e+003;4.1865385742e+003;4.1944873047e+003;4.1956411133e+003;4.1880771484e+003;4.1925639648e+003;4.2038461914e+003;4.2069228516e+003;4.2029487305e+003;4.1978203125e+003;
1.1562500000e+000;4.1419228516e+003;4.1673076172e+003;4.1658974609e+003;4.1689741211e+003;4.1671796875e+003;4.1641025391e+003;4.1666665039e+003;4.1669228516e+003;4.1591025391e+003;4.1661538086e+003;4.1743588867e+003;4.1833334961e+003;4.1720512695e+003;4.1715385742e+003;
1.1640625000e+000;4.1262822266e+003;4.1497436523e+003;4.1484614258e+003;4.1544873047e+003;4.1475639648e+003;4.1482050781e+003;4.1483334961e+003;4.1452563477e+003;4.1384614258e+003;4.1451284180e+003;4.1547436523e+003;4.1652563477e+003;4.1539741211e+003;4.1537177734e+003;
1.1718750000e+000;4.2993588867e+003;4.3242309570e+003;4.3112822266e+003;4.3152563477e+003;4.3166665039e+003;4.2989741211e+003;4.3085898438e+003;4.3051284180e+003;4.2978203125e+003;4.3101284180e+003;4.3220512695e+003;4.3219228516e+003;4.3288461914e+003;4.3206411133e+003;
1.1796875000e+000;4.3666665039e+003;4.3957690430e+003;4.3816665039e+003;4.3823076172e+003;4.3873076172e+003;4.3639741211e+003;4.3764101563e+003;4.3766665039e+003;4.3671796875e+003;4.3850000000e+003;4.3912822266e+003;4.3897436523e+003;4.3991025391e+003;4.3902563477e+003;
1.1875000000e+000;4.5232050781e+003;4.5712822266e+003;4.5523076172e+003;4.5428203125e+003;4.5575639648e+003;4.5253847656e+003;4.5394873047e+003;4.5401284180e+003;4.5378203125e+003;4.5646152344e+003;4.5578203125e+003;4.5511538086e+003;4.5655126953e+003;4.5517949219e+003;
1.1953125000e+000;4.4683334961e+003;4.5229487305e+003;4.5116665039e+003;4.4894873047e+003;4.5073076172e+003;4.4842309570e+003;4.4947436523e+003;4.5061538086e+003;4.5017949219e+003;4.5292309570e+003;4.5237177734e+003;4.5153847656e+003;4.5265385742e+003;4.5101284180e+003;
1.2031250000e+000;4.4126923828e+003;4.4670512695e+003;4.4588461914e+003;4.4387177734e+003;4.4552563477e+003;4.4355126953e+003;4.4453847656e+003;4.4538461914e+003;4.4476923828e+003;4.4724360352e+003;4.4691025391e+003;4.4616665039e+003;4.4716665039e+003;4.4569228516e+003;
1.2109375000e+000;4.3896152344e+003;4.4457690430e+003;4.4376923828e+003;4.4206411133e+003;4.4369228516e+003;4.4173076172e+003;4.4273076172e+003;4.4324360352e+003;4.4267949219e+003;4.4491025391e+003;4.4457690430e+003;4.4388461914e+003;4.4489741211e+003;4.4350000000e+003;
1.2187500000e+000;4.3852563477e+003;4.4442309570e+003;4.4356411133e+003;4.4210258789e+003;4.4362822266e+003;4.4166665039e+003;4.4266665039e+003;4.4314101563e+003;4.4262822266e+003;4.4465385742e+003;4.4415385742e+003;4.4356411133e+003;4.4452563477e+003;4.4312822266e+003;
1.2265625000e+000;4.3721796875e+003;4.4351284180e+003;4.4258974609e+003;4.4132050781e+003;4.4262822266e+003;4.4092309570e+003;4.4232050781e+003;4.4266665039e+003;4.4179487305e+003;4.4302563477e+003;4.4305126953e+003;4.4250000000e+003;4.4361538086e+003;4.4225639648e+003;
1.2343750000e+000;4.4156411133e+003;4.4824360352e+003;4.4696152344e+003;4.4553847656e+003;4.4737177734e+003;4.4512822266e+003;4.4651284180e+003;4.4720512695e+003;4.4665385742e+003;4.4796152344e+003;4.4775639648e+003;4.4702563477e+003;4.4830771484e+003;4.4702563477e+003;
1.2421875000e+000;4.4130771484e+003;4.4878203125e+003;4.4746152344e+003;4.4553847656e+003;4.4726923828e+003;4.4528203125e+003;4.4611538086e+003;4.4715385742e+003;4.4667949219e+003;4.4839741211e+003;4.4719228516e+003;4.4705126953e+003;4.4770512695e+003;4.4711538086e+003;
1.2500000000e+000;4.4041025391e+003;4.4756411133e+003;4.4691025391e+003;4.4456411133e+003;4.4576923828e+003;4.4375639648e+003;4.4491025391e+003;4.4489741211e+003;4.4467949219e+003;4.4611538086e+003;4.4589741211e+003;4.4616665039e+003;4.4666665039e+003;4.4637177734e+003;
1.2578125000e+000;4.3887177734e+003;4.4578203125e+003;4.4534614258e+003;4.4296152344e+003;4.4414101563e+003;4.4235898438e+003;4.4335898438e+003;4.4326923828e+003;4.4329487305e+003;4.4437177734e+003;4.4443588867e+003;4.4488461914e+003;4.4524360352e+003;4.4508974609e+003;
1.2656250000e+000;4.3865385742e+003;4.4560258789e+003;4.4470512695e+003;4.4257690430e+003;4.4416665039e+003;4.4250000000e+003;4.4328203125e+003;4.4392309570e+003;4.4352563477e+003;4.4506411133e+003;4.4443588867e+003;4.4451284180e+003;4.4547436523e+003;4.4514101563e+003;
1.2734375000e+000;4.3694873047e+003;4.4392309570e+003;4.4321796875e+003;4.4120512695e+003;4.4262822266e+003;4.4121796875e+003;4.4184614258e+003;4.4276923828e+003;4.4223076172e+003;4.4388461914e+003;4.4300000000e+003;4.4301284180e+003;4.4388461914e+003;4.4370512695e+003;
1.2812500000e+000;4.3311538086e+003;4.3950000000e+003;4.3939741211e+003;4.3773076172e+003;4.3885898438e+003;4.3778203125e+003;4.3832050781e+003;4.3857690430e+003;4.3838461914e+003;4.3941025391e+003;4.3896152344e+003;4.3924360352e+003;4.3952563477e+003;4.4001284180e+003;
1.2890625000e+000;4.3560258789e+003;4.4171796875e+003;4.4143588867e+003;4.3994873047e+003;4.4128203125e+003;4.3975639648e+003;4.4046152344e+003;4.4039741211e+003;4.4042309570e+003;4.4128203125e+003;4.4114101563e+003;4.4142309570e+003;4.4174360352e+003;4.4239741211e+003;
1.2968750000e+000;4.3606411133e+003;4.4280771484e+003;4.4239741211e+003;4.4103847656e+003;4.4174360352e+003;4.4048715820e+003;4.4064101563e+003;4.4155126953e+003;4.4107690430e+003;4.4243588867e+003;4.4238461914e+003;4.4221796875e+003;4.4279487305e+003;4.4373076172e+003;
1.3046875000e+000;4.3108974609e+003;4.3805126953e+003;4.3801284180e+003;4.3642309570e+003;4.3680771484e+003;4.3632050781e+003;4.3611538086e+003;4.3700000000e+003;4.3641025391e+003;4.3744873047e+003;4.3755126953e+003;4.3741025391e+003;4.3785898438e+003;4.3878203125e+003;
1.3125000000e+000;4.3257690430e+003;4.3853847656e+003;4.3915385742e+003;4.3629487305e+003;4.3764101563e+003;4.3728203125e+003;4.3755126953e+003;4.3755126953e+003;4.3797436523e+003;4.3855126953e+003;4.3850000000e+003;4.3858974609e+003;4.3905126953e+003;4.3984614258e+003;
1.3203125000e+000;4.3347436523e+003;4.3903847656e+003;4.3991025391e+003;4.3692309570e+003;4.3817949219e+003;4.3782050781e+003;4.3834614258e+003;4.3830771484e+003;4.3882050781e+003;4.3951284180e+003;4.3942309570e+003;4.3980771484e+003;4.4011538086e+003;4.4103847656e+003;
1.3281250000e+000;4.3126923828e+003;4.3720512695e+003;4.3787177734e+003;4.3530771484e+003;4.3580771484e+003;4.3579487305e+003;4.3632050781e+003;4.3676923828e+003;4.3669228516e+003;4.3715385742e+003;4.3773076172e+003;4.3835898438e+003;4.3839741211e+003;4.3937177734e+003;
1.3359375000e+000;4.2942309570e+003;4.3579487305e+003;4.3612822266e+003;4.3392309570e+003;4.3421796875e+003;4.3428203125e+003;4.3452563477e+003;4.3535898438e+003;4.3506411133e+003;4.3528203125e+003;4.3615385742e+003;4.3664101563e+003;4.3660258789e+003;4.3761538086e+003;
1.3437500000e+000;4.2674360352e+003;4.3320512695e+003;4.3339741211e+003;4.3155126953e+003;4.3178203125e+003;4.3188461914e+003;4.3183334961e+003;4.3270512695e+003;4.3241025391e+003;4.3244873047e+003;4.3337177734e+003;4.3375639648e+003;4.3362822266e+003;4.3484614258e+003;
1.3515625000e+000;4.3444873047e+003;4.4017949219e+003;4.4012822266e+003;4.3861538086e+003;4.3946152344e+003;4.3873076172e+003;4.3878203125e+003;4.3871796875e+003;4.3821796875e+003;4.3929487305e+003;4.4001284180e+003;4.4070512695e+003;4.3976923828e+003;4.4106411133e+003;
1.3593750000e+000;4.3066665039e+003;4.3661538086e+003;4.3698715820e+003;4.3532050781e+003;4.3585898438e+003;4.3526923828e+003;4.3534614258e+003;4.3555126953e+003;4.3501284180e+003;4.3600000000e+003;4.3664101563e+003;4.3748715820e+003;4.3621796875e+003;4.3755126953e+003;
1.3671875000e+000;4.3606411133e+003;4.4207690430e+003;4.4279487305e+003;4.4055126953e+003;4.4160258789e+003;4.4001284180e+003;4.4100000000e+003;4.3987177734e+003;4.3985898438e+003;4.4080771484e+003;4.4125639648e+003;4.4151284180e+003;4.4150000000e+003;4.4265385742e+003;
1.3750000000e+000;4.4603847656e+003;4.5323076172e+003;4.5250000000e+003;4.5076923828e+003;4.5243588867e+003;4.5075639648e+003;4.5100000000e+003;4.5162822266e+003;4.5155126953e+003;4.5353847656e+003;4.5282050781e+003;4.5248715820e+003;4.5262822266e+003;4.5307690430e+003;
1.3828125000e+000;4.4175639648e+003;4.4933334961e+003;4.4841025391e+003;4.4698715820e+003;4.4869228516e+003;4.4717949219e+003;4.4730771484e+003;4.4782050781e+003;4.4785898438e+003;4.4955126953e+003;4.4887177734e+003;4.4835898438e+003;4.4873076172e+003;4.4892309570e+003;
1.3906250000e+000;4.3932050781e+003;4.4720512695e+003;4.4623076172e+003;4.4494873047e+003;4.4670512695e+003;4.4512822266e+003;4.4525639648e+003;4.4546152344e+003;4.4573076172e+003;4.4706411133e+003;4.4647436523e+003;4.4579487305e+003;4.4658974609e+003;4.4652563477e+003;
1.3984375000e+000;4.3948715820e+003;4.4785898438e+003;4.4705126953e+003;4.4569228516e+003;4.4717949219e+003;4.4567949219e+003;4.4556411133e+003;4.4565385742e+003;4.4602563477e+003;4.4734614258e+003;4.4656411133e+003;4.4575639648e+003;4.4691025391e+003;4.4674360352e+003;
1.4062500000e+000;4.3725639648e+003;4.4592309570e+003;4.4460258789e+003;4.4350000000e+003;4.4496152344e+003;4.4396152344e+003;4.4355126953e+003;4.4394873047e+003;4.4405126953e+003;4.4580771484e+003;4.4501284180e+003;4.4337177734e+003;4.4484614258e+003;4.4484614258e+003;
1.4140625000e+000;4.3346152344e+003;4.4188461914e+003;4.4073076172e+003;4.3960258789e+003;4.4098715820e+003;4.4026923828e+003;4.3971796875e+003;4.4038461914e+003;4.4062822266e+003;4.4221796875e+003;4.4141025391e+003;4.3985898438e+003;4.4137177734e+003;4.4134614258e+003;
1.4218750000e+000;4.2774360352e+003;4.3565385742e+003;4.3505126953e+003;4.3392309570e+003;4.3491025391e+003;4.3471796875e+003;4.3394873047e+003;4.3462822266e+003;4.3494873047e+003;4.3625639648e+003;4.3552563477e+003;4.3443588867e+003;4.3571796875e+003;4.3574360352e+003;
1.4296875000e+000;4.2462822266e+003;4.3153847656e+003;4.3176923828e+003;4.3071796875e+003;4.3110258789e+003;4.3142309570e+003;4.3065385742e+003;4.3021796875e+003;4.3039741211e+003;4.3153847656e+003;4.3129487305e+003;4.3079487305e+003;4.3170512695e+003;4.3207690430e+003;
1.4375000000e+000;4.3083334961e+003;4.3782050781e+003;4.3783334961e+003;4.3673076172e+003;4.3742309570e+003;4.3730771484e+003;4.3675639648e+003;4.3598715820e+003;4.3606411133e+003;4.3750000000e+003;4.3733334961e+003;4.3656411133e+003;4.3764101563e+003;4.3820512695e+003;
1.4453125000e+000;4.3643588867e+003;4.4471796875e+003;4.4370512695e+003;4.4320512695e+003;4.4429487305e+003;4.4366665039e+003;4.4303847656e+003;4.4305126953e+003;4.4316665039e+003;4.4508974609e+003;4.4434614258e+003;4.4311538086e+003;4.4442309570e+003;4.4462822266e+003;
1.4531250000e+000;4.3194873047e+003;4.4028203125e+003;4.3917949219e+003;4.3911538086e+003;4.4002563477e+003;4.3937177734e+003;4.3882050781e+003;4.3865385742e+003;4.3889741211e+003;4.4066665039e+003;4.3987177734e+003;4.3880771484e+003;4.4008974609e+003;4.3985898438e+003;
1.4609375000e+000;4.2973076172e+003;4.3805126953e+003;4.3687177734e+003;4.3689741211e+003;4.3785898438e+003;4.3705126953e+003;4.3661538086e+003;4.3619228516e+003;4.3660258789e+003;4.3828203125e+003;4.3742309570e+003;4.3641025391e+003;4.3779487305e+003;4.3732050781e+003;
1.4687500000e+000;4.3033334961e+003;4.3865385742e+003;4.3753847656e+003;4.3724360352e+003;4.3839741211e+003;4.3755126953e+003;4.3715385742e+003;4.3662822266e+003;4.3712822266e+003;4.3884614258e+003;4.3787177734e+003;4.3673076172e+003;4.3825639648e+003;4.3788461914e+003;
1.4765625000e+000;4.3205126953e+003;4.4033334961e+003;4.3947436523e+003;4.3867949219e+003;4.3997436523e+003;4.3932050781e+003;4.3888461914e+003;4.3846152344e+003;4.3889741211e+003;4.4069228516e+003;4.3958974609e+003;4.3821796875e+003;4.3984614258e+003;4.3983334961e+003;
1.4843750000e+000;4.3341025391e+003;4.4120512695e+003;4.4119228516e+003;4.3992309570e+003;4.4117949219e+003;4.4044873047e+003;4.4015385742e+003;4.4108974609e+003;4.4101284180e+003;4.4296152344e+003;4.4173076172e+003;4.4014101563e+003;4.4139741211e+003;4.4157690430e+003;
1.4921875000e+000;4.1017949219e+003;4.1730771484e+003;4.1788461914e+003;4.1726923828e+003;4.1729487305e+003;4.1798715820e+003;4.1696152344e+003;4.1798715820e+003;4.1828203125e+003;4.1911538086e+003;4.1846152344e+003;4.1742309570e+003;4.1789741211e+003;4.1820512695e+003;
1.5000000000e+000;4.0337180176e+003;4.0993588867e+003;4.1056411133e+003;4.1026923828e+003;4.0978203125e+003;4.1126923828e+003;4.1007690430e+003;4.1029487305e+003;4.1051284180e+003;4.1073076172e+003;4.1074360352e+003;4.0971796875e+003;4.1032050781e+003;4.1082050781e+003;
1.5078125000e+000;4.0078205566e+003;4.0582050781e+003;4.0651281738e+003;4.0715385742e+003;4.0552563477e+003;4.0747436523e+003;4.0625642090e+003;4.0630769043e+003;4.0591025391e+003;4.0608974609e+003;4.0643588867e+003;4.0612819824e+003;4.0601281738e+003;4.0719230957e+003;
1.5156250000e+000;3.9906411133e+003;4.0279487305e+003;4.0379487305e+003;4.0471794434e+003;4.0270512695e+003;4.0473076172e+003;4.0341025391e+003;4.0250000000e+003;4.0251281738e+003;4.0247436523e+003;4.0332050781e+003;4.0351281738e+003;4.0294870605e+003;4.0451281738e+003;
1.5234375000e+000;4.0302563477e+003;4.0657692871e+003;4.0743588867e+003;4.0814101563e+003;4.0641025391e+003;4.0802563477e+003;4.0683332520e+003;4.0605129395e+003;4.0614101563e+003;4.0601281738e+003;4.0707692871e+003;4.0716667480e+003;4.0670512695e+003;4.0816667480e+003;
1.5312500000e+000;3.9671794434e+003;3.9892307129e+003;4.0093588867e+003;4.0170512695e+003;3.9970512695e+003;4.0191025391e+003;4.0041025391e+003;4.0041025391e+003;3.9987180176e+003;3.9916667480e+003;4.0028205566e+003;4.0011538086e+003;3.9934614258e+003;4.0105129395e+003;
1.5390625000e+000;3.9242307129e+003;3.9369230957e+003;3.9530769043e+003;3.9707692871e+003;3.9508974609e+003;3.9775642090e+003;3.9624357910e+003;3.9616667480e+003;3.9524357910e+003;3.9465385742e+003;3.9491025391e+003;3.9464101563e+003;3.9460256348e+003;3.9567949219e+003;
1.5468750000e+000;3.9002563477e+003;3.9093588867e+003;3.9229487305e+003;3.9438461914e+003;3.9216667480e+003;3.9497436523e+003;3.9370512695e+003;3.9352563477e+003;3.9262819824e+003;3.9196154785e+003;3.9201281738e+003;3.9211538086e+003;3.9188461914e+003;3.9311538086e+003;
1.5546875000e+000;3.9133332520e+003;3.9138461914e+003;3.9256411133e+003;3.9493588867e+003;3.9247436523e+003;3.9480769043e+003;3.9407692871e+003;3.9347436523e+003;3.9315385742e+003;3.9200000000e+003;3.9225642090e+003;3.9202563477e+003;3.9205129395e+003;3.9369230957e+003;
1.5625000000e+000;3.9339743652e+003;3.9325642090e+003;3.9467949219e+003;3.9702563477e+003;3.9447436523e+003;3.9683332520e+003;3.9579487305e+003;3.9560256348e+003;3.9521794434e+003;3.9412819824e+003;3.9429487305e+003;3.9378205566e+003;3.9398718262e+003;3.9547436523e+003;
1.5703125000e+000;3.9358974609e+003;3.9319230957e+003;3.9480769043e+003;3.9726923828e+003;3.9452563477e+003;3.9717949219e+003;3.9578205566e+003;3.9578205566e+003;3.9523076172e+003;3.9415385742e+003;3.9419230957e+003;3.9371794434e+003;3.9393588867e+003;3.9529487305e+003;
1.5781250000e+000;3.9365385742e+003;3.9296154785e+003;3.9451281738e+003;3.9716667480e+003;3.9435898438e+003;3.9716667480e+003;3.9566667480e+003;3.9543588867e+003;3.9491025391e+003;3.9365385742e+003;3.9362819824e+003;3.9338461914e+003;3.9358974609e+003;3.9488461914e+003;
1.5859375000e+000;4.0679487305e+003;4.0576923828e+003;4.0697436523e+003;4.0853845215e+003;4.0646154785e+003;4.0817949219e+003;4.0837180176e+003;4.0791025391e+003;4.0800000000e+003;4.0608974609e+003;4.0601281738e+003;4.0600000000e+003;4.0638461914e+003;4.0729487305e+003;
1.5937500000e+000;4.2111538086e+003;4.1992309570e+003;4.2115385742e+003;4.2171796875e+003;4.2046152344e+003;4.2143588867e+003;4.2148715820e+003;4.2189741211e+003;4.2179487305e+003;4.2130771484e+003;4.2139741211e+003;4.2071796875e+003;4.2141025391e+003;4.2260258789e+003;
1.6015625000e+000;4.2017949219e+003;4.1924360352e+003;4.2064101563e+003;4.2092309570e+003;4.1992309570e+003;4.2084614258e+003;4.2092309570e+003;4.2132050781e+003;4.2150000000e+003;4.2098715820e+003;4.2094873047e+003;4.2037177734e+003;4.2075639648e+003;4.2224360352e+003;
1.6093750000e+000;4.1532050781e+003;4.1535898438e+003;4.1653847656e+003;4.1682050781e+003;4.1606411133e+003;4.1707690430e+003;4.1705126953e+003;4.1706411133e+003;4.1724360352e+003;4.1680771484e+003;4.1694873047e+003;4.1620512695e+003;4.1641025391e+003;4.1760258789e+003;
1.6171875000e+000;4.1615385742e+003;4.1652563477e+003;4.1716665039e+003;4.1778203125e+003;4.1715385742e+003;4.1793588867e+003;4.1773076172e+003;4.1779487305e+003;4.1784614258e+003;4.1771796875e+003;4.1794873047e+003;4.1689741211e+003;4.1737177734e+003;4.1817949219e+003;
1.6250000000e+000;4.2465385742e+003;4.2535898438e+003;4.2470512695e+003;4.2620512695e+003;4.2556411133e+003;4.2562822266e+003;4.2535898438e+003;4.2505126953e+003;4.2544873047e+003;4.2574360352e+003;4.2608974609e+003;4.2479487305e+003;4.2608974609e+003;4.2635898438e+003;
1.6328125000e+000;4.2607690430e+003;4.2815385742e+003;4.2779487305e+003;4.2802563477e+003;4.2789741211e+003;4.2726923828e+003;4.2726923828e+003;4.2748715820e+003;4.2787177734e+003;4.2885898438e+003;4.2823076172e+003;4.2798715820e+003;4.2837177734e+003;4.2866665039e+003;
1.6406250000e+000;4.1894873047e+003;4.2064101563e+003;4.2076923828e+003;4.2115385742e+003;4.2048715820e+003;4.2055126953e+003;4.2011538086e+003;4.2047436523e+003;4.2071796875e+003;4.2171796875e+003;4.2085898438e+003;4.2096152344e+003;4.2083334961e+003;4.2141025391e+003;
1.6484375000e+000;4.1721796875e+003;4.1789741211e+003;4.1794873047e+003;4.1891025391e+003;4.1773076172e+003;4.1833334961e+003;4.1815385742e+003;4.1724360352e+003;4.1760258789e+003;4.1787177734e+003;4.1811538086e+003;4.1775639648e+003;4.1776923828e+003;4.1867949219e+003;
1.6562500000e+000;4.2191025391e+003;4.2289741211e+003;4.2287177734e+003;4.2341025391e+003;4.2246152344e+003;4.2267949219e+003;4.2270512695e+003;4.2216665039e+003;4.2235898438e+003;4.2288461914e+003;4.2319228516e+003;4.2283334961e+003;4.2271796875e+003;4.2371796875e+003;
1.6640625000e+000;4.2141025391e+003;4.2244873047e+003;4.2294873047e+003;4.2301284180e+003;4.2176923828e+003;4.2221796875e+003;4.2194873047e+003;4.2165385742e+003;4.2144873047e+003;4.2253847656e+003;4.2280771484e+003;4.2292309570e+003;4.2219228516e+003;4.2343588867e+003;
1.6718750000e+000;4.2182050781e+003;4.2270512695e+003;4.2319228516e+003;4.2329487305e+003;4.2212822266e+003;4.2257690430e+003;4.2228203125e+003;4.2150000000e+003;4.2138461914e+003;4.2248715820e+003;4.2292309570e+003;4.2301284180e+003;4.2234614258e+003;4.2343588867e+003;
1.6796875000e+000;4.2541025391e+003;4.2634614258e+003;4.2655126953e+003;4.2660258789e+003;4.2598715820e+003;4.2606411133e+003;4.2596152344e+003;4.2485898438e+003;4.2505126953e+003;4.2602563477e+003;4.2652563477e+003;4.2633334961e+003;4.2594873047e+003;4.2678203125e+003;
1.6875000000e+000;4.2978203125e+003;4.3123076172e+003;4.3153847656e+003;4.3110258789e+003;4.3147436523e+003;4.3119228516e+003;4.3132050781e+003;4.3075639648e+003;4.3152563477e+003;4.3180771484e+003;4.3192309570e+003;4.3151284180e+003;4.3117949219e+003;4.3185898438e+003;
1.6953125000e+000;4.2819228516e+003;4.2965385742e+003;4.3046152344e+003;4.2985898438e+003;4.3025639648e+003;4.3020512695e+003;4.3028203125e+003;4.2994873047e+003;4.3071796875e+003;4.3060258789e+003;4.3061538086e+003;4.3037177734e+003;4.2985898438e+003;4.3064101563e+003;
1.7031250000e+000;4.2797436523e+003;4.2926923828e+003;4.3037177734e+003;4.2979487305e+003;4.3006411133e+003;4.3008974609e+003;4.3019228516e+003;4.2987177734e+003;4.3051284180e+003;4.3029487305e+003;4.3035898438e+003;4.3019228516e+003;4.2964101563e+003;4.3046152344e+003;
1.7109375000e+000;4.3170512695e+003;4.3297436523e+003;4.3362822266e+003;4.3303847656e+003;4.3291025391e+003;4.3170512695e+003;4.3217949219e+003;4.3176923828e+003;4.3211538086e+003;4.3315385742e+003;4.3405126953e+003;4.3371796875e+003;4.3330771484e+003;4.3442309570e+003;
1.7187500000e+000;4.3343588867e+003;4.3489741211e+003;4.3534614258e+003;4.3483334961e+003;4.3478203125e+003;4.3325639648e+003;4.3367949219e+003;4.3321796875e+003;4.3358974609e+003;4.3471796875e+003;4.3558974609e+003;4.3508974609e+003;4.3523076172e+003;4.3623076172e+003;
1.7265625000e+000;4.3406411133e+003;4.3676923828e+003;4.3656411133e+003;4.3650000000e+003;4.3626923828e+003;4.3501284180e+003;4.3496152344e+003;4.3470512695e+003;4.3447436523e+003;4.3607690430e+003;4.3650000000e+003;4.3621796875e+003;4.3598715820e+003;4.3729487305e+003;
1.7343750000e+000;4.4012822266e+003;4.4362822266e+003;4.4287177734e+003;4.4253847656e+003;4.4261538086e+003;4.4092309570e+003;4.4155126953e+003;4.4064101563e+003;4.4032050781e+003;4.4174360352e+003;4.4233334961e+003;4.4142309570e+003;4.4144873047e+003;4.4258974609e+003;
1.7421875000e+000;4.4125639648e+003;4.4505126953e+003;4.4433334961e+003;4.4375639648e+003;4.4388461914e+003;4.4216665039e+003;4.4280771484e+003;4.4206411133e+003;4.4198715820e+003;4.4348715820e+003;4.4373076172e+003;4.4253847656e+003;4.4305126953e+003;4.4382050781e+003;
1.7500000000e+000;4.3697436523e+003;4.4153847656e+003;4.4055126953e+003;4.4029487305e+003;4.4051284180e+003;4.3839741211e+003;4.3950000000e+003;4.3869228516e+003;4.3862822266e+003;4.3992309570e+003;4.4053847656e+003;4.3937177734e+003;4.4003847656e+003;4.3989741211e+003;
1.7578125000e+000;4.3819228516e+003;4.4265385742e+003;4.4179487305e+003;4.4147436523e+003;4.4167949219e+003;4.3946152344e+003;4.4064101563e+003;4.4007690430e+003;4.3994873047e+003;4.4112822266e+003;4.4206411133e+003;4.4091025391e+003;4.4119228516e+003;4.4123076172e+003;
1.7656250000e+000;4.3676923828e+003;4.4062822266e+003;4.4082050781e+003;4.4019228516e+003;4.3976923828e+003;4.3865385742e+003;4.3924360352e+003;4.3912822266e+003;4.3896152344e+003;4.3983334961e+003;4.4083334961e+003;4.3991025391e+003;4.3926923828e+003;4.4011538086e+003;
1.7734375000e+000;4.3455126953e+003;4.3830771484e+003;4.3870512695e+003;4.3815385742e+003;4.3757690430e+003;4.3693588867e+003;4.3725639648e+003;4.3710258789e+003;4.3692309570e+003;4.3766665039e+003;4.3848715820e+003;4.3766665039e+003;4.3694873047e+003;4.3787177734e+003;
1.7812500000e+000;4.2657690430e+003;4.3032050781e+003;4.3055126953e+003;4.3071796875e+003;4.3021796875e+003;4.2928203125e+003;4.2962822266e+003;4.2987177734e+003;4.2955126953e+003;4.3012822266e+003;4.3038461914e+003;4.3007690430e+003;4.2951284180e+003;4.3006411133e+003;
1.7890625000e+000;4.2174360352e+003;4.2502563477e+003;4.2567949219e+003;4.2603847656e+003;4.2506411133e+003;4.2452563477e+003;4.2485898438e+003;4.2501284180e+003;4.2457690430e+003;4.2502563477e+003;4.2534614258e+003;4.2528203125e+003;4.2448715820e+003;4.2538461914e+003;
1.7968750000e+000;4.2123076172e+003;4.2379487305e+003;4.2461538086e+003;4.2524360352e+003;4.2374360352e+003;4.2370512695e+003;4.2421796875e+003;4.2400000000e+003;4.2360258789e+003;4.2388461914e+003;4.2424360352e+003;4.2428203125e+003;4.2319228516e+003;4.2466665039e+003;
1.8046875000e+000;4.2374360352e+003;4.2629487305e+003;4.2679487305e+003;4.2764101563e+003;4.2612822266e+003;4.2603847656e+003;4.2656411133e+003;4.2664101563e+003;4.2630771484e+003;4.2655126953e+003;4.2673076172e+003;4.2676923828e+003;4.2560258789e+003;4.2703847656e+003;
1.8125000000e+000;4.2291025391e+003;4.2550000000e+003;4.2583334961e+003;4.2697436523e+003;4.2529487305e+003;4.2532050781e+003;4.2571796875e+003;4.2607690430e+003;4.2578203125e+003;4.2582050781e+003;4.2598715820e+003;4.2614101563e+003;4.2482050781e+003;4.2616665039e+003;
1.8203125000e+000;4.1867949219e+003;4.2114101563e+003;4.2162822266e+003;4.2300000000e+003;4.2105126953e+003;4.2139741211e+003;4.2161538086e+003;4.2178203125e+003;4.2144873047e+003;4.2117949219e+003;4.2164101563e+003;4.2198715820e+003;4.2057690430e+003;4.2184614258e+003;
1.8281250000e+000;4.3152563477e+003;4.3379487305e+003;4.3425639648e+003;4.3455126953e+003;4.3361538086e+003;4.3248715820e+003;4.3328203125e+003;4.3251284180e+003;4.3269228516e+003;4.3380771484e+003;4.3443588867e+003;4.3456411133e+003;4.3392309570e+003;4.3498715820e+003;
1.8359375000e+000;4.2430771484e+003;4.2682050781e+003;4.2730771484e+003;4.2779487305e+003;4.2616665039e+003;4.2571796875e+003;4.2617949219e+003;4.2592309570e+003;4.2606411133e+003;4.2642309570e+003;4.2794873047e+003;4.2735898438e+003;4.2693588867e+003;4.2775639648e+003;
1.8437500000e+000;4.2347436523e+003;4.2574360352e+003;4.2652563477e+003;4.2692309570e+003;4.2516665039e+003;4.2488461914e+003;4.2510258789e+003;4.2503847656e+003;4.2535898438e+003;4.2553847656e+003;4.2719228516e+003;4.2666665039e+003;4.2620512695e+003;4.2715385742e+003;
1.8515625000e+000;4.2317949219e+003;4.2501284180e+003;4.2633334961e+003;4.2679487305e+003;4.2535898438e+003;4.2503847656e+003;4.2521796875e+003;4.2447436523e+003;4.2530771484e+003;4.2533334961e+003;4.2662822266e+003;4.2648715820e+003;4.2616665039e+003;4.2711538086e+003;
1.8593750000e+000;4.2162822266e+003;4.2412822266e+003;4.2567949219e+003;4.2593588867e+003;4.2485898438e+003;4.2469228516e+003;4.2516665039e+003;4.2482050781e+003;4.2528203125e+003;4.2501284180e+003;4.2598715820e+003;4.2557690430e+003;4.2491025391e+003;4.2535898438e+003;
1.8671875000e+000;4.1653847656e+003;4.1871796875e+003;4.2061538086e+003;4.2105126953e+003;4.1970512695e+003;4.2014101563e+003;4.2034614258e+003;4.1984614258e+003;4.2026923828e+003;4.1961538086e+003;4.2079487305e+003;4.2053847656e+003;4.1962822266e+003;4.1992309570e+003;
1.8750000000e+000;4.0338461914e+003;4.0460256348e+003;4.0646154785e+003;4.0805129395e+003;4.0601281738e+003;4.0716667480e+003;4.0696154785e+003;4.0664101563e+003;4.0742307129e+003;4.0575642090e+003;4.0671794434e+003;4.0658974609e+003;4.0583332520e+003;4.0594870605e+003;
1.8828125000e+000;3.9794870605e+003;3.9879487305e+003;4.0074357910e+003;4.0270512695e+003;4.0023076172e+003;4.0182050781e+003;4.0169230957e+003;4.0138461914e+003;4.0206411133e+003;3.9998718262e+003;4.0084614258e+003;4.0070512695e+003;3.9996154785e+003;4.0024357910e+003;
1.8906250000e+000;3.9732050781e+003;3.9715385742e+003;3.9914101563e+003;4.0147436523e+003;3.9906411133e+003;4.0100000000e+003;4.0111538086e+003;3.9989743652e+003;4.0032050781e+003;3.9769230957e+003;3.9916667480e+003;3.9876923828e+003;3.9833332520e+003;3.9846154785e+003;
1.8984375000e+000;4.0343588867e+003;4.0294870605e+003;4.0470512695e+003;4.0693588867e+003;4.0507692871e+003;4.0664101563e+003;4.0676923828e+003;4.0533332520e+003;4.0569230957e+003;4.0335898438e+003;4.0502563477e+003;4.0455129395e+003;4.0428205566e+003;4.0406411133e+003;
1.9062500000e+000;4.0533332520e+003;4.0466667480e+003;4.0583332520e+003;4.0835898438e+003;4.0632050781e+003;4.0766667480e+003;4.0712819824e+003;4.0644870605e+003;4.0651281738e+003;4.0526923828e+003;4.0602563477e+003;4.0620512695e+003;4.0570512695e+003;4.0507692871e+003;
1.9140625000e+000;4.0126923828e+003;4.0048718262e+003;4.0150000000e+003;4.0435898438e+003;4.0191025391e+003;4.0337180176e+003;4.0262819824e+003;4.0198718262e+003;4.0237180176e+003;4.0074357910e+003;4.0156411133e+003;4.0147436523e+003;4.0124357910e+003;4.0067949219e+003;
1.9218750000e+000;3.9842307129e+003;3.9739743652e+003;3.9835898438e+003;4.0139743652e+003;3.9871794434e+003;4.0028205566e+003;3.9932050781e+003;3.9869230957e+003;3.9965385742e+003;3.9741025391e+003;3.9856411133e+003;3.9805129395e+003;3.9814101563e+003;3.9764101563e+003;
1.9296875000e+000;3.9551281738e+003;3.9403845215e+003;3.9524357910e+003;3.9832050781e+003;3.9543588867e+003;3.9725642090e+003;3.9607692871e+003;3.9544870605e+003;3.9696154785e+003;3.9408974609e+003;3.9570512695e+003;3.9502563477e+003;3.9511538086e+003;3.9471794434e+003;
1.9375000000e+000;3.8380769043e+003;3.7987180176e+003;3.8230769043e+003;3.8624357910e+003;3.8223076172e+003;3.8476923828e+003;3.8402563477e+003;3.8221794434e+003;3.8378205566e+003;3.8046154785e+003;3.8200000000e+003;3.8278205566e+003;3.8202563477e+003;3.8223076172e+003;
1.9453125000e+000;3.9010256348e+003;3.8603845215e+003;3.8802563477e+003;3.9185898438e+003;3.8770512695e+003;3.8997436523e+003;3.8935898438e+003;3.8815385742e+003;3.8964101563e+003;3.8661538086e+003;3.8794870605e+003;3.8747436523e+003;3.8737180176e+003;3.8801281738e+003;
1.9531250000e+000;3.9294870605e+003;3.8883332520e+003;3.9079487305e+003;3.9417949219e+003;3.9044870605e+003;3.9226923828e+003;3.9214101563e+003;3.9105129395e+003;3.9250000000e+003;3.8950000000e+003;3.9089743652e+003;3.9042307129e+003;3.9016667480e+003;3.9060256348e+003;
1.9609375000e+000;3.8998718262e+003;3.8493588867e+003;3.8758974609e+003;3.9050000000e+003;3.8666667480e+003;3.8852563477e+003;3.8865385742e+003;3.8855129395e+003;3.8975642090e+003;3.8670512695e+003;3.8730769043e+003;3.8742307129e+003;3.8679487305e+003;3.8746154785e+003;
1.9687500000e+000;3.8408974609e+003;3.7776923828e+003;3.8091025391e+003;3.8464101563e+003;3.7958974609e+003;3.8285898438e+003;3.8210256348e+003;3.8211538086e+003;3.8324357910e+003;3.7993588867e+003;3.8041025391e+003;3.8070512695e+003;3.7975642090e+003;3.8052563477e+003;
1.9765625000e+000;3.8352563477e+003;3.7701281738e+003;3.8041025391e+003;3.8421794434e+003;3.7914101563e+003;3.8258974609e+003;3.8166667480e+003;3.8185898438e+003;3.8298718262e+003;3.7970512695e+003;3.8012819824e+003;3.8062819824e+003;3.7934614258e+003;3.7997436523e+003;
1.9843750000e+000;3.7335898438e+003;3.6593588867e+003;3.6961538086e+003;3.7406411133e+003;3.6865385742e+003;3.7260256348e+003;3.7170512695e+003;3.7130769043e+003;3.7260256348e+003;3.6891025391e+003;3.6928205566e+003;3.7025642090e+003;3.6889743652e+003;3.6961538086e+003;
1.9921875000e+000;3.7143588867e+003;3.6360256348e+003;3.6692307129e+003;3.7167949219e+003;3.6634614258e+003;3.7015385742e+003;3.6942307129e+003;3.6842307129e+003;3.6987180176e+003;3.6611538086e+003;3.6655129395e+003;3.6752563477e+003;3.6652563477e+003;3.6721794434e+003;
2.0000000000e+000;3.8669230957e+003;3.7853845215e+003;3.8094870605e+003;3.8544870605e+003;3.8041025391e+003;3.8326923828e+003;3.8278205566e+003;3.8110256348e+003;3.8237180176e+003;3.7984614258e+003;3.8079487305e+003;3.8144870605e+003;3.8087180176e+003;3.8115385742e+003;
2.0078125000e+000;3.9106411133e+003;3.8287180176e+003;3.8539743652e+003;3.8962819824e+003;3.8446154785e+003;3.8715385742e+003;3.8671794434e+003;3.8521794434e+003;3.8629487305e+003;3.8426923828e+003;3.8523076172e+003;3.8582050781e+003;3.8526923828e+003;3.8548718262e+003;
2.0156250000e+000;3.8644870605e+003;3.7815385742e+003;3.8120512695e+003;3.8516667480e+003;3.7967949219e+003;3.8239743652e+003;3.8179487305e+003;3.8105129395e+003;3.8210256348e+003;3.8052563477e+003;3.8102563477e+003;3.8162819824e+003;3.8101281738e+003;3.8143588867e+003;
2.0234375000e+000;3.7911538086e+003;3.7060256348e+003;3.7389743652e+003;3.7800000000e+003;3.7237180176e+003;3.7552563477e+003;3.7467949219e+003;3.7371794434e+003;3.7485898438e+003;3.7312819824e+003;3.7358974609e+003;3.7432050781e+003;3.7366667480e+003;3.7416667480e+003;
2.0312500000e+000;3.9789743652e+003;3.8914101563e+003;3.9107692871e+003;3.9539743652e+003;3.9110256348e+003;3.9343588867e+003;3.9326923828e+003;3.9041025391e+003;3.9153845215e+003;3.8988461914e+003;3.9097436523e+003;3.9089743652e+003;3.9189743652e+003;3.9167949219e+003;
2.0390625000e+000;4.1206411133e+003;4.0382050781e+003;4.0525642090e+003;4.0907692871e+003;4.0528205566e+003;4.0674357910e+003;4.0687180176e+003;4.0515385742e+003;4.0623076172e+003;4.0512819824e+003;4.0561538086e+003;4.0523076172e+003;4.0650000000e+003;4.0612819824e+003;
2.0468750000e+000;4.1610258789e+003;4.0834614258e+003;4.0982050781e+003;4.1312822266e+003;4.0941025391e+003;4.1062822266e+003;4.1066665039e+003;4.1047436523e+003;4.1153847656e+003;4.1074360352e+003;4.1035898438e+003;4.1015385742e+003;4.1108974609e+003;4.1075639648e+003;
2.0546875000e+000;4.0933332520e+003;4.0179487305e+003;4.0360256348e+003;4.0671794434e+003;4.0285898438e+003;4.0442307129e+003;4.0420512695e+003;4.0475642090e+003;4.0580769043e+003;4.0480769043e+003;4.0391025391e+003;4.0421794434e+003;4.0455129395e+003;4.0433332520e+003;
2.0625000000e+000;4.1941025391e+003;4.1282050781e+003;4.1317949219e+003;4.1621796875e+003;4.1383334961e+003;4.1367949219e+003;4.1471796875e+003;4.1292309570e+003;4.1425639648e+003;4.1305126953e+003;4.1269228516e+003;4.1321796875e+003;4.1384614258e+003;4.1401284180e+003;
2.0703125000e+000;4.2850000000e+003;4.2239741211e+003;4.2276923828e+003;4.2512822266e+003;4.2303847656e+003;4.2228203125e+003;4.2334614258e+003;4.2229487305e+003;4.2367949219e+003;4.2319228516e+003;4.2233334961e+003;4.2270512695e+003;4.2323076172e+003;4.2342309570e+003;
2.0781250000e+000;4.1670512695e+003;4.1126923828e+003;4.1193588867e+003;4.1352563477e+003;4.1138461914e+003;4.1123076172e+003;4.1130771484e+003;4.1180771484e+003;4.1346152344e+003;4.1323076172e+003;4.1208974609e+003;4.1264101563e+003;4.1248715820e+003;4.1221796875e+003;
2.0859375000e+000;3.9358974609e+003;3.8714101563e+003;3.8858974609e+003;3.9175642090e+003;3.8765385742e+003;3.8920512695e+003;3.8869230957e+003;3.8717949219e+003;3.8856411133e+003;3.8739743652e+003;3.8792307129e+003;3.8970512695e+003;3.8839743652e+003;3.8939743652e+003;
2.0937500000e+000;3.9423076172e+003;3.8741025391e+003;3.8915385742e+003;3.9243588867e+003;3.8829487305e+003;3.8950000000e+003;3.8892307129e+003;3.8714101563e+003;3.8825642090e+003;3.8724357910e+003;3.8805129395e+003;3.8969230957e+003;3.8844870605e+003;3.8960256348e+003;
2.1015625000e+000;3.9910256348e+003;3.9275642090e+003;3.9351281738e+003;3.9724357910e+003;3.9292307129e+003;3.9406411133e+003;3.9332050781e+003;3.9198718262e+003;3.9287180176e+003;3.9248718262e+003;3.9293588867e+003;3.9352563477e+003;3.9323076172e+003;3.9430769043e+003;
2.1093750000e+000;4.2047436523e+003;4.1479487305e+003;4.1432050781e+003;4.1739741211e+003;4.1488461914e+003;4.1441025391e+003;4.1515385742e+003;4.1278203125e+003;4.1371796875e+003;4.1412822266e+003;4.1435898438e+003;4.1497436523e+003;4.1474360352e+003;4.1552563477e+003;
2.1171875000e+000;4.3176923828e+003;4.2648715820e+003;4.2600000000e+003;4.2811538086e+003;4.2671796875e+003;4.2523076172e+003;4.2632050781e+003;4.2464101563e+003;4.2555126953e+003;4.2653847656e+003;4.2614101563e+003;4.2660258789e+003;4.2650000000e+003;4.2684614258e+003;
2.1250000000e+000;4.3750000000e+003;4.3284614258e+003;4.3241025391e+003;4.3378203125e+003;4.3296152344e+003;4.3112822266e+003;4.3228203125e+003;4.3148715820e+003;4.3237177734e+003;4.3369228516e+003;4.3251284180e+003;4.3284614258e+003;4.3298715820e+003;4.3287177734e+003;
2.1328125000e+000;4.3287177734e+003;4.2933334961e+003;4.2878203125e+003;4.2991025391e+003;4.2894873047e+003;4.2792309570e+003;4.2866665039e+003;4.2875639648e+003;4.2978203125e+003;4.3092309570e+003;4.2891025391e+003;4.2902563477e+003;4.2976923828e+003;4.2912822266e+003;
2.1406250000e+000;4.1339741211e+003;4.0955129395e+003;4.0969228516e+003;4.1161538086e+003;4.0973076172e+003;4.1021796875e+003;4.0980771484e+003;4.1041025391e+003;4.1119228516e+003;4.1211538086e+003;4.1056411133e+003;4.1096152344e+003;4.1067949219e+003;4.1070512695e+003;
2.1484375000e+000;4.0651281738e+003;4.0241025391e+003;4.0296154785e+003;4.0519230957e+003;4.0284614258e+003;4.0383332520e+003;4.0330769043e+003;4.0362819824e+003;4.0423076172e+003;4.0491025391e+003;4.0378205566e+003;4.0423076172e+003;4.0376923828e+003;4.0396154785e+003;
2.1562500000e+000;4.0301281738e+003;3.9885898438e+003;3.9946154785e+003;4.0210256348e+003;3.9937180176e+003;4.0056411133e+003;4.0011538086e+003;3.9997436523e+003;4.0058974609e+003;4.0098718262e+003;4.0019230957e+003;4.0053845215e+003;4.0037180176e+003;4.0047436523e+003;
2.1640625000e+000;4.0397436523e+003;3.9985898438e+003;4.0001281738e+003;4.0328205566e+003;4.0024357910e+003;4.0119230957e+003;4.0069230957e+003;4.0030769043e+003;4.0156411133e+003;4.0147436523e+003;4.0078205566e+003;4.0102563477e+003;4.0146154785e+003;4.0126923828e+003;
2.1718750000e+000;4.0300000000e+003;3.9862819824e+003;3.9889743652e+003;4.0223076172e+003;3.9903845215e+003;3.9996154785e+003;3.9920512695e+003;3.9901281738e+003;4.0061538086e+003;4.0025642090e+003;3.9957692871e+003;4.0005129395e+003;4.0023076172e+003;4.0012819824e+003;
2.1796875000e+000;4.0050000000e+003;3.9569230957e+003;3.9630769043e+003;3.9957692871e+003;3.9612819824e+003;3.9712819824e+003;3.9623076172e+003;3.9608974609e+003;3.9789743652e+003;3.9726923828e+003;3.9676923828e+003;3.9751281738e+003;3.9729487305e+003;3.9735898438e+003;
2.1875000000e+000;3.8656411133e+003;3.7966667480e+003;3.8130769043e+003;3.8485898438e+003;3.8010256348e+003;3.8244870605e+003;3.8179487305e+003;3.8083332520e+003;3.8207692871e+003;3.8121794434e+003;3.8097436523e+003;3.8229487305e+003;3.8155129395e+003;3.8206411133e+003;
2.1953125000e+000;3.8446154785e+003;3.7714101563e+003;3.7866667480e+003;3.8225642090e+003;3.7738461914e+003;3.7994870605e+003;3.7910256348e+003;3.7789743652e+003;3.7891025391e+003;3.7793588867e+003;3.7796154785e+003;3.7947436523e+003;3.7852563477e+003;3.7935898438e+003;
2.2031250000e+000;3.8556411133e+003;3.7720512695e+003;3.7903845215e+003;3.8207692871e+003;3.7693588867e+003;3.7946154785e+003;3.7867949219e+003;3.7816667480e+003;3.7816667480e+003;3.7762819824e+003;3.7794870605e+003;3.7979487305e+003;3.7839743652e+003;3.8044870605e+003;
2.2109375000e+000;3.8387180176e+003;3.7516667480e+003;3.7624357910e+003;3.8053845215e+003;3.7535898438e+003;3.7835898438e+003;3.7780769043e+003;3.7657692871e+003;3.7624357910e+003;3.7542307129e+003;3.7610256348e+003;3.7752563477e+003;3.7644870605e+003;3.7807692871e+003;
2.2187500000e+000;3.8519230957e+003;3.7665385742e+003;3.7742307129e+003;3.8179487305e+003;3.7693588867e+003;3.7978205566e+003;3.7915385742e+003;3.7830769043e+003;3.7797436523e+003;3.7724357910e+003;3.7750000000e+003;3.7873076172e+003;3.7792307129e+003;3.7928205566e+003;
2.2265625000e+000;3.7889743652e+003;3.6955129395e+003;3.7157692871e+003;3.7524357910e+003;3.7026923828e+003;3.7383332520e+003;3.7315385742e+003;3.7225642090e+003;3.7225642090e+003;3.7074357910e+003;3.7052563477e+003;3.7248718262e+003;3.7132050781e+003;3.7305129395e+003;
2.2343750000e+000;3.8451281738e+003;3.7511538086e+003;3.7674357910e+003;3.8024357910e+003;3.7567949219e+003;3.7830769043e+003;3.7829487305e+003;3.7721794434e+003;3.7751281738e+003;3.7610256348e+003;3.7579487305e+003;3.7811538086e+003;3.7651281738e+003;3.7785898438e+003;
2.2421875000e+000;3.8317949219e+003;3.7371794434e+003;3.7534614258e+003;3.7903845215e+003;3.7423076172e+003;3.7700000000e+003;3.7684614258e+003;3.7575642090e+003;3.7603845215e+003;3.7493588867e+003;3.7437180176e+003;3.7667949219e+003;3.7497436523e+003;3.7630769043e+003;
2.2500000000e+000;3.8196154785e+003;3.7239743652e+003;3.7402563477e+003;3.7783332520e+003;3.7292307129e+003;3.7580769043e+003;3.7548718262e+003;3.7426923828e+003;3.7466667480e+003;3.7369230957e+003;3.7296154785e+003;3.7521794434e+003;3.7360256348e+003;3.7497436523e+003;
2.2578125000e+000;3.8397436523e+003;3.7456411133e+003;3.7593588867e+003;3.7948718262e+003;3.7491025391e+003;3.7753845215e+003;3.7694870605e+003;3.7585898438e+003;3.7676923828e+003;3.7562819824e+003;3.7483332520e+003;3.7715385742e+003;3.7576923828e+003;3.7716667480e+003;
2.2656250000e+000;3.8110256348e+003;3.7150000000e+003;3.7251281738e+003;3.7647436523e+003;3.7147436523e+003;3.7420512695e+003;3.7344870605e+003;3.7179487305e+003;3.7246154785e+003;3.7169230957e+003;3.7156411133e+003;3.7374357910e+003;3.7229487305e+003;3.7320512695e+003;
2.2734375000e+000;3.8216667480e+003;3.7224357910e+003;3.7315385742e+003;3.7726923828e+003;3.7232050781e+003;3.7473076172e+003;3.7424357910e+003;3.7232050781e+003;3.7292307129e+003;3.7253845215e+003;3.7251281738e+003;3.7428205566e+003;3.7307692871e+003;3.7385898438e+003;
2.2812500000e+000;3.8356411133e+003;3.7328205566e+003;3.7420512695e+003;3.7826923828e+003;3.7338461914e+003;3.7555129395e+003;3.7523076172e+003;3.7347436523e+003;3.7419230957e+003;3.7402563477e+003;3.7389743652e+003;3.7544870605e+003;3.7434614258e+003;3.7525642090e+003;
2.2890625000e+000;3.8079487305e+003;3.6976923828e+003;3.7111538086e+003;3.7502563477e+003;3.6961538086e+003;3.7230769043e+003;3.7158974609e+003;3.7039743652e+003;3.7151281738e+003;3.7089743652e+003;3.7061538086e+003;3.7267949219e+003;3.7133332520e+003;3.7284614258e+003;
2.2968750000e+000;3.8015385742e+003;3.6903845215e+003;3.7038461914e+003;3.7442307129e+003;3.6876923828e+003;3.7160256348e+003;3.7071794434e+003;3.6939743652e+003;3.7061538086e+003;3.6965385742e+003;3.6956411133e+003;3.7180769043e+003;3.7052563477e+003;3.7206411133e+003;
2.3046875000e+000;3.8266667480e+003;3.7176923828e+003;3.7282050781e+003;3.7708974609e+003;3.7152563477e+003;3.7403845215e+003;3.7319230957e+003;3.7178205566e+003;3.7294870605e+003;3.7193588867e+003;3.7200000000e+003;3.7400000000e+003;3.7303845215e+003;3.7428205566e+003;
2.3125000000e+000;3.8039743652e+003;3.6971794434e+003;3.7061538086e+003;3.7462819824e+003;3.7021794434e+003;3.7350000000e+003;3.7287180176e+003;3.7130769043e+003;3.7243588867e+003;3.7061538086e+003;3.6993588867e+003;3.7123076172e+003;3.7102563477e+003;3.7105129395e+003;
2.3203125000e+000;3.8315385742e+003;3.7246154785e+003;3.7323076172e+003;3.7732050781e+003;3.7278205566e+003;3.7621794434e+003;3.7542307129e+003;3.7394870605e+003;3.7526923828e+003;3.7338461914e+003;3.7265385742e+003;3.7397436523e+003;3.7387180176e+003;3.7398718262e+003;
2.3281250000e+000;3.8376923828e+003;3.7312819824e+003;3.7415385742e+003;3.7857692871e+003;3.7376923828e+003;3.7702563477e+003;3.7614101563e+003;3.7457692871e+003;3.7511538086e+003;3.7443588867e+003;3.7385898438e+003;3.7512819824e+003;3.7397436523e+003;3.7458974609e+003;
2.3359375000e+000;3.8910256348e+003;3.7848718262e+003;3.7860256348e+003;3.8297436523e+003;3.7896154785e+003;3.8096154785e+003;3.8073076172e+003;3.7848718262e+003;3.7912819824e+003;3.7876923828e+003;3.7885898438e+003;3.7991025391e+003;3.7882050781e+003;3.7938461914e+003;
2.3437500000e+000;3.9006411133e+003;3.7912819824e+003;3.7947436523e+003;3.8370512695e+003;3.7943588867e+003;3.8135898438e+003;3.8114101563e+003;3.7901281738e+003;3.7965385742e+003;3.7938461914e+003;3.7965385742e+003;3.8074357910e+003;3.7958974609e+003;3.8043588867e+003;
2.3515625000e+000;3.9875642090e+003;3.8778205566e+003;3.8824357910e+003;3.9158974609e+003;3.8753845215e+003;3.8816667480e+003;3.8842307129e+003;3.8669230957e+003;3.8729487305e+003;3.8791025391e+003;3.8824357910e+003;3.8947436523e+003;3.8824357910e+003;3.8888461914e+003;
2.3593750000e+000;3.9326923828e+003;3.8333332520e+003;3.8384614258e+003;3.8716667480e+003;3.8308974609e+003;3.8411538086e+003;3.8461538086e+003;3.8320512695e+003;3.8389743652e+003;3.8414101563e+003;3.8398718262e+003;3.8555129395e+003;3.8401281738e+003;3.8429487305e+003;
2.3671875000e+000;3.9306411133e+003;3.8325642090e+003;3.8397436523e+003;3.8711538086e+003;3.8321794434e+003;3.8426923828e+003;3.8482050781e+003;3.8308974609e+003;3.8375642090e+003;3.8389743652e+003;3.8393588867e+003;3.8520512695e+003;3.8373076172e+003;3.8398718262e+003;
2.3750000000e+000;3.9550000000e+003;3.8573076172e+003;3.8658974609e+003;3.8935898438e+003;3.8571794434e+003;3.8660256348e+003;3.8712819824e+003;3.8543588867e+003;3.8616667480e+003;3.8635898438e+003;3.8639743652e+003;3.8748718262e+003;3.8602563477e+003;3.8625642090e+003;
2.3828125000e+000;3.9476923828e+003;3.8488461914e+003;3.8588461914e+003;3.8861538086e+003;3.8471794434e+003;3.8602563477e+003;3.8607692871e+003;3.8501281738e+003;3.8616667480e+003;3.8592307129e+003;3.8539743652e+003;3.8698718262e+003;3.8526923828e+003;3.8556411133e+003;
2.3906250000e+000;3.9124357910e+003;3.8133332520e+003;3.8219230957e+003;3.8547436523e+003;3.8132050781e+003;3.8307692871e+003;3.8294870605e+003;3.8179487305e+003;3.8316667480e+003;3.8235898438e+003;3.8169230957e+003;3.8348718262e+003;3.8179487305e+003;3.8205129395e+003;
2.3984375000e+000;3.9076923828e+003;3.8150000000e+003;3.8165385742e+003;3.8569230957e+003;3.8211538086e+003;3.8384614258e+003;3.8375642090e+003;3.8235898438e+003;3.8366667480e+003;3.8248718262e+003;3.8180769043e+003;3.8301281738e+003;3.8173076172e+003;3.8175642090e+003;
2.4062500000e+000;3.9185898438e+003;3.8302563477e+003;3.8296154785e+003;3.8701281738e+003;3.8380769043e+003;3.8535898438e+003;3.8526923828e+003;3.8421794434e+003;3.8512819824e+003;3.8425642090e+003;3.8351281738e+003;3.8438461914e+003;3.8310256348e+003;3.8314101563e+003;
2.4140625000e+000;3.8819230957e+003;3.7901281738e+003;3.7875642090e+003;3.8344870605e+003;3.7961538086e+003;3.8128205566e+003;3.8123076172e+003;3.8043588867e+003;3.8101281738e+003;3.8007692871e+003;3.7911538086e+003;3.7993588867e+003;3.7888461914e+003;3.7934614258e+003;
2.4218750000e+000;3.9010256348e+003;3.8084614258e+003;3.8038461914e+003;3.8505129395e+003;3.8132050781e+003;3.8274357910e+003;3.8276923828e+003;3.8193588867e+003;3.8291025391e+003;3.8182050781e+003;3.8069230957e+003;3.8134614258e+003;3.8071794434e+003;3.8098718262e+003;
2.4296875000e+000;3.9233332520e+003;3.8333332520e+003;3.8275642090e+003;3.8710256348e+003;3.8366667480e+003;3.8496154785e+003;3.8488461914e+003;3.8416667480e+003;3.8546154785e+003;3.8433332520e+003;3.8311538086e+003;3.8355129395e+003;3.8312819824e+003;3.8314101563e+003;
2.4375000000e+000;3.9673076172e+003;3.8815385742e+003;3.8710256348e+003;3.9101281738e+003;3.8833332520e+003;3.8907692871e+003;3.8885898438e+003;3.8802563477e+003;3.8902563477e+003;3.8897436523e+003;3.8762819824e+003;3.8798718262e+003;3.8752563477e+003;3.8773076172e+003;
2.4453125000e+000;3.9412819824e+003;3.8553845215e+003;3.8478205566e+003;3.8851281738e+003;3.8566667480e+003;3.8665385742e+003;3.8614101563e+003;3.8546154785e+003;3.8646154785e+003;3.8673076172e+003;3.8501281738e+003;3.8565385742e+003;3.8525642090e+003;3.8534614258e+003;
2.4531250000e+000;3.9714101563e+003;3.8958974609e+003;3.8860256348e+003;3.9116667480e+003;3.8885898438e+003;3.8898718262e+003;3.8878205566e+003;3.8728205566e+003;3.8812819824e+003;3.8855129395e+003;3.8784614258e+003;3.8878205566e+003;3.8810256348e+003;3.8802563477e+003;
2.4609375000e+000;3.9598718262e+003;3.8767949219e+003;3.8750000000e+003;3.9016667480e+003;3.8778205566e+003;3.8817949219e+003;3.8778205566e+003;3.8698718262e+003;3.8742307129e+003;3.8734614258e+003;3.8684614258e+003;3.8816667480e+003;3.8671794434e+003;3.8723076172e+003;
2.4687500000e+000;3.9029487305e+003;3.8185898438e+003;3.8210256348e+003;3.8489743652e+003;3.8235898438e+003;3.8366667480e+003;3.8306411133e+003;3.8235898438e+003;3.8275642090e+003;3.8234614258e+003;3.8129487305e+003;3.8289743652e+003;3.8128205566e+003;3.8162819824e+003;
2.4765625000e+000;3.8325642090e+003;3.7521794434e+003;3.7584614258e+003;3.7837180176e+003;3.7579487305e+003;3.7833332520e+003;3.7793588867e+003;3.7755129395e+003;3.7862819824e+003;3.7761538086e+003;3.7541025391e+003;3.7755129395e+003;3.7510256348e+003;3.7510256348e+003;
2.4843750000e+000;3.8247436523e+003;3.7398718262e+003;3.7488461914e+003;3.7742307129e+003;3.7448718262e+003;3.7712819824e+003;3.7685898438e+003;3.7615385742e+003;3.7738461914e+003;3.7624357910e+003;3.7452563477e+003;3.7666667480e+003;3.7410256348e+003;3.7439743652e+003;
2.4921875000e+000;3.8894870605e+003;3.7965385742e+003;3.8060256348e+003;3.8312819824e+003;3.8005129395e+003;3.8196154785e+003;3.8188461914e+003;3.8075642090e+003;3.8179487305e+003;3.8107692871e+003;3.8024357910e+003;3.8183332520e+003;3.8023076172e+003;3.8079487305e+003;
2.5000000000e+000;3.9348718262e+003;3.8433332520e+003;3.8507692871e+003;3.8746154785e+003;3.8465385742e+003;3.8603845215e+003;3.8602563477e+003;3.8514101563e+003;3.8605129395e+003;3.8584614258e+003;3.8478205566e+003;3.8606411133e+003;3.8502563477e+003;3.8543588867e+003;
2.5078125000e+000;3.9289743652e+003;3.8483332520e+003;3.8450000000e+003;3.8702563477e+003;3.8469230957e+003;3.8588461914e+003;3.8576923828e+003;3.8442307129e+003;3.8571794434e+003;3.8608974609e+003;3.8450000000e+003;3.8580769043e+003;3.8503845215e+003;3.8456411133e+003;
2.5156250000e+000;3.9465385742e+003;3.8673076172e+003;3.8594870605e+003;3.8850000000e+003;3.8646154785e+003;3.8720512695e+003;3.8694870605e+003;3.8532050781e+003;3.8688461914e+003;3.8729487305e+003;3.8589743652e+003;3.8728205566e+003;3.8651281738e+003;3.8593588867e+003;
2.5234375000e+000;3.9885898438e+003;3.9074357910e+003;3.9021794434e+003;3.9238461914e+003;3.9044870605e+003;3.9060256348e+003;3.8993588867e+003;3.8843588867e+003;3.9006411133e+003;3.9092307129e+003;3.8950000000e+003;3.9119230957e+003;3.8996154785e+003;3.9001281738e+003;
2.5312500000e+000;3.9798718262e+003;3.8962819824e+003;3.8962819824e+003;3.9156411133e+003;3.8947436523e+003;3.8983332520e+003;3.8910256348e+003;3.8753845215e+003;3.8891025391e+003;3.9000000000e+003;3.8851281738e+003;3.9047436523e+003;3.8889743652e+003;3.8929487305e+003;
2.5390625000e+000;3.9687180176e+003;3.8924357910e+003;3.8892307129e+003;3.9053845215e+003;3.8889743652e+003;3.8929487305e+003;3.8869230957e+003;3.8750000000e+003;3.8855129395e+003;3.8970512695e+003;3.8832050781e+003;3.9042307129e+003;3.8897436523e+003;3.8901281738e+003;
2.5468750000e+000;3.9432050781e+003;3.8702563477e+003;3.8650000000e+003;3.8832050781e+003;3.8643588867e+003;3.8705129395e+003;3.8619230957e+003;3.8535898438e+003;3.8656411133e+003;3.8761538086e+003;3.8608974609e+003;3.8817949219e+003;3.8656411133e+003;3.8658974609e+003;
2.5546875000e+000;3.9048718262e+003;3.8308974609e+003;3.8270512695e+003;3.8479487305e+003;3.8248718262e+003;3.8346154785e+003;3.8238461914e+003;3.8151281738e+003;3.8280769043e+003;3.8376923828e+003;3.8212819824e+003;3.8426923828e+003;3.8234614258e+003;3.8246154785e+003;
2.5625000000e+000;3.8925642090e+003;3.8138461914e+003;3.8128205566e+003;3.8350000000e+003;3.8106411133e+003;3.8206411133e+003;3.8107692871e+003;3.7983332520e+003;3.8106411133e+003;3.8207692871e+003;3.8037180176e+003;3.8252563477e+003;3.8048718262e+003;3.8064101563e+003;
2.5703125000e+000;4.0079487305e+003;3.9337180176e+003;3.9283332520e+003;3.9438461914e+003;3.9280769043e+003;3.9266667480e+003;3.9282050781e+003;3.9280769043e+003;3.9339743652e+003;3.9525642090e+003;3.9280769043e+003;3.9476923828e+003;3.9334614258e+003;3.9366667480e+003;
2.5781250000e+000;3.8867949219e+003;3.8146154785e+003;3.8083332520e+003;3.8361538086e+003;3.8188461914e+003;3.8247436523e+003;3.8226923828e+003;3.8189743652e+003;3.8329487305e+003;3.8415385742e+003;3.8137180176e+003;3.8243588867e+003;3.8173076172e+003;3.8065385742e+003;
2.5859375000e+000;3.8902563477e+003;3.8183332520e+003;3.8132050781e+003;3.8426923828e+003;3.8253845215e+003;3.8303845215e+003;3.8289743652e+003;3.8242307129e+003;3.8362819824e+003;3.8439743652e+003;3.8171794434e+003;3.8297436523e+003;3.8242307129e+003;3.8115385742e+003;
2.5937500000e+000;3.9664101563e+003;3.8988461914e+003;3.8858974609e+003;3.9176923828e+003;3.9014101563e+003;3.9008974609e+003;3.9016667480e+003;3.8955129395e+003;3.9044870605e+003;3.9164101563e+003;3.8908974609e+003;3.9024357910e+003;3.9017949219e+003;3.8893588867e+003;
2.6015625000e+000;4.0794870605e+003;4.0194870605e+003;4.0003845215e+003;4.0224357910e+003;4.0215385742e+003;4.0101281738e+003;4.0093588867e+003;4.0058974609e+003;4.0237180176e+003;4.0376923828e+003;4.0093588867e+003;4.0157692871e+003;4.0188461914e+003;4.0044870605e+003;
2.6093750000e+000;4.1016665039e+003;4.0441025391e+003;4.0270512695e+003;4.0446154785e+003;4.0507692871e+003;4.0364101563e+003;4.0391025391e+003;4.0337180176e+003;4.0521794434e+003;4.0665385742e+003;4.0396154785e+003;4.0439743652e+003;4.0501281738e+003;4.0342307129e+003;
2.6171875000e+000;4.0876923828e+003;4.0338461914e+003;4.0228205566e+003;4.0343588867e+003;4.0439743652e+003;4.0358974609e+003;4.0379487305e+003;4.0396154785e+003;4.0555129395e+003;4.0737180176e+003;4.0438461914e+003;4.0473076172e+003;4.0535898438e+003;4.0385898438e+003;
2.6250000000e+000;4.0255129395e+003;3.9710256348e+003;3.9629487305e+003;3.9767949219e+003;3.9806411133e+003;3.9811538086e+003;3.9800000000e+003;3.9833332520e+003;3.9978205566e+003;4.0141025391e+003;3.9833332520e+003;3.9896154785e+003;3.9930769043e+003;3.9791025391e+003;
2.6328125000e+000;4.0196154785e+003;3.9680769043e+003;3.9515385742e+003;3.9726923828e+003;3.9730769043e+003;3.9693588867e+003;3.9750000000e+003;3.9682050781e+003;3.9821794434e+003;3.9902563477e+003;3.9687180176e+003;3.9711538086e+003;3.9784614258e+003;3.9602563477e+003;
2.6406250000e+000;4.0624357910e+003;4.0120512695e+003;3.9955129395e+003;4.0116667480e+003;4.0160256348e+003;4.0076923828e+003;4.0142307129e+003;4.0128205566e+003;4.0248718262e+003;4.0365385742e+003;4.0143588867e+003;4.0138461914e+003;4.0219230957e+003;4.0030769043e+003;
2.6484375000e+000;4.0155129395e+003;3.9594870605e+003;3.9542307129e+003;3.9624357910e+003;3.9639743652e+003;3.9634614258e+003;3.9619230957e+003;3.9705129395e+003;3.9784614258e+003;3.9952563477e+003;3.9688461914e+003;3.9734614258e+003;3.9766667480e+003;3.9597436523e+003;
2.6562500000e+000;3.9646154785e+003;3.9047436523e+003;3.9033332520e+003;3.9126923828e+003;3.9096154785e+003;3.9139743652e+003;3.9094870605e+003;3.9161538086e+003;3.9250000000e+003;3.9403845215e+003;3.9142307129e+003;3.9247436523e+003;3.9246154785e+003;3.9089743652e+003;
2.6640625000e+000;3.8739743652e+003;3.8069230957e+003;3.8079487305e+003;3.8257692871e+003;3.8108974609e+003;3.8216667480e+003;3.8144870605e+003;3.8117949219e+003;3.8282050781e+003;3.8326923828e+003;3.8139743652e+003;3.8333332520e+003;3.8243588867e+003;3.8155129395e+003;
2.6718750000e+000;3.8537180176e+003;3.7835898438e+003;3.7864101563e+003;3.8052563477e+003;3.7889743652e+003;3.8005129395e+003;3.7929487305e+003;3.7885898438e+003;3.8048718262e+003;3.8055129395e+003;3.7905129395e+003;3.8080769043e+003;3.7994870605e+003;3.7905129395e+003;
2.6796875000e+000;3.8561538086e+003;3.7835898438e+003;3.7867949219e+003;3.8052563477e+003;3.7903845215e+003;3.7992307129e+003;3.7923076172e+003;3.7884614258e+003;3.8035898438e+003;3.8025642090e+003;3.7900000000e+003;3.8046154785e+003;3.7992307129e+003;3.7867949219e+003;
2.6875000000e+000;3.8705129395e+003;3.7958974609e+003;3.7987180176e+003;3.8160256348e+003;3.8034614258e+003;3.8079487305e+003;3.8021794434e+003;3.8019230957e+003;3.8155129395e+003;3.8155129395e+003;3.8025642090e+003;3.8155129395e+003;3.8130769043e+003;3.7962819824e+003;
2.6953125000e+000;3.7517949219e+003;3.6678205566e+003;3.6792307129e+003;3.6998718262e+003;3.6791025391e+003;3.6956411133e+003;3.6887180176e+003;3.6762819824e+003;3.6876923828e+003;3.6780769043e+003;3.6739743652e+003;3.6906411133e+003;3.6825642090e+003;3.6697436523e+003;
2.7031250000e+000;3.7970512695e+003;3.7155129395e+003;3.7247436523e+003;3.7435898438e+003;3.7274357910e+003;3.7396154785e+003;3.7343588867e+003;3.7184614258e+003;3.7306411133e+003;3.7201281738e+003;3.7176923828e+003;3.7314101563e+003;3.7258974609e+003;3.7119230957e+003;
2.7109375000e+000;3.8683332520e+003;3.7861538086e+003;3.7941025391e+003;3.8108974609e+003;3.7988461914e+003;3.8012819824e+003;3.8007692871e+003;3.7955129395e+003;3.8000000000e+003;3.8026923828e+003;3.7878205566e+003;3.8048718262e+003;3.7969230957e+003;3.7810256348e+003;
2.7187500000e+000;3.7342307129e+003;3.6487180176e+003;3.6528205566e+003;3.6807692871e+003;3.6641025391e+003;3.6784614258e+003;3.6741025391e+003;3.6662819824e+003;3.6708974609e+003;3.6653845215e+003;3.6562819824e+003;3.6757692871e+003;3.6608974609e+003;3.6480769043e+003;
2.7265625000e+000;3.6961538086e+003;3.6088461914e+003;3.6153845215e+003;3.6437180176e+003;3.6251281738e+003;3.6462819824e+003;3.6376923828e+003;3.6292307129e+003;3.6344870605e+003;3.6255129395e+003;3.6187180176e+003;3.6378205566e+003;3.6212819824e+003;3.6088461914e+003;
2.7343750000e+000;3.6678205566e+003;3.5756411133e+003;3.5869230957e+003;3.6141025391e+003;3.5932050781e+003;3.6198718262e+003;3.6085898438e+003;3.5980769043e+003;3.6024357910e+003;3.5910256348e+003;3.5860256348e+003;3.6061538086e+003;3.5882050781e+003;3.5764101563e+003;
2.7421875000e+000;3.6426923828e+003;3.5360256348e+003;3.5487180176e+003;3.5794870605e+003;3.5524357910e+003;3.5780769043e+003;3.5667949219e+003;3.5543588867e+003;3.5592307129e+003;3.5476923828e+003;3.5373076172e+003;3.5666667480e+003;3.5450000000e+003;3.5401281738e+003;
2.7500000000e+000;3.6162819824e+003;3.5094870605e+003;3.5220512695e+003;3.5543588867e+003;3.5246154785e+003;3.5552563477e+003;3.5402563477e+003;3.5260256348e+003;3.5316667480e+003;3.5179487305e+003;3.5092307129e+003;3.5383332520e+003;3.5162819824e+003;3.5121794434e+003;
2.7578125000e+000;3.5958974609e+003;3.4757692871e+003;3.4970512695e+003;3.5265385742e+003;3.4920512695e+003;3.5279487305e+003;3.5147436523e+003;3.5024357910e+003;3.5073076172e+003;3.4893588867e+003;3.4811538086e+003;3.5121794434e+003;3.4875642090e+003;3.4841025391e+003;
2.7656250000e+000;3.5720512695e+003;3.4475642090e+003;3.4710256348e+003;3.5006411133e+003;3.4637180176e+003;3.5000000000e+003;3.4896154785e+003;3.4756411133e+003;3.4794870605e+003;3.4605129395e+003;3.4533332520e+003;3.4861538086e+003;3.4600000000e+003;3.4574357910e+003;
2.7734375000e+000;3.5648718262e+003;3.4379487305e+003;3.4578205566e+003;3.4888461914e+003;3.4501281738e+003;3.4837180176e+003;3.4733332520e+003;3.4574357910e+003;3.4607692871e+003;3.4419230957e+003;3.4383332520e+003;3.4726923828e+003;3.4473076172e+003;3.4457692871e+003;
2.7812500000e+000;3.5421794434e+003;3.4039743652e+003;3.4242307129e+003;3.4592307129e+003;3.4151281738e+003;3.4497436523e+003;3.4398718262e+003;3.4265385742e+003;3.4273076172e+003;3.4084614258e+003;3.4023076172e+003;3.4407692871e+003;3.4082050781e+003;3.4146154785e+003;
2.7890625000e+000;3.5698718262e+003;3.4287180176e+003;3.4471794434e+003;3.4846154785e+003;3.4406411133e+003;3.4729487305e+003;3.4653845215e+003;3.4487180176e+003;3.4498718262e+003;3.4332050781e+003;3.4248718262e+003;3.4620512695e+003;3.4328205566e+003;3.4384614258e+003;
2.7968750000e+000;3.6400000000e+003;3.4961538086e+003;3.5158974609e+003;3.5539743652e+003;3.5079487305e+003;3.5375642090e+003;3.5296154785e+003;3.5157692871e+003;3.5179487305e+003;3.5065385742e+003;3.4939743652e+003;3.5330769043e+003;3.5055129395e+003;3.5073076172e+003;
2.8046875000e+000;3.6516667480e+003;3.5073076172e+003;3.5291025391e+003;3.5650000000e+003;3.5193588867e+003;3.5484614258e+003;3.5411538086e+003;3.5289743652e+003;3.5308974609e+003;3.5196154785e+003;3.5078205566e+003;3.5488461914e+003;3.5189743652e+003;3.5197436523e+003;
2.8125000000e+000;3.8047436523e+003;3.6656411133e+003;3.6758974609e+003;3.7023076172e+003;3.6791025391e+003;3.6873076172e+003;3.6961538086e+003;3.6811538086e+003;3.6844870605e+003;3.6794870605e+003;3.6685898438e+003;3.7000000000e+003;3.6780769043e+003;3.6796154785e+003;
2.8203125000e+000;3.8914101563e+003;3.7587180176e+003;3.7644870605e+003;3.7875642090e+003;3.7705129395e+003;3.7728205566e+003;3.7852563477e+003;3.7696154785e+003;3.7735898438e+003;3.7751281738e+003;3.7602563477e+003;3.7891025391e+003;3.7701281738e+003;3.7719230957e+003;
2.8281250000e+000;4.1082050781e+003;4.0011538086e+003;4.0015385742e+003;4.0116667480e+003;4.0055129395e+003;3.9934614258e+003;4.0055129395e+003;3.9976923828e+003;4.0010256348e+003;4.0176923828e+003;3.9952563477e+003;4.0229487305e+003;4.0020512695e+003;3.9943588867e+003;
2.8359375000e+000;4.1010258789e+003;3.9991025391e+003;3.9984614258e+003;4.0057692871e+003;4.0019230957e+003;3.9879487305e+003;3.9964101563e+003;3.9983332520e+003;4.0015385742e+003;4.0194870605e+003;3.9956411133e+003;4.0219230957e+003;3.9997436523e+003;3.9903845215e+003;
2.8437500000e+000;3.9392307129e+003;3.8352563477e+003;3.8364101563e+003;3.8475642090e+003;3.8398718262e+003;3.8376923828e+003;3.8405129395e+003;3.8435898438e+003;3.8489743652e+003;3.8601281738e+003;3.8401281738e+003;3.8634614258e+003;3.8426923828e+003;3.8393588867e+003;
2.8515625000e+000;3.9232050781e+003;3.8180769043e+003;3.8171794434e+003;3.8312819824e+003;3.8239743652e+003;3.8243588867e+003;3.8297436523e+003;3.8203845215e+003;3.8293588867e+003;3.8375642090e+003;3.8223076172e+003;3.8430769043e+003;3.8264101563e+003;3.8251281738e+003;
2.8593750000e+000;4.0208974609e+003;3.9198718262e+003;3.9125642090e+003;3.9253845215e+003;3.9243588867e+003;3.9180769043e+003;3.9288461914e+003;3.9092307129e+003;3.9219230957e+003;3.9329487305e+003;3.9201281738e+003;3.9371794434e+003;3.9256411133e+003;3.9221794434e+003;
2.8671875000e+000;4.1826923828e+003;4.0908974609e+003;4.0761538086e+003;4.0826923828e+003;4.0911538086e+003;4.0724357910e+003;4.0871794434e+003;4.0688461914e+003;4.0828205566e+003;4.1025639648e+003;4.0875642090e+003;4.1015385742e+003;4.0925642090e+003;4.0848718262e+003;
2.8750000000e+000;4.1184614258e+003;4.0487180176e+003;4.0423076172e+003;4.0326923828e+003;4.0401281738e+003;4.0243588867e+003;4.0275642090e+003;4.0417949219e+003;4.0448718262e+003;4.0750000000e+003;4.0510256348e+003;4.0685898438e+003;4.0587180176e+003;4.0469230957e+003;
2.8828125000e+000;3.9198718262e+003;3.8537180176e+003;3.8505129395e+003;3.8566667480e+003;3.8524357910e+003;3.8546154785e+003;3.8530769043e+003;3.8480769043e+003;3.8612819824e+003;3.8760256348e+003;3.8565385742e+003;3.8743588867e+003;3.8661538086e+003;3.8546154785e+003;
2.8906250000e+000;3.9143588867e+003;3.8507692871e+003;3.8437180176e+003;3.8543588867e+003;3.8503845215e+003;3.8524357910e+003;3.8501281738e+003;3.8457692871e+003;3.8552563477e+003;3.8716667480e+003;3.8515385742e+003;3.8689743652e+003;3.8603845215e+003;3.8483332520e+003;
2.8984375000e+000;3.9065385742e+003;3.8419230957e+003;3.8348718262e+003;3.8471794434e+003;3.8471794434e+003;3.8474357910e+003;3.8450000000e+003;3.8446154785e+003;3.8491025391e+003;3.8664101563e+003;3.8456411133e+003;3.8619230957e+003;3.8542307129e+003;3.8410256348e+003;
2.9062500000e+000;3.8969230957e+003;3.8293588867e+003;3.8253845215e+003;3.8371794434e+003;3.8373076172e+003;3.8400000000e+003;3.8367949219e+003;3.8326923828e+003;3.8385898438e+003;3.8532050781e+003;3.8343588867e+003;3.8512819824e+003;3.8432050781e+003;3.8301281738e+003;
2.9140625000e+000;4.1356411133e+003;4.0797436523e+003;4.0611538086e+003;4.0679487305e+003;4.0829487305e+003;4.0742307129e+003;4.0753845215e+003;4.0612819824e+003;4.0703845215e+003;4.0917949219e+003;4.0693588867e+003;4.0806411133e+003;4.0808974609e+003;4.0638461914e+003;
2.9218750000e+000;4.1830771484e+003;4.1402563477e+003;4.1230771484e+003;4.1193588867e+003;4.1430771484e+003;4.1280771484e+003;4.1274360352e+003;4.1347436523e+003;4.1382050781e+003;4.1693588867e+003;4.1330771484e+003;4.1437177734e+003;4.1438461914e+003;4.1300000000e+003;
2.9296875000e+000;4.1387177734e+003;4.1002563477e+003;4.0829487305e+003;4.0780769043e+003;4.1023076172e+003;4.0880769043e+003;4.0864101563e+003;4.0903845215e+003;4.0953845215e+003;4.1228203125e+003;4.0925642090e+003;4.1033334961e+003;4.1029487305e+003;4.0882050781e+003;
2.9375000000e+000;4.1403847656e+003;4.1093588867e+003;4.0879487305e+003;4.0819230957e+003;4.1083334961e+003;4.0915385742e+003;4.0902563477e+003;4.0906411133e+003;4.0983334961e+003;4.1235898438e+003;4.0993588867e+003;4.1089741211e+003;4.1089741211e+003;4.0919230957e+003;
2.9453125000e+000;4.1629487305e+003;4.1420512695e+003;4.1189741211e+003;4.1093588867e+003;4.1350000000e+003;4.1148715820e+003;4.1147436523e+003;4.1189741211e+003;4.1303847656e+003;4.1580771484e+003;4.1332050781e+003;4.1437177734e+003;4.1392309570e+003;4.1230771484e+003;
2.9531250000e+000;4.0955129395e+003;4.0708974609e+003;4.0546154785e+003;4.0457692871e+003;4.0651281738e+003;4.0492307129e+003;4.0476923828e+003;4.0560256348e+003;4.0666667480e+003;4.0950000000e+003;4.0669230957e+003;4.0803845215e+003;4.0711538086e+003;4.0593588867e+003;
2.9609375000e+000;3.8480769043e+003;3.8070512695e+003;3.8008974609e+003;3.8053845215e+003;3.8089743652e+003;3.8094870605e+003;3.8011538086e+003;3.7992307129e+003;3.8061538086e+003;3.8261538086e+003;3.8087180176e+003;3.8248718262e+003;3.8125642090e+003;3.8060256348e+003;
2.9687500000e+000;3.9135898438e+003;3.8747436523e+003;3.8634614258e+003;3.8684614258e+003;3.8751281738e+003;3.8741025391e+003;3.8684614258e+003;3.8564101563e+003;3.8625642090e+003;3.8824357910e+003;3.8715385742e+003;3.8857692871e+003;3.8764101563e+003;3.8664101563e+003;
2.9765625000e+000;4.0638461914e+003;4.0301281738e+003;4.0120512695e+003;4.0135898438e+003;4.0282050781e+003;4.0188461914e+003;4.0196154785e+003;4.0007692871e+003;4.0067949219e+003;4.0303845215e+003;4.0224357910e+003;4.0333332520e+003;4.0279487305e+003;4.0135898438e+003;
2.9843750000e+000;4.0164101563e+003;3.9989743652e+003;3.9828205566e+003;3.9770512695e+003;3.9943588867e+003;3.9869230957e+003;3.9806411133e+003;3.9924357910e+003;4.0005129395e+003;4.0292307129e+003;4.0003845215e+003;4.0165385742e+003;4.0051281738e+003;3.9962819824e+003;
2.9921875000e+000;3.9912819824e+003;3.9726923828e+003;3.9529487305e+003;3.9552563477e+003;3.9705129395e+003;3.9665385742e+003;3.9620512695e+003;3.9589743652e+003;3.9658974609e+003;3.9903845215e+003;3.9688461914e+003;3.9860256348e+003;3.9774357910e+003;3.9669230957e+003;
3.0000000000e+000;4.2129487305e+003;4.1970512695e+003;4.1679487305e+003;4.1716665039e+003;4.1976923828e+003;4.1744873047e+003;4.1826923828e+003;4.1697436523e+003;4.1742309570e+003;4.2038461914e+003;4.1874360352e+003;4.1998715820e+003;4.1973076172e+003;4.1806411133e+003;
3.0078125000e+000;4.1447436523e+003;4.1398715820e+003;4.1169228516e+003;4.1151284180e+003;4.1393588867e+003;4.1197436523e+003;4.1197436523e+003;4.1178203125e+003;4.1303847656e+003;4.1517949219e+003;4.1261538086e+003;4.1351284180e+003;4.1324360352e+003;4.1139741211e+003;
3.0156250000e+000;4.1505126953e+003;4.1450000000e+003;4.1211538086e+003;4.1212822266e+003;4.1442309570e+003;4.1264101563e+003;4.1250000000e+003;4.1216665039e+003;4.1347436523e+003;4.1553847656e+003;4.1301284180e+003;4.1398715820e+003;4.1384614258e+003;4.1201284180e+003;
3.0234375000e+000;4.1728203125e+003;4.1652563477e+003;4.1458974609e+003;4.1417949219e+003;4.1633334961e+003;4.1469228516e+003;4.1465385742e+003;4.1442309570e+003;4.1520512695e+003;4.1773076172e+003;4.1503847656e+003;4.1674360352e+003;4.1596152344e+003;4.1461538086e+003;
3.0312500000e+000;4.1661538086e+003;4.1597436523e+003;4.1430771484e+003;4.1346152344e+003;4.1574360352e+003;4.1394873047e+003;4.1403847656e+003;4.1382050781e+003;4.1451284180e+003;4.1708974609e+003;4.1434614258e+003;4.1619228516e+003;4.1526923828e+003;4.1401284180e+003;
3.0390625000e+000;4.0693588867e+003;4.0719230957e+003;4.0525642090e+003;4.0474357910e+003;4.0666667480e+003;4.0512819824e+003;4.0439743652e+003;4.0515385742e+003;4.0630769043e+003;4.0811538086e+003;4.0532050781e+003;4.0646154785e+003;4.0587180176e+003;4.0462819824e+003;
3.0468750000e+000;4.0371794434e+003;4.0391025391e+003;4.0173076172e+003;4.0179487305e+003;4.0333332520e+003;4.0229487305e+003;4.0152563477e+003;4.0198718262e+003;4.0305129395e+003;4.0441025391e+003;4.0196154785e+003;4.0307692871e+003;4.0235898438e+003;4.0124357910e+003;
3.0546875000e+000;4.1926923828e+003;4.1950000000e+003;4.1652563477e+003;4.1626923828e+003;4.1878203125e+003;4.1670512695e+003;4.1724360352e+003;4.1661538086e+003;4.1734614258e+003;4.1905126953e+003;4.1697436523e+003;4.1800000000e+003;4.1746152344e+003;4.1624360352e+003;
3.0625000000e+000;4.3294873047e+003;4.3364101563e+003;4.3047436523e+003;4.2934614258e+003;4.3287177734e+003;4.2948715820e+003;4.3061538086e+003;4.3024360352e+003;4.3094873047e+003;4.3358974609e+003;4.3105126953e+003;4.3202563477e+003;4.3157690430e+003;4.3021796875e+003;
3.0703125000e+000;4.3558974609e+003;4.3794873047e+003;4.3534614258e+003;4.3343588867e+003;4.3758974609e+003;4.3328203125e+003;4.3389741211e+003;4.3446152344e+003;4.3489741211e+003;4.3875639648e+003;4.3539741211e+003;4.3676923828e+003;4.3570512695e+003;4.3438461914e+003;
3.0781250000e+000;4.3403847656e+003;4.3679487305e+003;4.3396152344e+003;4.3220512695e+003;4.3643588867e+003;4.3219228516e+003;4.3280771484e+003;4.3305126953e+003;4.3333334961e+003;4.3680771484e+003;4.3369228516e+003;4.3510258789e+003;4.3403847656e+003;4.3280771484e+003;
3.0859375000e+000;4.3629487305e+003;4.3946152344e+003;4.3630771484e+003;4.3442309570e+003;4.3892309570e+003;4.3458974609e+003;4.3535898438e+003;4.3550000000e+003;4.3575639648e+003;4.3891025391e+003;4.3593588867e+003;4.3732050781e+003;4.3628203125e+003;4.3517949219e+003;
3.0937500000e+000;4.3826923828e+003;4.4179487305e+003;4.3860258789e+003;4.3639741211e+003;4.4105126953e+003;4.3678203125e+003;4.3758974609e+003;4.3791025391e+003;4.3830771484e+003;4.4132050781e+003;4.3833334961e+003;4.3976923828e+003;4.3860258789e+003;4.3764101563e+003;
3.1015625000e+000;4.1421796875e+003;4.1752563477e+003;4.1608974609e+003;4.1439741211e+003;4.1742309570e+003;4.1471796875e+003;4.1426923828e+003;4.1464101563e+003;4.1557690430e+003;4.1834614258e+003;4.1642309570e+003;4.1833334961e+003;4.1606411133e+003;4.1556411133e+003;
3.1093750000e+000;4.1457690430e+003;4.1711538086e+003;4.1526923828e+003;4.1432050781e+003;4.1662822266e+003;4.1457690430e+003;4.1416665039e+003;4.1283334961e+003;4.1351284180e+003;4.1547436523e+003;4.1446152344e+003;4.1653847656e+003;4.1487177734e+003;4.1432050781e+003;
3.1171875000e+000;4.2930771484e+003;4.3224360352e+003;4.2976923828e+003;4.2848715820e+003;4.3171796875e+003;4.2843588867e+003;4.2867949219e+003;4.2737177734e+003;4.2807690430e+003;4.3067949219e+003;4.2952563477e+003;4.3094873047e+003;4.3006411133e+003;4.2873076172e+003;
3.1250000000e+000;4.6170512695e+003;4.6662822266e+003;4.6300000000e+003;4.6048715820e+003;4.6585898438e+003;4.6015385742e+003;4.6130771484e+003;4.6096152344e+003;4.6144873047e+003;4.6601284180e+003;4.6380771484e+003;4.6415385742e+003;4.6405126953e+003;4.6167949219e+003;
3.1328125000e+000;4.4901284180e+003;4.5744873047e+003;4.5358974609e+003;4.5026923828e+003;4.5573076172e+003;4.5128203125e+003;4.5085898438e+003;4.5357690430e+003;4.5352563477e+003;4.5903847656e+003;4.5475639648e+003;4.5543588867e+003;4.5420512695e+003;4.5291025391e+003;
3.1406250000e+000;4.2787177734e+003;4.3564101563e+003;4.3267949219e+003;4.3017949219e+003;4.3439741211e+003;4.3171796875e+003;4.3076923828e+003;4.3323076172e+003;4.3316665039e+003;4.3757690430e+003;4.3385898438e+003;4.3473076172e+003;4.3323076172e+003;4.3229487305e+003;
3.1484375000e+000;4.0265385742e+003;4.0910256348e+003;4.0684614258e+003;4.0611538086e+003;4.0903845215e+003;4.0850000000e+003;4.0724357910e+003;4.0739743652e+003;4.0739743652e+003;4.0952563477e+003;4.0770512695e+003;4.0873076172e+003;4.0751281738e+003;4.0651281738e+003;
3.1562500000e+000;4.0832050781e+003;4.1476923828e+003;4.1202563477e+003;4.1162822266e+003;4.1494873047e+003;4.1401284180e+003;4.1305126953e+003;4.1216665039e+003;4.1223076172e+003;4.1407690430e+003;4.1275639648e+003;4.1370512695e+003;4.1291025391e+003;4.1155126953e+003;
3.1640625000e+000;4.6588461914e+003;4.7407690430e+003;4.6934614258e+003;4.6756411133e+003;4.7316665039e+003;4.6815385742e+003;4.6924360352e+003;4.6771796875e+003;4.6791025391e+003;4.7219228516e+003;4.7010258789e+003;4.7010258789e+003;4.7023076172e+003;4.6853847656e+003;
3.1718750000e+000;4.8653847656e+003;4.9587177734e+003;4.9038461914e+003;4.8760258789e+003;4.9437177734e+003;4.8770512695e+003;4.8953847656e+003;4.8837177734e+003;4.8860258789e+003;4.9406411133e+003;4.9138461914e+003;4.9080771484e+003;4.9137177734e+003;4.8960258789e+003;
3.1796875000e+000;5.1621796875e+003;5.2848715820e+003;5.2182050781e+003;5.1693588867e+003;5.2632050781e+003;5.1706411133e+003;5.1958974609e+003;5.1996152344e+003;5.2029487305e+003;5.2779487305e+003;5.2355126953e+003;5.2225639648e+003;5.2364101563e+003;5.2130771484e+003;
3.1875000000e+000;5.2035898438e+003;5.3401284180e+003;5.2728203125e+003;5.2171796875e+003;5.3179487305e+003;5.2219228516e+003;5.2457690430e+003;5.2579487305e+003;5.2614101563e+003;5.3420512695e+003;5.2928203125e+003;5.2802563477e+003;5.2942309570e+003;5.2691025391e+003;
3.1953125000e+000;4.8715385742e+003;5.0293588867e+003;4.9755126953e+003;4.9170512695e+003;5.0069228516e+003;4.9364101563e+003;4.9447436523e+003;4.9730771484e+003;4.9785898438e+003;5.0505126953e+003;5.0007690430e+003;4.9917949219e+003;4.9903847656e+003;4.9732050781e+003;
3.2031250000e+000;4.6791025391e+003;4.8352563477e+003;4.7893588867e+003;4.7329487305e+003;4.8147436523e+003;4.7594873047e+003;4.7634614258e+003;4.7900000000e+003;4.7953847656e+003;4.8569228516e+003;4.8120512695e+003;4.8056411133e+003;4.7982050781e+003;4.7850000000e+003;
3.2109375000e+000;4.5253847656e+003;4.6769228516e+003;4.6379487305e+003;4.5855126953e+003;4.6598715820e+003;4.6187177734e+003;4.6216665039e+003;4.6397436523e+003;4.6437177734e+003;4.6938461914e+003;4.6553847656e+003;4.6521796875e+003;4.6423076172e+003;4.6303847656e+003;
3.2187500000e+000;4.4723076172e+003;4.6200000000e+003;4.5832050781e+003;4.5364101563e+003;4.6066665039e+003;4.5725639648e+003;4.5789741211e+003;4.5850000000e+003;4.5875639648e+003;4.6287177734e+003;4.5965385742e+003;4.5946152344e+003;4.5880771484e+003;4.5738461914e+003;
3.2265625000e+000;4.4370512695e+003;4.5811538086e+003;4.5465385742e+003;4.5157690430e+003;4.5711538086e+003;4.5471796875e+003;4.5444873047e+003;4.5728203125e+003;4.5775639648e+003;4.6184614258e+003;4.5733334961e+003;4.5673076172e+003;4.5658974609e+003;4.5515385742e+003;
3.2343750000e+000;4.3673076172e+003;4.4905126953e+003;4.4546152344e+003;4.4346152344e+003;4.4844873047e+003;4.4635898438e+003;4.4683334961e+003;4.4574360352e+003;4.4610258789e+003;4.4812822266e+003;4.4678203125e+003;4.4619228516e+003;4.4692309570e+003;4.4576923828e+003;
3.2421875000e+000;4.5205126953e+003;4.6471796875e+003;4.6066665039e+003;4.5837177734e+003;4.6389741211e+003;4.6060258789e+003;4.6162822266e+003;4.6135898438e+003;4.6170512695e+003;4.6453847656e+003;4.6270512695e+003;4.6179487305e+003;4.6288461914e+003;4.6138461914e+003;
3.2500000000e+000;4.4678203125e+003;4.5908974609e+003;4.5600000000e+003;4.5328203125e+003;4.5833334961e+003;4.5573076172e+003;4.5578203125e+003;4.5702563477e+003;4.5716665039e+003;4.6071796875e+003;4.5806411133e+003;4.5738461914e+003;4.5783334961e+003;4.5653847656e+003;
3.2578125000e+000;4.6415385742e+003;4.7601284180e+003;4.7310258789e+003;4.6937177734e+003;4.7491025391e+003;4.7178203125e+003;4.7225639648e+003;4.7098715820e+003;4.7128203125e+003;4.7423076172e+003;4.7352563477e+003;4.7287177734e+003;4.7325639648e+003;4.7261538086e+003;
3.2656250000e+000;4.8858974609e+003;5.0161538086e+003;4.9775639648e+003;4.9311538086e+003;5.0024360352e+003;4.9520512695e+003;4.9671796875e+003;4.9602563477e+003;4.9655126953e+003;5.0017949219e+003;4.9897436523e+003;4.9773076172e+003;4.9850000000e+003;4.9760258789e+003;
3.2734375000e+000;5.1608974609e+003;5.3211538086e+003;5.2725639648e+003;5.2073076172e+003;5.3070512695e+003;5.2330771484e+003;5.2525639648e+003;5.2765385742e+003;5.2817949219e+003;5.3375639648e+003;5.3020512695e+003;5.2821796875e+003;5.2919228516e+003;5.2784614258e+003;
3.2812500000e+000;5.1344873047e+003;5.3070512695e+003;5.2611538086e+003;5.1910258789e+003;5.2937177734e+003;5.2216665039e+003;5.2367949219e+003;5.2696152344e+003;5.2734614258e+003;5.3346152344e+003;5.2921796875e+003;5.2728203125e+003;5.2803847656e+003;5.2660258789e+003;
3.2890625000e+000;5.1391025391e+003;5.3347436523e+003;5.2908974609e+003;5.2105126953e+003;5.3133334961e+003;5.2370512695e+003;5.2579487305e+003;5.2784614258e+003;5.2812822266e+003;5.3450000000e+003;5.3119228516e+003;5.2925639648e+003;5.3032050781e+003;5.2823076172e+003;
3.2968750000e+000;5.1987177734e+003;5.4019228516e+003;5.3548715820e+003;5.2701284180e+003;5.3755126953e+003;5.2957690430e+003;5.3175639648e+003;5.3415385742e+003;5.3430771484e+003;5.4103847656e+003;5.3762822266e+003;5.3578203125e+003;5.3669228516e+003;5.3473076172e+003;
3.3046875000e+000;5.1496152344e+003;5.3660258789e+003;5.3175639648e+003;5.2346152344e+003;5.3406411133e+003;5.2691025391e+003;5.2829487305e+003;5.3098715820e+003;5.3052563477e+003;5.3750000000e+003;5.3384614258e+003;5.3239741211e+003;5.3256411133e+003;5.3141025391e+003;
3.3125000000e+000;5.1048715820e+003;5.3270512695e+003;5.2774360352e+003;5.1987177734e+003;5.3064101563e+003;5.2362822266e+003;5.2493588867e+003;5.2700000000e+003;5.2625639648e+003;5.3310258789e+003;5.2967949219e+003;5.2802563477e+003;5.2844873047e+003;5.2730771484e+003;
3.3203125000e+000;5.1014101563e+003;5.3300000000e+003;5.2775639648e+003;5.2011538086e+003;5.3130771484e+003;5.2383334961e+003;5.2543588867e+003;5.2701284180e+003;5.2614101563e+003;5.3284614258e+003;5.2969228516e+003;5.2756411133e+003;5.2864101563e+003;5.2710258789e+003;
3.3281250000e+000;5.1378203125e+003;5.3810258789e+003;5.3244873047e+003;5.2451284180e+003;5.3632050781e+003;5.2811538086e+003;5.3014101563e+003;5.3176923828e+003;5.3107690430e+003;5.3744873047e+003;5.3441025391e+003;5.3191025391e+003;5.3365385742e+003;5.3144873047e+003;
3.3359375000e+000;5.1410258789e+003;5.3920512695e+003;5.3344873047e+003;5.2533334961e+003;5.3723076172e+003;5.2928203125e+003;5.3111538086e+003;5.3256411133e+003;5.3208974609e+003;5.3825639648e+003;5.3523076172e+003;5.3302563477e+003;5.3448715820e+003;5.3239741211e+003;
3.3437500000e+000;5.1598715820e+003;5.4185898438e+003;5.3588461914e+003;5.2762822266e+003;5.3973076172e+003;5.3207690430e+003;5.3361538086e+003;5.3467949219e+003;5.3444873047e+003;5.4058974609e+003;5.3758974609e+003;5.3560258789e+003;5.3675639648e+003;5.3487177734e+003;
3.3515625000e+000;5.2614101563e+003;5.5457690430e+003;5.4833334961e+003;5.3955126953e+003;5.5175639648e+003;5.4420512695e+003;5.4544873047e+003;5.4719228516e+003;5.4696152344e+003;5.5382050781e+003;5.5035898438e+003;5.4791025391e+003;5.4915385742e+003;5.4750000000e+003;
3.3593750000e+000;5.2602563477e+003;5.5523076172e+003;5.4871796875e+003;5.3994873047e+003;5.5232050781e+003;5.4455126953e+003;5.4579487305e+003;5.4742309570e+003;5.4724360352e+003;5.5402563477e+003;5.5052563477e+003;5.4800000000e+003;5.4957690430e+003;5.4770512695e+003;
3.3671875000e+000;5.2360258789e+003;5.5375639648e+003;5.4733334961e+003;5.3850000000e+003;5.5057690430e+003;5.4317949219e+003;5.4375639648e+003;5.4635898438e+003;5.4633334961e+003;5.5261538086e+003;5.4914101563e+003;5.4667949219e+003;5.4814101563e+003;5.4669228516e+003;
3.3750000000e+000;5.2905126953e+003;5.6030771484e+003;5.5392309570e+003;5.4476923828e+003;5.5708974609e+003;5.4946152344e+003;5.4996152344e+003;5.5310258789e+003;5.5270512695e+003;5.5896152344e+003;5.5583334961e+003;5.5311538086e+003;5.5501284180e+003;5.5329487305e+003;
3.3828125000e+000;5.2056411133e+003;5.5228203125e+003;5.4647436523e+003;5.3710258789e+003;5.4920512695e+003;5.4221796875e+003;5.4208974609e+003;5.4617949219e+003;5.4576923828e+003;5.5179487305e+003;5.4850000000e+003;5.4592309570e+003;5.4744873047e+003;5.4589741211e+003;
3.3906250000e+000;4.5460258789e+003;4.8428203125e+003;4.8144873047e+003;4.7456411133e+003;4.8258974609e+003;4.8125639648e+003;4.7896152344e+003;4.8191025391e+003;4.8132050781e+003;4.8393588867e+003;4.8256411133e+003;4.8114101563e+003;4.8128203125e+003;4.8084614258e+003;
3.3984375000e+000;4.6906411133e+003;4.9611538086e+003;4.9312822266e+003;4.8725639648e+003;4.9516665039e+003;4.9350000000e+003;4.9237177734e+003;4.9289741211e+003;4.9187177734e+003;4.9420512695e+003;4.9410258789e+003;4.9203847656e+003;4.9343588867e+003;4.9224360352e+003;
3.4062500000e+000;4.7383334961e+003;5.0043588867e+003;4.9751284180e+003;4.9135898438e+003;4.9965385742e+003;4.9770512695e+003;4.9671796875e+003;4.9770512695e+003;4.9657690430e+003;4.9916665039e+003;4.9861538086e+003;4.9664101563e+003;4.9784614258e+003;4.9665385742e+003;
3.4140625000e+000;4.4102563477e+003;4.6564101563e+003;4.6443588867e+003;4.5917949219e+003;4.6556411133e+003;4.6634614258e+003;4.6375639648e+003;4.6547436523e+003;4.6458974609e+003;4.6605126953e+003;4.6550000000e+003;4.6433334961e+003;4.6460258789e+003;4.6424360352e+003;
3.4218750000e+000;4.2743588867e+003;4.5092309570e+003;4.5055126953e+003;4.4589741211e+003;4.5087177734e+003;4.5319228516e+003;4.4992309570e+003;4.5112822266e+003;4.5025639648e+003;4.5106411133e+003;4.5114101563e+003;4.5020512695e+003;4.5025639648e+003;4.5041025391e+003;
3.4296875000e+000;4.2023076172e+003;4.4129487305e+003;4.4142309570e+003;4.3779487305e+003;4.4143588867e+003;4.4467949219e+003;4.4106411133e+003;4.4137177734e+003;4.4037177734e+003;4.4016665039e+003;4.4134614258e+003;4.4056411133e+003;4.4044873047e+003;4.4121796875e+003;
