Time (s);AF3;F7;F3;FC5;T7;P7;O1;O2;P8;T8;FC6;F4;F8;AF4;Sampling Rate
0.0000000000e+000;4.1724360352e+003;4.1905126953e+003;4.1980771484e+003;4.1729487305e+003;4.1800000000e+003;4.1675639648e+003;4.1728203125e+003;4.1625639648e+003;4.1801284180e+003;4.1901284180e+003;4.1861538086e+003;4.1824360352e+003;4.1871796875e+003;4.1801284180e+003;128
7.8125000000e-003;4.2016665039e+003;4.2198715820e+003;4.2289741211e+003;4.2023076172e+003;4.2051284180e+003;4.1919228516e+003;4.1980771484e+003;4.1882050781e+003;4.2066665039e+003;4.2226923828e+003;4.2183334961e+003;4.2146152344e+003;4.2191025391e+003;4.2094873047e+003;
1.5625000000e-002;4.1562822266e+003;4.1661538086e+003;4.1830771484e+003;4.1612822266e+003;4.1639741211e+003;4.1383334961e+003;4.1455126953e+003;4.1388461914e+003;4.1515385742e+003;4.1685898438e+003;4.1730771484e+003;4.1774360352e+003;4.1719228516e+003;4.1579487305e+003;
2.3437500000e-002;4.1861538086e+003;4.1919228516e+003;4.2114101563e+003;4.1848715820e+003;4.1841025391e+003;4.1591025391e+003;4.1671796875e+003;4.1657690430e+003;4.1775639648e+003;4.1937177734e+003;4.1988461914e+003;4.2039741211e+003;4.1966665039e+003;4.1835898438e+003;
3.1250000000e-002;4.1848715820e+003;4.1855126953e+003;4.2111538086e+003;4.1766665039e+003;4.1532050781e+003;4.1512822266e+003;4.1615385742e+003;4.1653847656e+003;4.1775639648e+003;4.1914101563e+003;4.1907690430e+003;4.1992309570e+003;4.1864101563e+003;4.1787177734e+003;
3.9062500000e-002;4.1423076172e+003;4.1434614258e+003;4.1676923828e+003;4.1373076172e+003;4.1105126953e+003;4.1148715820e+003;4.1267949219e+003;4.1247436523e+003;4.1361538086e+003;4.1461538086e+003;4.1464101563e+003;4.1548715820e+003;4.1417949219e+003;4.1351284180e+003;
4.6875000000e-002;4.1546152344e+003;4.1594873047e+003;4.1666665039e+003;4.1543588867e+003;4.1739741211e+003;4.1410258789e+003;4.1497436523e+003;4.1475639648e+003;4.1552563477e+003;4.1564101563e+003;4.1603847656e+003;4.1602563477e+003;4.1560258789e+003;4.1457690430e+003;
5.4687500000e-002;4.1614101563e+003;4.1648715820e+003;4.1738461914e+003;4.1601284180e+003;4.1869228516e+003;4.1516665039e+003;4.1583334961e+003;4.1598715820e+003;4.1671796875e+003;4.1658974609e+003;4.1676923828e+003;4.1692309570e+003;4.1632050781e+003;4.1526923828e+003;
6.2500000000e-002;4.1642309570e+003;4.1655126953e+003;4.1787177734e+003;4.1608974609e+003;4.1864101563e+003;4.1574360352e+003;4.1655126953e+003;4.1646152344e+003;4.1723076172e+003;4.1683334961e+003;4.1693588867e+003;4.1729487305e+003;4.1648715820e+003;4.1538461914e+003;
7.0312500000e-002;4.1956411133e+003;4.2007690430e+003;4.2082050781e+003;4.1911538086e+003;4.2055126953e+003;4.1930771484e+003;4.2000000000e+003;4.2043588867e+003;4.2079487305e+003;4.2052563477e+003;4.2007690430e+003;4.2028203125e+003;4.1948715820e+003;4.1884614258e+003;
7.8125000000e-002;4.1894873047e+003;4.1964101563e+003;4.2024360352e+003;4.1814101563e+003;4.2002563477e+003;4.1889741211e+003;4.1966665039e+003;4.1964101563e+003;4.2034614258e+003;4.1974360352e+003;4.1924360352e+003;4.1967949219e+003;4.1896152344e+003;4.1826923828e+003;
8.5937500000e-002;4.2193588867e+003;4.2307690430e+003;4.2308974609e+003;4.2143588867e+003;4.2300000000e+003;4.2180771484e+003;4.2251284180e+003;4.2256411133e+003;4.2364101563e+003;4.2364101563e+003;4.2264101563e+003;4.2276923828e+003;4.2253847656e+003;4.2089741211e+003;
9.3750000000e-002;4.1603847656e+003;4.1739741211e+003;4.1725639648e+003;4.1652563477e+003;4.1728203125e+003;4.1647436523e+003;4.1693588867e+003;4.1700000000e+003;4.1779487305e+003;4.1800000000e+003;4.1703847656e+003;4.1708974609e+003;4.1666665039e+003;4.1508974609e+003;
1.0156250000e-001;4.0983334961e+003;4.1139741211e+003;4.1111538086e+003;4.1064101563e+003;4.1057690430e+003;4.1047436523e+003;4.1097436523e+003;4.1064101563e+003;4.1128203125e+003;4.1135898438e+003;4.1079487305e+003;4.1103847656e+003;4.1038461914e+003;4.0917949219e+003;
1.0937500000e-001;4.1469228516e+003;4.1523076172e+003;4.1575639648e+003;4.1502563477e+003;4.1470512695e+003;4.1328203125e+003;4.1374360352e+003;4.1315385742e+003;4.1432050781e+003;4.1434614258e+003;4.1557690430e+003;4.1611538086e+003;4.1539741211e+003;4.1388461914e+003;
1.1718750000e-001;4.1844873047e+003;4.1910258789e+003;4.1914101563e+003;4.1857690430e+003;4.1801284180e+003;4.1614101563e+003;4.1693588867e+003;4.1667949219e+003;4.1773076172e+003;4.1821796875e+003;4.1943588867e+003;4.1973076172e+003;4.1910258789e+003;4.1751284180e+003;
1.2500000000e-001;4.1930771484e+003;4.2024360352e+003;4.1960258789e+003;4.1862822266e+003;4.1698715820e+003;4.1624360352e+003;4.1739741211e+003;4.1835898438e+003;4.1893588867e+003;4.2002563477e+003;4.2048715820e+003;4.2117949219e+003;4.1991025391e+003;4.1888461914e+003;
1.3281250000e-001;4.1637177734e+003;4.1723076172e+003;4.1662822266e+003;4.1560258789e+003;4.1387177734e+003;4.1353847656e+003;4.1466665039e+003;4.1551284180e+003;4.1600000000e+003;4.1693588867e+003;4.1738461914e+003;4.1835898438e+003;4.1685898438e+003;4.1610258789e+003;
1.4062500000e-001;4.2498715820e+003;4.2539741211e+003;4.2482050781e+003;4.2396152344e+003;4.2612822266e+003;4.2173076172e+003;4.2305126953e+003;4.2315385742e+003;4.2432050781e+003;4.2496152344e+003;4.2562822266e+003;4.2596152344e+003;4.2575639648e+003;4.2441025391e+003;
1.4843750000e-001;4.2526923828e+003;4.2584614258e+003;4.2528203125e+003;4.2424360352e+003;4.2696152344e+003;4.2258974609e+003;4.2371796875e+003;4.2410258789e+003;4.2539741211e+003;4.2615385742e+003;4.2616665039e+003;4.2666665039e+003;4.2644873047e+003;4.2502563477e+003;
1.5625000000e-001;4.1842309570e+003;4.1933334961e+003;4.1874360352e+003;4.1782050781e+003;4.1912822266e+003;4.1765385742e+003;4.1847436523e+003;4.1835898438e+003;4.1953847656e+003;4.2015385742e+003;4.1935898438e+003;4.2026923828e+003;4.1955126953e+003;4.1852563477e+003;
1.6406250000e-001;4.1891025391e+003;4.1973076172e+003;4.1902563477e+003;4.1838461914e+003;4.1910258789e+003;4.1826923828e+003;4.1920512695e+003;4.1878203125e+003;4.1980771484e+003;4.2038461914e+003;4.1965385742e+003;4.2029487305e+003;4.1958974609e+003;4.1880771484e+003;
1.7187500000e-001;4.1891025391e+003;4.1914101563e+003;4.1882050781e+003;4.1803847656e+003;4.1906411133e+003;4.1843588867e+003;4.1883334961e+003;4.1901284180e+003;4.1966665039e+003;4.1978203125e+003;4.1929487305e+003;4.1969228516e+003;4.1879487305e+003;4.1843588867e+003;
1.7968750000e-001;4.1576923828e+003;4.1606411133e+003;4.1570512695e+003;4.1478203125e+003;4.1574360352e+003;4.1585898438e+003;4.1584614258e+003;4.1591025391e+003;4.1665385742e+003;4.1639741211e+003;4.1592309570e+003;4.1664101563e+003;4.1564101563e+003;4.1523076172e+003;
1.8750000000e-001;4.1482050781e+003;4.1519228516e+003;4.1464101563e+003;4.1382050781e+003;4.1470512695e+003;4.1516665039e+003;4.1498715820e+003;4.1492309570e+003;4.1584614258e+003;4.1552563477e+003;4.1488461914e+003;4.1576923828e+003;4.1475639648e+003;4.1424360352e+003;
1.9531250000e-001;4.1475639648e+003;4.1514101563e+003;4.1453847656e+003;4.1408974609e+003;4.1494873047e+003;4.1516665039e+003;4.1506411133e+003;4.1511538086e+003;4.1614101563e+003;4.1603847656e+003;4.1506411133e+003;4.1589741211e+003;4.1492309570e+003;4.1429487305e+003;
2.0312500000e-001;3.9815385742e+003;3.9869230957e+003;3.9925642090e+003;4.0041025391e+003;3.9908974609e+003;4.0056411133e+003;4.0042307129e+003;4.0032050781e+003;4.0092307129e+003;3.9967949219e+003;3.9932050781e+003;3.9989743652e+003;3.9902563477e+003;3.9861538086e+003;
2.1093750000e-001;3.9788461914e+003;3.9846154785e+003;3.9889743652e+003;3.9992307129e+003;3.9823076172e+003;4.0015385742e+003;3.9976923828e+003;3.9984614258e+003;4.0048718262e+003;3.9911538086e+003;3.9882050781e+003;3.9956411133e+003;3.9835898438e+003;3.9838461914e+003;
2.1875000000e-001;3.9119230957e+003;3.9207692871e+003;3.9198718262e+003;3.9385898438e+003;3.9194870605e+003;3.9373076172e+003;3.9339743652e+003;3.9303845215e+003;3.9335898438e+003;3.9247436523e+003;3.9216667480e+003;3.9347436523e+003;3.9144870605e+003;3.9200000000e+003;
2.2656250000e-001;3.9560256348e+003;3.9770512695e+003;3.9634614258e+003;3.9834614258e+003;3.9458974609e+003;3.9738461914e+003;3.9741025391e+003;3.9748718262e+003;3.9764101563e+003;3.9670512695e+003;3.9688461914e+003;3.9778205566e+003;3.9691025391e+003;3.9650000000e+003;
2.3437500000e-001;3.9317949219e+003;3.9492307129e+003;3.9405129395e+003;3.9601281738e+003;3.9203845215e+003;3.9500000000e+003;3.9476923828e+003;3.9503845215e+003;3.9506411133e+003;3.9410256348e+003;3.9428205566e+003;3.9550000000e+003;3.9411538086e+003;3.9408974609e+003;
2.4218750000e-001;3.9582050781e+003;3.9602563477e+003;3.9607692871e+003;3.9734614258e+003;3.9778205566e+003;3.9637180176e+003;3.9655129395e+003;3.9626923828e+003;3.9626923828e+003;3.9600000000e+003;3.9582050781e+003;3.9667949219e+003;3.9584614258e+003;3.9551281738e+003;
2.5000000000e-001;3.9256411133e+003;3.9264101563e+003;3.9338461914e+003;3.9384614258e+003;3.9314101563e+003;3.9350000000e+003;3.9316667480e+003;3.9325642090e+003;3.9380769043e+003;3.9325642090e+003;3.9262819824e+003;3.9362819824e+003;3.9293588867e+003;3.9239743652e+003;
2.5781250000e-001;3.9302563477e+003;3.9312819824e+003;3.9362819824e+003;3.9470512695e+003;3.9333332520e+003;3.9428205566e+003;3.9398718262e+003;3.9346154785e+003;3.9408974609e+003;3.9324357910e+003;3.9287180176e+003;3.9396154785e+003;3.9317949219e+003;3.9282050781e+003;
2.6562500000e-001;4.0103845215e+003;4.0187180176e+003;4.0051281738e+003;4.0347436523e+003;4.0273076172e+003;4.0300000000e+003;4.0296154785e+003;4.0171794434e+003;4.0246154785e+003;4.0214101563e+003;4.0120512695e+003;4.0203845215e+003;4.0171794434e+003;4.0117949219e+003;
2.7343750000e-001;3.9906411133e+003;4.0007692871e+003;3.9861538086e+003;4.0157692871e+003;4.0061538086e+003;4.0161538086e+003;4.0115385742e+003;3.9978205566e+003;4.0070512695e+003;4.0038461914e+003;3.9923076172e+003;4.0010256348e+003;3.9982050781e+003;3.9915385742e+003;
2.8125000000e-001;3.9810256348e+003;3.9867949219e+003;3.9792307129e+003;3.9984614258e+003;3.9950000000e+003;4.0073076172e+003;3.9957692871e+003;3.9838461914e+003;3.9978205566e+003;3.9912819824e+003;3.9796154785e+003;3.9898718262e+003;3.9839743652e+003;3.9770512695e+003;
2.8906250000e-001;3.9680769043e+003;3.9697436523e+003;3.9676923828e+003;3.9829487305e+003;3.9841025391e+003;3.9937180176e+003;3.9810256348e+003;3.9719230957e+003;3.9860256348e+003;3.9773076172e+003;3.9664101563e+003;3.9788461914e+003;3.9692307129e+003;3.9653845215e+003;
2.9687500000e-001;3.8867949219e+003;3.8925642090e+003;3.8841025391e+003;3.9134614258e+003;3.8835898438e+003;3.9211538086e+003;3.9146154785e+003;3.9016667480e+003;3.9052563477e+003;3.8893588867e+003;3.8866667480e+003;3.8982050781e+003;3.8923076172e+003;3.8914101563e+003;
3.0468750000e-001;3.9098718262e+003;3.9188461914e+003;3.9039743652e+003;3.9369230957e+003;3.9011538086e+003;3.9417949219e+003;3.9378205566e+003;3.9274357910e+003;3.9298718262e+003;3.9141025391e+003;3.9116667480e+003;3.9202563477e+003;3.9179487305e+003;3.9135898438e+003;
3.1250000000e-001;3.9216667480e+003;3.9307692871e+003;3.9150000000e+003;3.9470512695e+003;3.9171794434e+003;3.9517949219e+003;3.9473076172e+003;3.9416667480e+003;3.9453845215e+003;3.9298718262e+003;3.9257692871e+003;3.9337180176e+003;3.9307692871e+003;3.9248718262e+003;
3.2031250000e-001;3.9029487305e+003;3.9100000000e+003;3.8984614258e+003;3.9271794434e+003;3.9119230957e+003;3.9343588867e+003;3.9275642090e+003;3.9229487305e+003;3.9284614258e+003;3.9123076172e+003;3.9079487305e+003;3.9178205566e+003;3.9106411133e+003;3.9071794434e+003;
3.2812500000e-001;4.0003845215e+003;4.0092307129e+003;3.9942307129e+003;4.0221794434e+003;4.0226923828e+003;4.0162819824e+003;4.0164101563e+003;4.0069230957e+003;4.0070512695e+003;4.0014101563e+003;4.0039743652e+003;4.0153845215e+003;4.0080769043e+003;4.0078205566e+003;
3.3593750000e-001;3.9933332520e+003;4.0017949219e+003;3.9878205566e+003;4.0156411133e+003;4.0051281738e+003;4.0074357910e+003;4.0070512695e+003;4.0034614258e+003;4.0038461914e+003;4.0005129395e+003;3.9992307129e+003;4.0119230957e+003;4.0038461914e+003;4.0007692871e+003;
3.4375000000e-001;3.9407692871e+003;3.9496154785e+003;3.9291025391e+003;3.9582050781e+003;3.9506411133e+003;3.9479487305e+003;3.9464101563e+003;3.9444870605e+003;3.9576923828e+003;3.9519230957e+003;3.9460256348e+003;3.9560256348e+003;3.9500000000e+003;3.9474357910e+003;
3.5156250000e-001;3.9246154785e+003;3.9320512695e+003;3.9170512695e+003;3.9458974609e+003;3.9225642090e+003;3.9303845215e+003;3.9293588867e+003;3.9294870605e+003;3.9453845215e+003;3.9358974609e+003;3.9342307129e+003;3.9441025391e+003;3.9426923828e+003;3.9407692871e+003;
3.5937500000e-001;3.9648718262e+003;3.9714101563e+003;3.9607692871e+003;3.9841025391e+003;3.9630769043e+003;3.9697436523e+003;3.9716667480e+003;3.9648718262e+003;3.9806411133e+003;3.9712819824e+003;3.9719230957e+003;3.9834614258e+003;3.9834614258e+003;3.9783332520e+003;
3.6718750000e-001;4.1739741211e+003;4.1869228516e+003;4.1671796875e+003;4.1766665039e+003;4.1824360352e+003;4.1628203125e+003;4.1652563477e+003;4.1567949219e+003;4.1791025391e+003;4.1775639648e+003;4.1712822266e+003;4.1823076172e+003;4.1780771484e+003;4.1756411133e+003;
3.7500000000e-001;4.1588461914e+003;4.1752563477e+003;4.1442309570e+003;4.1669228516e+003;4.1724360352e+003;4.1578203125e+003;4.1606411133e+003;4.1364101563e+003;4.1582050781e+003;4.1606411133e+003;4.1561538086e+003;4.1629487305e+003;4.1658974609e+003;4.1574360352e+003;
3.8281250000e-001;4.1883334961e+003;4.2033334961e+003;4.1693588867e+003;4.1929487305e+003;4.2012822266e+003;4.1843588867e+003;4.1888461914e+003;4.1662822266e+003;4.1864101563e+003;4.1917949219e+003;4.1850000000e+003;4.1923076172e+003;4.1955126953e+003;4.1853847656e+003;
3.9062500000e-001;4.2123076172e+003;4.2201284180e+003;4.1957690430e+003;4.2079487305e+003;4.2123076172e+003;4.2056411133e+003;4.2105126953e+003;4.1930771484e+003;4.2055126953e+003;4.2088461914e+003;4.2037177734e+003;4.2132050781e+003;4.2100000000e+003;4.2017949219e+003;
3.9843750000e-001;4.2382050781e+003;4.2453847656e+003;4.2230771484e+003;4.2314101563e+003;4.2373076172e+003;4.2291025391e+003;4.2347436523e+003;4.2202563477e+003;4.2307690430e+003;4.2344873047e+003;4.2300000000e+003;4.2376923828e+003;4.2378203125e+003;4.2280771484e+003;
4.0625000000e-001;4.2357690430e+003;4.2450000000e+003;4.2198715820e+003;4.2293588867e+003;4.2401284180e+003;4.2219228516e+003;4.2257690430e+003;4.2255126953e+003;4.2305126953e+003;4.2385898438e+003;4.2323076172e+003;4.2406411133e+003;4.2425639648e+003;4.2325639648e+003;
4.1406250000e-001;4.2065385742e+003;4.2173076172e+003;4.1893588867e+003;4.2012822266e+003;4.2083334961e+003;4.1905126953e+003;4.1947436523e+003;4.1965385742e+003;4.1978203125e+003;4.2067949219e+003;4.2025639648e+003;4.2130771484e+003;4.2115385742e+003;4.2037177734e+003;
4.2187500000e-001;4.3351284180e+003;4.3414101563e+003;4.3167949219e+003;4.3091025391e+003;4.3011538086e+003;4.2980771484e+003;4.3121796875e+003;4.3137177734e+003;4.3141025391e+003;4.3255126953e+003;4.3266665039e+003;4.3344873047e+003;4.3283334961e+003;4.3230771484e+003;
4.2968750000e-001;4.3596152344e+003;4.3603847656e+003;4.3435898438e+003;4.3292309570e+003;4.3257690430e+003;4.3198715820e+003;4.3326923828e+003;4.3392309570e+003;4.3415385742e+003;4.3546152344e+003;4.3534614258e+003;4.3611538086e+003;4.3534614258e+003;4.3502563477e+003;
4.3750000000e-001;4.3338461914e+003;4.3308974609e+003;4.3198715820e+003;4.3065385742e+003;4.3124360352e+003;4.2944873047e+003;4.3050000000e+003;4.3139741211e+003;4.3167949219e+003;4.3314101563e+003;4.3287177734e+003;4.3378203125e+003;4.3288461914e+003;4.3282050781e+003;
4.4531250000e-001;4.2983334961e+003;4.2956411133e+003;4.2843588867e+003;4.2774360352e+003;4.2939741211e+003;4.2575639648e+003;4.2674360352e+003;4.2757690430e+003;4.2784614258e+003;4.2943588867e+003;4.2912822266e+003;4.3016665039e+003;4.2935898438e+003;4.2942309570e+003;
4.5312500000e-001;4.2644873047e+003;4.2797436523e+003;4.2533334961e+003;4.2474360352e+003;4.2482050781e+003;4.2224360352e+003;4.2273076172e+003;4.2419228516e+003;4.2528203125e+003;4.2611538086e+003;4.2629487305e+003;4.2692309570e+003;4.2635898438e+003;4.2615385742e+003;
4.6093750000e-001;4.2515385742e+003;4.2638461914e+003;4.2401284180e+003;4.2343588867e+003;4.2316665039e+003;4.2156411133e+003;4.2176923828e+003;4.2269228516e+003;4.2405126953e+003;4.2451284180e+003;4.2512822266e+003;4.2560258789e+003;4.2494873047e+003;4.2484614258e+003;
4.6875000000e-001;4.2938461914e+003;4.3006411133e+003;4.2729487305e+003;4.2811538086e+003;4.2947436523e+003;4.2603847656e+003;4.2665385742e+003;4.2666665039e+003;4.2808974609e+003;4.2925639648e+003;4.2894873047e+003;4.2978203125e+003;4.2935898438e+003;4.2900000000e+003;
4.7656250000e-001;4.2584614258e+003;4.2770512695e+003;4.2448715820e+003;4.2550000000e+003;4.2612822266e+003;4.2479487305e+003;4.2570512695e+003;4.2473076172e+003;4.2538461914e+003;4.2598715820e+003;4.2596152344e+003;4.2667949219e+003;4.2598715820e+003;4.2598715820e+003;
4.8437500000e-001;4.3056411133e+003;4.3224360352e+003;4.2884614258e+003;4.2984614258e+003;4.3079487305e+003;4.2939741211e+003;4.3037177734e+003;4.2935898438e+003;4.3025639648e+003;4.3083334961e+003;4.3088461914e+003;4.3106411133e+003;4.3075639648e+003;4.3065385742e+003;
4.9218750000e-001;4.3000000000e+003;4.3062822266e+003;4.2755126953e+003;4.2921796875e+003;4.2960258789e+003;4.2858974609e+003;4.2925639648e+003;4.2897436523e+003;4.2984614258e+003;4.3070512695e+003;4.3033334961e+003;4.3024360352e+003;4.3012822266e+003;4.3003847656e+003;
5.0000000000e-001;4.3144873047e+003;4.3314101563e+003;4.2941025391e+003;4.3071796875e+003;4.3084614258e+003;4.3003847656e+003;4.3079487305e+003;4.3151284180e+003;4.3097436523e+003;4.3230771484e+003;4.3189741211e+003;4.3169228516e+003;4.3141025391e+003;4.3158974609e+003;
5.0781250000e-001;4.2988461914e+003;4.3138461914e+003;4.2771796875e+003;4.2921796875e+003;4.2988461914e+003;4.2843588867e+003;4.2916665039e+003;4.2967949219e+003;4.2902563477e+003;4.3030771484e+003;4.3020512695e+003;4.3020512695e+003;4.2971796875e+003;4.2996152344e+003;
5.1562500000e-001;4.3833334961e+003;4.3864101563e+003;4.3534614258e+003;4.3598715820e+003;4.3716665039e+003;4.3475639648e+003;4.3587177734e+003;4.3620512695e+003;4.3533334961e+003;4.3744873047e+003;4.3808974609e+003;4.3829487305e+003;4.3778203125e+003;4.3791025391e+003;
5.2343750000e-001;4.4076923828e+003;4.4114101563e+003;4.3805126953e+003;4.3775639648e+003;4.3798715820e+003;4.3679487305e+003;4.3785898438e+003;4.3878203125e+003;4.3779487305e+003;4.4043588867e+003;4.4082050781e+003;4.4100000000e+003;4.4024360352e+003;4.4058974609e+003;
5.3125000000e-001;4.3553847656e+003;4.3674360352e+003;4.3342309570e+003;4.3288461914e+003;4.3296152344e+003;4.3220512695e+003;4.3320512695e+003;4.3389741211e+003;4.3332050781e+003;4.3579487305e+003;4.3589741211e+003;4.3576923828e+003;4.3507690430e+003;4.3541025391e+003;
5.3906250000e-001;4.3498715820e+003;4.3651284180e+003;4.3269228516e+003;4.3279487305e+003;4.3450000000e+003;4.3175639648e+003;4.3289741211e+003;4.3325639648e+003;4.3321796875e+003;4.3523076172e+003;4.3530771484e+003;4.3470512695e+003;4.3461538086e+003;4.3450000000e+003;
5.4687500000e-001;4.3680771484e+003;4.3828203125e+003;4.3423076172e+003;4.3491025391e+003;4.3833334961e+003;4.3347436523e+003;4.3465385742e+003;4.3528203125e+003;4.3571796875e+003;4.3735898438e+003;4.3726923828e+003;4.3621796875e+003;4.3664101563e+003;4.3606411133e+003;
5.5468750000e-001;4.3730771484e+003;4.3841025391e+003;4.3470512695e+003;4.3557690430e+003;4.3956411133e+003;4.3411538086e+003;4.3505126953e+003;4.3641025391e+003;4.3706411133e+003;4.3848715820e+003;4.3814101563e+003;4.3701284180e+003;4.3737177734e+003;4.3665385742e+003;
5.6250000000e-001;4.3397436523e+003;4.3405126953e+003;4.3157690430e+003;4.3066665039e+003;4.3169228516e+003;4.3057690430e+003;4.3139741211e+003;4.3289741211e+003;4.3332050781e+003;4.3448715820e+003;4.3443588867e+003;4.3380771484e+003;4.3352563477e+003;4.3325639648e+003;
5.7031250000e-001;4.3525639648e+003;4.3523076172e+003;4.3266665039e+003;4.3183334961e+003;4.3337177734e+003;4.3146152344e+003;4.3253847656e+003;4.3428203125e+003;4.3451284180e+003;4.3584614258e+003;4.3555126953e+003;4.3467949219e+003;4.3471796875e+003;4.3443588867e+003;
5.7812500000e-001;4.3158974609e+003;4.3253847656e+003;4.2894873047e+003;4.2992309570e+003;4.3166665039e+003;4.3019228516e+003;4.3126923828e+003;4.3197436523e+003;4.3196152344e+003;4.3297436523e+003;4.3197436523e+003;4.3094873047e+003;4.3152563477e+003;4.3073076172e+003;
5.8593750000e-001;4.4138461914e+003;4.4285898438e+003;4.3943588867e+003;4.3983334961e+003;4.4233334961e+003;4.4058974609e+003;4.4185898438e+003;4.4260258789e+003;4.4182050781e+003;4.4346152344e+003;4.4208974609e+003;4.4114101563e+003;4.4179487305e+003;4.4091025391e+003;
5.9375000000e-001;4.3923076172e+003;4.4050000000e+003;4.3762822266e+003;4.3766665039e+003;4.4019228516e+003;4.3894873047e+003;4.4011538086e+003;4.4067949219e+003;4.3985898438e+003;4.4129487305e+003;4.4026923828e+003;4.3906411133e+003;4.3978203125e+003;4.3906411133e+003;
6.0156250000e-001;4.3550000000e+003;4.3669228516e+003;4.3361538086e+003;4.3332050781e+003;4.3557690430e+003;4.3569228516e+003;4.3616665039e+003;4.3714101563e+003;4.3657690430e+003;4.3762822266e+003;4.3696152344e+003;4.3562822266e+003;4.3594873047e+003;4.3574360352e+003;
6.0937500000e-001;4.3092309570e+003;4.3220512695e+003;4.2893588867e+003;4.2891025391e+003;4.3093588867e+003;4.3138461914e+003;4.3148715820e+003;4.3264101563e+003;4.3188461914e+003;4.3288461914e+003;4.3216665039e+003;4.3132050781e+003;4.3102563477e+003;4.3125639648e+003;
6.1718750000e-001;4.3447436523e+003;4.3560258789e+003;4.3279487305e+003;4.3315385742e+003;4.3591025391e+003;4.3397436523e+003;4.3496152344e+003;4.3482050781e+003;4.3335898438e+003;4.3507690430e+003;4.3484614258e+003;4.3443588867e+003;4.3415385742e+003;4.3400000000e+003;
6.2500000000e-001;4.4032050781e+003;4.4117949219e+003;4.3873076172e+003;4.3843588867e+003;4.4078203125e+003;4.3900000000e+003;4.4026923828e+003;4.4033334961e+003;4.3916665039e+003;4.4121796875e+003;4.4101284180e+003;4.4032050781e+003;4.4029487305e+003;4.3970512695e+003;
6.3281250000e-001;4.3783334961e+003;4.3848715820e+003;4.3638461914e+003;4.3508974609e+003;4.3550000000e+003;4.3614101563e+003;4.3725639648e+003;4.3788461914e+003;4.3723076172e+003;4.3923076172e+003;4.3889741211e+003;4.3819228516e+003;4.3802563477e+003;4.3725639648e+003;
6.4062500000e-001;4.3506411133e+003;4.3589741211e+003;4.3347436523e+003;4.3235898438e+003;4.3285898438e+003;4.3324360352e+003;4.3438461914e+003;4.3511538086e+003;4.3426923828e+003;4.3620512695e+003;4.3588461914e+003;4.3520512695e+003;4.3508974609e+003;4.3439741211e+003;
6.4843750000e-001;4.3950000000e+003;4.4080771484e+003;4.3778203125e+003;4.3766665039e+003;4.4125639648e+003;4.3644873047e+003;4.3757690430e+003;4.4005126953e+003;4.3789741211e+003;4.4055126953e+003;4.4041025391e+003;4.3956411133e+003;4.3974360352e+003;4.3920512695e+003;
6.5625000000e-001;4.3826923828e+003;4.3967949219e+003;4.3661538086e+003;4.3650000000e+003;4.3979487305e+003;4.3543588867e+003;4.3638461914e+003;4.3897436523e+003;4.3685898438e+003;4.3941025391e+003;4.3942309570e+003;4.3864101563e+003;4.3873076172e+003;4.3837177734e+003;
6.6406250000e-001;4.3725639648e+003;4.3850000000e+003;4.3510258789e+003;4.3457690430e+003;4.3661538086e+003;4.3441025391e+003;4.3551284180e+003;4.3806411133e+003;4.3660258789e+003;4.3870512695e+003;4.3843588867e+003;4.3747436523e+003;4.3784614258e+003;4.3758974609e+003;
6.7187500000e-001;4.3660258789e+003;4.3741025391e+003;4.3433334961e+003;4.3356411133e+003;4.3542309570e+003;4.3367949219e+003;4.3484614258e+003;4.3791025391e+003;4.3662822266e+003;4.3855126953e+003;4.3774360352e+003;4.3664101563e+003;4.3714101563e+003;4.3685898438e+003;
6.7968750000e-001;4.2815385742e+003;4.2823076172e+003;4.2628203125e+003;4.2625639648e+003;4.2839741211e+003;4.2734614258e+003;4.2835898438e+003;4.3055126953e+003;4.2894873047e+003;4.2976923828e+003;4.2878203125e+003;4.2758974609e+003;4.2808974609e+003;4.2755126953e+003;
6.8750000000e-001;4.3157690430e+003;4.3210258789e+003;4.2947436523e+003;4.2979487305e+003;4.3216665039e+003;4.3110258789e+003;4.3225639648e+003;4.3384614258e+003;4.3210258789e+003;4.3292309570e+003;4.3197436523e+003;4.3076923828e+003;4.3141025391e+003;4.3069228516e+003;
6.9531250000e-001;4.3524360352e+003;4.3621796875e+003;4.3303847656e+003;4.3337177734e+003;4.3589741211e+003;4.3489741211e+003;4.3602563477e+003;4.3766665039e+003;4.3578203125e+003;4.3684614258e+003;4.3560258789e+003;4.3458974609e+003;4.3511538086e+003;4.3448715820e+003;
7.0312500000e-001;4.3426923828e+003;4.3546152344e+003;4.3229487305e+003;4.3238461914e+003;4.3496152344e+003;4.3428203125e+003;4.3507690430e+003;4.3714101563e+003;4.3512822266e+003;4.3638461914e+003;4.3476923828e+003;4.3414101563e+003;4.3417949219e+003;4.3398715820e+003;
7.1093750000e-001;4.2374360352e+003;4.2467949219e+003;4.2229487305e+003;4.2239741211e+003;4.2433334961e+003;4.2424360352e+003;4.2480771484e+003;4.2508974609e+003;4.2424360352e+003;4.2528203125e+003;4.2446152344e+003;4.2353847656e+003;4.2321796875e+003;4.2337177734e+003;
7.1875000000e-001;4.2589741211e+003;4.2670512695e+003;4.2438461914e+003;4.2500000000e+003;4.2637177734e+003;4.2624360352e+003;4.2679487305e+003;4.2685898438e+003;4.2589741211e+003;4.2717949219e+003;4.2646152344e+003;4.2551284180e+003;4.2529487305e+003;4.2523076172e+003;
7.2656250000e-001;4.3465385742e+003;4.3537177734e+003;4.3269228516e+003;4.3391025391e+003;4.3485898438e+003;4.3374360352e+003;4.3414101563e+003;4.3461538086e+003;4.3216665039e+003;4.3416665039e+003;4.3434614258e+003;4.3371796875e+003;4.3360258789e+003;4.3360258789e+003;
7.3437500000e-001;4.3824360352e+003;4.3915385742e+003;4.3624360352e+003;4.3574360352e+003;4.3723076172e+003;4.3593588867e+003;4.3700000000e+003;4.3820512695e+003;4.3578203125e+003;4.3862822266e+003;4.3847436523e+003;4.3780771484e+003;4.3757690430e+003;4.3730771484e+003;
7.4218750000e-001;4.3441025391e+003;4.3485898438e+003;4.3257690430e+003;4.3193588867e+003;4.3415385742e+003;4.3226923828e+003;4.3335898438e+003;4.3421796875e+003;4.3200000000e+003;4.3469228516e+003;4.3456411133e+003;4.3393588867e+003;4.3369228516e+003;4.3335898438e+003;
7.5000000000e-001;4.3237177734e+003;4.3253847656e+003;4.3055126953e+003;4.3119228516e+003;4.3411538086e+003;4.2980771484e+003;4.3088461914e+003;4.3255126953e+003;4.3019228516e+003;4.3217949219e+003;4.3226923828e+003;4.3212822266e+003;4.3219228516e+003;4.3156411133e+003;
7.5781250000e-001;4.3735898438e+003;4.3817949219e+003;4.3570512695e+003;4.3532050781e+003;4.3702563477e+003;4.3437177734e+003;4.3598715820e+003;4.3761538086e+003;4.3575639648e+003;4.3715385742e+003;4.3712822266e+003;4.3734614258e+003;4.3687177734e+003;4.3620512695e+003;
7.6562500000e-001;4.4173076172e+003;4.4214101563e+003;4.3983334961e+003;4.3880771484e+003;4.4106411133e+003;4.3817949219e+003;4.3987177734e+003;4.4191025391e+003;4.4065385742e+003;4.4203847656e+003;4.4158974609e+003;4.4157690430e+003;4.4084614258e+003;4.4037177734e+003;
7.7343750000e-001;4.4124360352e+003;4.4112822266e+003;4.3928203125e+003;4.3810258789e+003;4.4061538086e+003;4.3773076172e+003;4.3924360352e+003;4.4176923828e+003;4.4092309570e+003;4.4217949219e+003;4.4138461914e+003;4.4128203125e+003;4.4017949219e+003;4.3996152344e+003;
7.8125000000e-001;4.3030771484e+003;4.2967949219e+003;4.2887177734e+003;4.2839741211e+003;4.3024360352e+003;4.2858974609e+003;4.2942309570e+003;4.3132050781e+003;4.3047436523e+003;4.3085898438e+003;4.3050000000e+003;4.3057690430e+003;4.2929487305e+003;4.2914101563e+003;
7.8906250000e-001;4.3410258789e+003;4.3397436523e+003;4.3260258789e+003;4.3211538086e+003;4.3428203125e+003;4.3262822266e+003;4.3337177734e+003;4.3402563477e+003;4.3330771484e+003;4.3337177734e+003;4.3334614258e+003;4.3329487305e+003;4.3269228516e+003;4.3216665039e+003;
7.9687500000e-001;4.3765385742e+003;4.3779487305e+003;4.3592309570e+003;4.3544873047e+003;4.3792309570e+003;4.3591025391e+003;4.3660258789e+003;4.3720512695e+003;4.3682050781e+003;4.3700000000e+003;4.3662822266e+003;4.3648715820e+003;4.3597436523e+003;4.3547436523e+003;
8.0468750000e-001;4.3750000000e+003;4.3778203125e+003;4.3566665039e+003;4.3555126953e+003;4.3797436523e+003;4.3593588867e+003;4.3641025391e+003;4.3694873047e+003;4.3694873047e+003;4.3708974609e+003;4.3643588867e+003;4.3620512695e+003;4.3574360352e+003;4.3533334961e+003;
8.1250000000e-001;4.3605126953e+003;4.3648715820e+003;4.3401284180e+003;4.3489741211e+003;4.3698715820e+003;4.3501284180e+003;4.3515385742e+003;4.3508974609e+003;4.3570512695e+003;4.3564101563e+003;4.3510258789e+003;4.3447436523e+003;4.3475639648e+003;4.3408974609e+003;
8.2031250000e-001;4.3870512695e+003;4.3933334961e+003;4.3644873047e+003;4.3734614258e+003;4.3971796875e+003;4.3747436523e+003;4.3752563477e+003;4.3747436523e+003;4.3821796875e+003;4.3838461914e+003;4.3792309570e+003;4.3714101563e+003;4.3774360352e+003;4.3685898438e+003;
8.2812500000e-001;4.4020512695e+003;4.4098715820e+003;4.3782050781e+003;4.3832050781e+003;4.4097436523e+003;4.3883334961e+003;4.3867949219e+003;4.3887177734e+003;4.3961538086e+003;4.4012822266e+003;4.3961538086e+003;4.3897436523e+003;4.3948715820e+003;4.3855126953e+003;
8.3593750000e-001;4.3451284180e+003;4.3439741211e+003;4.3246152344e+003;4.3179487305e+003;4.3505126953e+003;4.3298715820e+003;4.3265385742e+003;4.3176923828e+003;4.3235898438e+003;4.3376923828e+003;4.3360258789e+003;4.3371796875e+003;4.3357690430e+003;4.3305126953e+003;
8.4375000000e-001;4.3165385742e+003;4.3185898438e+003;4.2953847656e+003;4.2965385742e+003;4.3194873047e+003;4.3015385742e+003;4.2988461914e+003;4.2906411133e+003;4.2946152344e+003;4.3112822266e+003;4.3103847656e+003;4.3128203125e+003;4.3082050781e+003;4.3042309570e+003;
8.5156250000e-001;4.3148715820e+003;4.3147436523e+003;4.2885898438e+003;4.2974360352e+003;4.2776923828e+003;4.2907690430e+003;4.2930771484e+003;4.2855126953e+003;4.2807690430e+003;4.3001284180e+003;4.3064101563e+003;4.3125639648e+003;4.3060258789e+003;4.3061538086e+003;
8.5937500000e-001;4.2960258789e+003;4.2844873047e+003;4.2791025391e+003;4.2683334961e+003;4.2937177734e+003;4.2602563477e+003;4.2673076172e+003;4.2739741211e+003;4.2697436523e+003;4.2811538086e+003;4.2876923828e+003;4.2962822266e+003;4.2866665039e+003;4.2897436523e+003;
8.6718750000e-001;4.2838461914e+003;4.2757690430e+003;4.2673076172e+003;4.2597436523e+003;4.2915385742e+003;4.2473076172e+003;4.2565385742e+003;4.2639741211e+003;4.2603847656e+003;4.2685898438e+003;4.2761538086e+003;4.2843588867e+003;4.2733334961e+003;4.2764101563e+003;
8.7500000000e-001;4.2571796875e+003;4.2492309570e+003;4.2426923828e+003;4.2441025391e+003;4.2402563477e+003;4.2219228516e+003;4.2301284180e+003;4.2492309570e+003;4.2496152344e+003;4.2529487305e+003;4.2557690430e+003;4.2646152344e+003;4.2488461914e+003;4.2560258789e+003;
8.8281250000e-001;4.2641025391e+003;4.2551284180e+003;4.2501284180e+003;4.2408974609e+003;4.2502563477e+003;4.2284614258e+003;4.2434614258e+003;4.2571796875e+003;4.2575639648e+003;4.2550000000e+003;4.2606411133e+003;4.2667949219e+003;4.2544873047e+003;4.2630771484e+003;
8.9062500000e-001;4.3064101563e+003;4.2982050781e+003;4.2915385742e+003;4.2784614258e+003;4.2937177734e+003;4.2692309570e+003;4.2855126953e+003;4.3002563477e+003;4.3008974609e+003;4.3002563477e+003;4.3046152344e+003;4.3091025391e+003;4.2994873047e+003;4.3060258789e+003;
8.9843750000e-001;4.3056411133e+003;4.2957690430e+003;4.2912822266e+003;4.2770512695e+003;4.2907690430e+003;4.2730771484e+003;4.2865385742e+003;4.2993588867e+003;4.3016665039e+003;4.3024360352e+003;4.3041025391e+003;4.3101284180e+003;4.3001284180e+003;4.3064101563e+003;
9.0625000000e-001;4.2512822266e+003;4.2351284180e+003;4.2328203125e+003;4.2271796875e+003;4.2324360352e+003;4.2342309570e+003;4.2385898438e+003;4.2315385742e+003;4.2402563477e+003;4.2411538086e+003;4.2406411133e+003;4.2506411133e+003;4.2380771484e+003;4.2466665039e+003;
9.1406250000e-001;4.2623076172e+003;4.2461538086e+003;4.2392309570e+003;4.2389741211e+003;4.2433334961e+003;4.2483334961e+003;4.2501284180e+003;4.2358974609e+003;4.2474360352e+003;4.2485898438e+003;4.2487177734e+003;4.2566665039e+003;4.2444873047e+003;4.2538461914e+003;
9.2187500000e-001;4.2744873047e+003;4.2614101563e+003;4.2498715820e+003;4.2526923828e+003;4.2569228516e+003;4.2632050781e+003;4.2628203125e+003;4.2491025391e+003;4.2617949219e+003;4.2625639648e+003;4.2626923828e+003;4.2680771484e+003;4.2558974609e+003;4.2658974609e+003;
9.2968750000e-001;4.1141025391e+003;4.1084614258e+003;4.1011538086e+003;4.1089741211e+003;4.1126923828e+003;4.1301284180e+003;4.1173076172e+003;4.0980771484e+003;4.1165385742e+003;4.1074360352e+003;4.1082050781e+003;4.1178203125e+003;4.1078203125e+003;4.1164101563e+003;
9.3750000000e-001;4.1321796875e+003;4.1221796875e+003;4.1167949219e+003;4.1241025391e+003;4.1134614258e+003;4.1444873047e+003;4.1316665039e+003;4.1105126953e+003;4.1280771484e+003;4.1207690430e+003;4.1238461914e+003;4.1328203125e+003;4.1211538086e+003;4.1305126953e+003;
9.4531250000e-001;4.2403847656e+003;4.2303847656e+003;4.2301284180e+003;4.2279487305e+003;4.2329487305e+003;4.2389741211e+003;4.2385898438e+003;4.2179487305e+003;4.2238461914e+003;4.2230771484e+003;4.2303847656e+003;4.2342309570e+003;4.2300000000e+003;4.2355126953e+003;
9.5312500000e-001;4.2300000000e+003;4.2269228516e+003;4.2179487305e+003;4.2173076172e+003;4.2421796875e+003;4.2265385742e+003;4.2210258789e+003;4.2137177734e+003;4.2230771484e+003;4.2241025391e+003;4.2260258789e+003;4.2307690430e+003;4.2238461914e+003;4.2310258789e+003;
9.6093750000e-001;4.2315385742e+003;4.2302563477e+003;4.2169228516e+003;4.2219228516e+003;4.2320512695e+003;4.2253847656e+003;4.2215385742e+003;4.2135898438e+003;4.2228203125e+003;4.2221796875e+003;4.2262822266e+003;4.2292309570e+003;4.2238461914e+003;4.2306411133e+003;
9.6875000000e-001;4.3342309570e+003;4.3317949219e+003;4.3180771484e+003;4.3208974609e+003;4.3215385742e+003;4.3030771484e+003;4.3165385742e+003;4.3242309570e+003;4.3239741211e+003;4.3307690430e+003;4.3298715820e+003;4.3274360352e+003;4.3257690430e+003;4.3297436523e+003;
9.7656250000e-001;4.2925639648e+003;4.2878203125e+003;4.2788461914e+003;4.2800000000e+003;4.2832050781e+003;4.2616665039e+003;4.2752563477e+003;4.2851284180e+003;4.2850000000e+003;4.2912822266e+003;4.2896152344e+003;4.2891025391e+003;4.2820512695e+003;4.2892309570e+003;
9.8437500000e-001;4.2642309570e+003;4.2583334961e+003;4.2502563477e+003;4.2503847656e+003;4.2539741211e+003;4.2285898438e+003;4.2430771484e+003;4.2507690430e+003;4.2592309570e+003;4.2589741211e+003;4.2607690430e+003;4.2611538086e+003;4.2500000000e+003;4.2616665039e+003;
9.9218750000e-001;4.2974360352e+003;4.2929487305e+003;4.2825639648e+003;4.2807690430e+003;4.2830771484e+003;4.2560258789e+003;4.2708974609e+003;4.2829487305e+003;4.2953847656e+003;4.2933334961e+003;4.2948715820e+003;4.2948715820e+003;4.2844873047e+003;4.2960258789e+003;
1.0000000000e+000;4.1933334961e+003;4.1861538086e+003;4.1798715820e+003;4.1853847656e+003;4.1760258789e+003;4.1729487305e+003;4.1791025391e+003;4.1861538086e+003;4.1956411133e+003;4.1941025391e+003;4.1960258789e+003;4.1955126953e+003;4.1826923828e+003;4.1920512695e+003;
1.0078125000e+000;4.1551284180e+003;4.1469228516e+003;4.1402563477e+003;4.1498715820e+003;4.1421796875e+003;4.1462822266e+003;4.1492309570e+003;4.1443588867e+003;4.1561538086e+003;4.1535898438e+003;4.1567949219e+003;4.1541025391e+003;4.1426923828e+003;4.1506411133e+003;
1.0156250000e+000;4.1580771484e+003;4.1502563477e+003;4.1426923828e+003;4.1523076172e+003;4.1506411133e+003;4.1567949219e+003;4.1560258789e+003;4.1433334961e+003;4.1598715820e+003;4.1552563477e+003;4.1576923828e+003;4.1542309570e+003;4.1446152344e+003;4.1520512695e+003;
1.0234375000e+000;4.1823076172e+003;4.1752563477e+003;4.1684614258e+003;4.1750000000e+003;4.1782050781e+003;4.1850000000e+003;4.1803847656e+003;4.1657690430e+003;4.1861538086e+003;4.1792309570e+003;4.1796152344e+003;4.1779487305e+003;4.1689741211e+003;4.1769228516e+003;
1.0312500000e+000;4.2405126953e+003;4.2296152344e+003;4.2215385742e+003;4.2337177734e+003;4.2343588867e+003;4.2393588867e+003;4.2348715820e+003;4.2251284180e+003;4.2400000000e+003;4.2348715820e+003;4.2350000000e+003;4.2300000000e+003;4.2276923828e+003;4.2316665039e+003;
1.0390625000e+000;4.2144873047e+003;4.2142309570e+003;4.1948715820e+003;4.2137177734e+003;4.2102563477e+003;4.2278203125e+003;4.2255126953e+003;4.2057690430e+003;4.2126923828e+003;4.2071796875e+003;4.2075639648e+003;4.2091025391e+003;4.2030771484e+003;4.2108974609e+003;
1.0468750000e+000;4.3035898438e+003;4.3048715820e+003;4.2824360352e+003;4.2979487305e+003;4.2923076172e+003;4.3080771484e+003;4.3108974609e+003;4.2891025391e+003;4.2929487305e+003;4.2915385742e+003;4.2925639648e+003;4.2950000000e+003;4.2917949219e+003;4.2976923828e+003;
1.0546875000e+000;4.3950000000e+003;4.3915385742e+003;4.3725639648e+003;4.3762822266e+003;4.3955126953e+003;4.3773076172e+003;4.3816665039e+003;4.3792309570e+003;4.3735898438e+003;4.3906411133e+003;4.3865385742e+003;4.3862822266e+003;4.3811538086e+003;4.3855126953e+003;
1.0625000000e+000;4.3400000000e+003;4.3357690430e+003;4.3193588867e+003;4.3220512695e+003;4.3530771484e+003;4.3271796875e+003;4.3298715820e+003;4.3246152344e+003;4.3173076172e+003;4.3329487305e+003;4.3332050781e+003;4.3320512695e+003;4.3241025391e+003;4.3289741211e+003;
1.0703125000e+000;4.4106411133e+003;4.3984614258e+003;4.3888461914e+003;4.3850000000e+003;4.4050000000e+003;4.3811538086e+003;4.3902563477e+003;4.3880771484e+003;4.3855126953e+003;4.3951284180e+003;4.4044873047e+003;4.4007690430e+003;4.3925639648e+003;4.3947436523e+003;
1.0781250000e+000;4.4055126953e+003;4.3910258789e+003;4.3856411133e+003;4.3794873047e+003;4.3848715820e+003;4.3698715820e+003;4.3812822266e+003;4.3842309570e+003;4.3834614258e+003;4.3933334961e+003;4.4000000000e+003;4.3983334961e+003;4.3888461914e+003;4.3925639648e+003;
1.0859375000e+000;4.3760258789e+003;4.3671796875e+003;4.3598715820e+003;4.3507690430e+003;4.3524360352e+003;4.3344873047e+003;4.3525639648e+003;4.3569228516e+003;4.3594873047e+003;4.3658974609e+003;4.3715385742e+003;4.3706411133e+003;4.3617949219e+003;4.3674360352e+003;
1.0937500000e+000;4.4023076172e+003;4.3965385742e+003;4.3853847656e+003;4.3757690430e+003;4.3850000000e+003;4.3557690430e+003;4.3765385742e+003;4.3844873047e+003;4.3887177734e+003;4.3942309570e+003;4.3989741211e+003;4.3969228516e+003;4.3880771484e+003;4.3935898438e+003;
1.1015625000e+000;4.3884614258e+003;4.3737177734e+003;4.3685898438e+003;4.3632050781e+003;4.3744873047e+003;4.3442309570e+003;4.3588461914e+003;4.3742309570e+003;4.3817949219e+003;4.3882050781e+003;4.3838461914e+003;4.3838461914e+003;4.3705126953e+003;4.3766665039e+003;
1.1093750000e+000;4.3958974609e+003;4.3882050781e+003;4.3773076172e+003;4.3679487305e+003;4.3832050781e+003;4.3637177734e+003;4.3758974609e+003;4.3828203125e+003;4.3956411133e+003;4.3967949219e+003;4.3917949219e+003;4.3853847656e+003;4.3817949219e+003;4.3843588867e+003;
1.1171875000e+000;4.3766665039e+003;4.3732050781e+003;4.3611538086e+003;4.3539741211e+003;4.3664101563e+003;4.3552563477e+003;4.3655126953e+003;4.3676923828e+003;4.3798715820e+003;4.3792309570e+003;4.3747436523e+003;4.3682050781e+003;4.3628203125e+003;4.3666665039e+003;
1.1250000000e+000;4.3552563477e+003;4.3544873047e+003;4.3411538086e+003;4.3394873047e+003;4.3491025391e+003;4.3450000000e+003;4.3528203125e+003;4.3470512695e+003;4.3587177734e+003;4.3567949219e+003;4.3532050781e+003;4.3461538086e+003;4.3392309570e+003;4.3442309570e+003;
1.1328125000e+000;4.3608974609e+003;4.3620512695e+003;4.3457690430e+003;4.3497436523e+003;4.3600000000e+003;4.3571796875e+003;4.3630771484e+003;4.3510258789e+003;4.3621796875e+003;4.3611538086e+003;4.3569228516e+003;4.3483334961e+003;4.3425639648e+003;4.3475639648e+003;
1.1406250000e+000;4.3189741211e+003;4.3215385742e+003;4.3111538086e+003;4.3037177734e+003;4.3317949219e+003;4.3323076172e+003;4.3316665039e+003;4.3197436523e+003;4.3220512695e+003;4.3230771484e+003;4.3146152344e+003;4.3128203125e+003;4.3080771484e+003;4.3121796875e+003;
1.1484375000e+000;4.3121796875e+003;4.3144873047e+003;4.3039741211e+003;4.2935898438e+003;4.3194873047e+003;4.3269228516e+003;4.3279487305e+003;4.3093588867e+003;4.3102563477e+003;4.3097436523e+003;4.3071796875e+003;4.3061538086e+003;4.3012822266e+003;4.3053847656e+003;
1.1562500000e+000;4.3776923828e+003;4.3683334961e+003;4.3557690430e+003;4.3653847656e+003;4.3576923828e+003;4.3729487305e+003;4.3766665039e+003;4.3642309570e+003;4.3624360352e+003;4.3717949219e+003;4.3723076172e+003;4.3703847656e+003;4.3626923828e+003;4.3682050781e+003;
1.1640625000e+000;4.2911538086e+003;4.2858974609e+003;4.2788461914e+003;4.2869228516e+003;4.3075639648e+003;4.2875639648e+003;4.2889741211e+003;4.2738461914e+003;4.2708974609e+003;4.2802563477e+003;4.2914101563e+003;4.2912822266e+003;4.2796152344e+003;4.2885898438e+003;
1.1718750000e+000;4.3033334961e+003;4.3001284180e+003;4.2925639648e+003;4.2894873047e+003;4.3198715820e+003;4.2958974609e+003;4.2974360352e+003;4.2823076172e+003;4.2803847656e+003;4.2906411133e+003;4.3035898438e+003;4.3034614258e+003;4.2914101563e+003;4.3032050781e+003;
1.1796875000e+000;4.3578203125e+003;4.3466665039e+003;4.3406411133e+003;4.3292309570e+003;4.3376923828e+003;4.3225639648e+003;4.3292309570e+003;4.3208974609e+003;4.3237177734e+003;4.3319228516e+003;4.3462822266e+003;4.3493588867e+003;4.3380771484e+003;4.3491025391e+003;
1.1875000000e+000;4.4124360352e+003;4.4001284180e+003;4.3925639648e+003;4.3843588867e+003;4.3878203125e+003;4.3632050781e+003;4.3742309570e+003;4.3721796875e+003;4.3778203125e+003;4.3875639648e+003;4.3987177734e+003;4.4007690430e+003;4.3921796875e+003;4.3988461914e+003;
1.1953125000e+000;4.4428203125e+003;4.4353847656e+003;4.4260258789e+003;4.4198715820e+003;4.4175639648e+003;4.3889741211e+003;4.4032050781e+003;4.4141025391e+003;4.4248715820e+003;4.4323076172e+003;4.4353847656e+003;4.4342309570e+003;4.4275639648e+003;4.4364101563e+003;
1.2031250000e+000;4.4598715820e+003;4.4534614258e+003;4.4411538086e+003;4.4332050781e+003;4.4328203125e+003;4.4066665039e+003;4.4223076172e+003;4.4303847656e+003;4.4411538086e+003;4.4460258789e+003;4.4505126953e+003;4.4476923828e+003;4.4452563477e+003;4.4539741211e+003;
1.2109375000e+000;4.5642309570e+003;4.5571796875e+003;4.5419228516e+003;4.5242309570e+003;4.5402563477e+003;4.5051284180e+003;4.5233334961e+003;4.5356411133e+003;4.5441025391e+003;4.5521796875e+003;4.5525639648e+003;4.5491025391e+003;4.5535898438e+003;4.5542309570e+003;
1.2187500000e+000;4.5626923828e+003;4.5556411133e+003;4.5434614258e+003;4.5237177734e+003;4.5442309570e+003;4.5092309570e+003;4.5251284180e+003;4.5407690430e+003;4.5482050781e+003;4.5576923828e+003;4.5538461914e+003;4.5529487305e+003;4.5544873047e+003;4.5529487305e+003;
1.2265625000e+000;4.4585898438e+003;4.4497436523e+003;4.4417949219e+003;4.4334614258e+003;4.4452563477e+003;4.4357690430e+003;4.4476923828e+003;4.4432050781e+003;4.4515385742e+003;4.4573076172e+003;4.4519228516e+003;4.4497436523e+003;4.4439741211e+003;4.4511538086e+003;
1.2343750000e+000;4.4737177734e+003;4.4644873047e+003;4.4550000000e+003;4.4464101563e+003;4.4606411133e+003;4.4533334961e+003;4.4657690430e+003;4.4566665039e+003;4.4657690430e+003;4.4724360352e+003;4.4675639648e+003;4.4623076172e+003;4.4591025391e+003;4.4670512695e+003;
1.2421875000e+000;4.4664101563e+003;4.4643588867e+003;4.4512822266e+003;4.4416665039e+003;4.4697436523e+003;4.4539741211e+003;4.4624360352e+003;4.4492309570e+003;4.4585898438e+003;4.4651284180e+003;4.4635898438e+003;4.4570512695e+003;4.4582050781e+003;4.4648715820e+003;
1.2500000000e+000;4.4551284180e+003;4.4571796875e+003;4.4403847656e+003;4.4323076172e+003;4.4651284180e+003;4.4450000000e+003;4.4514101563e+003;4.4352563477e+003;4.4441025391e+003;4.4494873047e+003;4.4503847656e+003;4.4442309570e+003;4.4470512695e+003;4.4532050781e+003;
1.2578125000e+000;4.4551284180e+003;4.4579487305e+003;4.4376923828e+003;4.4300000000e+003;4.4605126953e+003;4.4433334961e+003;4.4488461914e+003;4.4319228516e+003;4.4396152344e+003;4.4450000000e+003;4.4470512695e+003;4.4406411133e+003;4.4442309570e+003;4.4503847656e+003;
1.2656250000e+000;4.3951284180e+003;4.3860258789e+003;4.3803847656e+003;4.3732050781e+003;4.3873076172e+003;4.3832050781e+003;4.3848715820e+003;4.3617949219e+003;4.3619228516e+003;4.3702563477e+003;4.3824360352e+003;4.3783334961e+003;4.3806411133e+003;4.3844873047e+003;
1.2734375000e+000;4.4543588867e+003;4.4493588867e+003;4.4371796875e+003;4.4348715820e+003;4.4653847656e+003;4.4337177734e+003;4.4376923828e+003;4.4178203125e+003;4.4217949219e+003;4.4324360352e+003;4.4423076172e+003;4.4369228516e+003;4.4417949219e+003;4.4458974609e+003;
1.2812500000e+000;4.4744873047e+003;4.4675639648e+003;4.4538461914e+003;4.4469228516e+003;4.4678203125e+003;4.4387177734e+003;4.4479487305e+003;4.4348715820e+003;4.4455126953e+003;4.4562822266e+003;4.4608974609e+003;4.4544873047e+003;4.4556411133e+003;4.4670512695e+003;
1.2890625000e+000;4.5716665039e+003;4.5615385742e+003;4.5542309570e+003;4.5273076172e+003;4.5534614258e+003;4.5291025391e+003;4.5430771484e+003;4.5491025391e+003;4.5630771484e+003;4.5675639648e+003;4.5632050781e+003;4.5543588867e+003;4.5589741211e+003;4.5684614258e+003;
1.2968750000e+000;4.5612822266e+003;4.5494873047e+003;4.5448715820e+003;4.5175639648e+003;4.5494873047e+003;4.5215385742e+003;4.5358974609e+003;4.5460258789e+003;4.5611538086e+003;4.5624360352e+003;4.5530771484e+003;4.5479487305e+003;4.5510258789e+003;4.5607690430e+003;
1.3046875000e+000;4.6579487305e+003;4.6371796875e+003;4.6330771484e+003;4.6087177734e+003;4.6273076172e+003;4.5951284180e+003;4.6196152344e+003;4.6306411133e+003;4.6442309570e+003;4.6484614258e+003;4.6447436523e+003;4.6407690430e+003;4.6437177734e+003;4.6502563477e+003;
1.3125000000e+000;4.6856411133e+003;4.6639741211e+003;4.6607690430e+003;4.6341025391e+003;4.6461538086e+003;4.6144873047e+003;4.6392309570e+003;4.6557690430e+003;4.6676923828e+003;4.6774360352e+003;4.6744873047e+003;4.6698715820e+003;4.6707690430e+003;4.6796152344e+003;
1.3203125000e+000;4.6123076172e+003;4.6012822266e+003;4.5903847656e+003;4.5610258789e+003;4.5862822266e+003;4.5565385742e+003;4.5776923828e+003;4.5828203125e+003;4.5947436523e+003;4.6037177734e+003;4.6000000000e+003;4.5965385742e+003;4.5975639648e+003;4.6108974609e+003;
1.3281250000e+000;4.6330771484e+003;4.6258974609e+003;4.6071796875e+003;4.5808974609e+003;4.6132050781e+003;4.5805126953e+003;4.6015385742e+003;4.6029487305e+003;4.6164101563e+003;4.6230771484e+003;4.6192309570e+003;4.6133334961e+003;4.6185898438e+003;4.6291025391e+003;
1.3359375000e+000;4.6270512695e+003;4.6219228516e+003;4.6005126953e+003;4.5817949219e+003;4.6070512695e+003;4.5834614258e+003;4.5996152344e+003;4.6010258789e+003;4.6137177734e+003;4.6179487305e+003;4.6130771484e+003;4.6056411133e+003;4.6119228516e+003;4.6201284180e+003;
1.3437500000e+000;4.5956411133e+003;4.5906411133e+003;4.5734614258e+003;4.5555126953e+003;4.5771796875e+003;4.5602563477e+003;4.5735898438e+003;4.5710258789e+003;4.5820512695e+003;4.5861538086e+003;4.5812822266e+003;4.5743588867e+003;4.5801284180e+003;4.5882050781e+003;
1.3515625000e+000;4.5825639648e+003;4.5773076172e+003;4.5639741211e+003;4.5438461914e+003;4.5685898438e+003;4.5532050781e+003;4.5653847656e+003;4.5574360352e+003;4.5670512695e+003;4.5725639648e+003;4.5680771484e+003;4.5598715820e+003;4.5674360352e+003;4.5741025391e+003;
1.3593750000e+000;4.5874360352e+003;4.5807690430e+003;4.5703847656e+003;4.5470512695e+003;4.5762822266e+003;4.5608974609e+003;4.5723076172e+003;4.5617949219e+003;4.5698715820e+003;4.5771796875e+003;4.5735898438e+003;4.5632050781e+003;4.5730771484e+003;4.5780771484e+003;
1.3671875000e+000;4.5732050781e+003;4.5658974609e+003;4.5542309570e+003;4.5411538086e+003;4.5437177734e+003;4.5539741211e+003;4.5634614258e+003;4.5494873047e+003;4.5485898438e+003;4.5565385742e+003;4.5608974609e+003;4.5489741211e+003;4.5588461914e+003;4.5674360352e+003;
1.3750000000e+000;4.6165385742e+003;4.6119228516e+003;4.5960258789e+003;4.5800000000e+003;4.5970512695e+003;4.5929487305e+003;4.6046152344e+003;4.5915385742e+003;4.5920512695e+003;4.6055126953e+003;4.6046152344e+003;4.5910258789e+003;4.6047436523e+003;4.6119228516e+003;
1.3828125000e+000;4.5539741211e+003;4.5470512695e+003;4.5378203125e+003;4.5070512695e+003;4.5607690430e+003;4.5292309570e+003;4.5366665039e+003;4.5239741211e+003;4.5294873047e+003;4.5521796875e+003;4.5483334961e+003;4.5282050781e+003;4.5470512695e+003;4.5479487305e+003;
1.3906250000e+000;4.5682050781e+003;4.5565385742e+003;4.5515385742e+003;4.5378203125e+003;4.5532050781e+003;4.5235898438e+003;4.5360258789e+003;4.5308974609e+003;4.5430771484e+003;4.5637177734e+003;4.5665385742e+003;4.5434614258e+003;4.5651284180e+003;4.5650000000e+003;
1.3984375000e+000;4.5647436523e+003;4.5541025391e+003;4.5485898438e+003;4.5389741211e+003;4.5467949219e+003;4.5182050781e+003;4.5310258789e+003;4.5334614258e+003;4.5456411133e+003;4.5624360352e+003;4.5633334961e+003;4.5443588867e+003;4.5634614258e+003;4.5651284180e+003;
1.4062500000e+000;4.5757690430e+003;4.5698715820e+003;4.5602563477e+003;4.5334614258e+003;4.5505126953e+003;4.5265385742e+003;4.5450000000e+003;4.5520512695e+003;4.5584614258e+003;4.5675639648e+003;4.5752563477e+003;4.5579487305e+003;4.5756411133e+003;4.5762822266e+003;
1.4140625000e+000;4.5947436523e+003;4.5887177734e+003;4.5808974609e+003;4.5484614258e+003;4.5660258789e+003;4.5371796875e+003;4.5585898438e+003;4.5739741211e+003;4.5774360352e+003;4.5925639648e+003;4.5988461914e+003;4.5806411133e+003;4.5951284180e+003;4.5978203125e+003;
1.4218750000e+000;4.6103847656e+003;4.6064101563e+003;4.5925639648e+003;4.5719228516e+003;4.5858974609e+003;4.5532050781e+003;4.5756411133e+003;4.5893588867e+003;4.5924360352e+003;4.6074360352e+003;4.6133334961e+003;4.5923076172e+003;4.6114101563e+003;4.6112822266e+003;
1.4296875000e+000;4.6358974609e+003;4.6353847656e+003;4.6194873047e+003;4.6046152344e+003;4.6135898438e+003;4.5930771484e+003;4.6117949219e+003;4.6224360352e+003;4.6252563477e+003;4.6410258789e+003;4.6444873047e+003;4.6206411133e+003;4.6378203125e+003;4.6362822266e+003;
1.4375000000e+000;4.5829487305e+003;4.5803847656e+003;4.5708974609e+003;4.5482050781e+003;4.5614101563e+003;4.5489741211e+003;4.5650000000e+003;4.5683334961e+003;4.5715385742e+003;4.5858974609e+003;4.5906411133e+003;4.5701284180e+003;4.5817949219e+003;4.5841025391e+003;
1.4453125000e+000;4.5506411133e+003;4.5465385742e+003;4.5385898438e+003;4.5105126953e+003;4.5314101563e+003;4.5211538086e+003;4.5358974609e+003;4.5306411133e+003;4.5348715820e+003;4.5478203125e+003;4.5537177734e+003;4.5352563477e+003;4.5458974609e+003;4.5508974609e+003;
1.4531250000e+000;4.5692309570e+003;4.5692309570e+003;4.5523076172e+003;4.5253847656e+003;4.5641025391e+003;4.5437177734e+003;4.5546152344e+003;4.5462822266e+003;4.5516665039e+003;4.5647436523e+003;4.5669228516e+003;4.5494873047e+003;4.5661538086e+003;4.5714101563e+003;
1.4609375000e+000;4.5467949219e+003;4.5458974609e+003;4.5356411133e+003;4.5171796875e+003;4.5469228516e+003;4.5380771484e+003;4.5432050781e+003;4.5269228516e+003;4.5279487305e+003;4.5373076172e+003;4.5484614258e+003;4.5321796875e+003;4.5484614258e+003;4.5493588867e+003;
1.4687500000e+000;4.5962822266e+003;4.5923076172e+003;4.5835898438e+003;4.5639741211e+003;4.5832050781e+003;4.5808974609e+003;4.5891025391e+003;4.5688461914e+003;4.5712822266e+003;4.5803847656e+003;4.5955126953e+003;4.5769228516e+003;4.5948715820e+003;4.5935898438e+003;
1.4765625000e+000;4.6497436523e+003;4.6453847656e+003;4.6353847656e+003;4.6144873047e+003;4.6266665039e+003;4.6265385742e+003;4.6374360352e+003;4.6184614258e+003;4.6220512695e+003;4.6330771484e+003;4.6478203125e+003;4.6278203125e+003;4.6465385742e+003;4.6446152344e+003;
1.4843750000e+000;4.6570512695e+003;4.6557690430e+003;4.6434614258e+003;4.6229487305e+003;4.6352563477e+003;4.6323076172e+003;4.6433334961e+003;4.6283334961e+003;4.6311538086e+003;4.6442309570e+003;4.6562822266e+003;4.6371796875e+003;4.6547436523e+003;4.6534614258e+003;
1.4921875000e+000;4.5342309570e+003;4.5358974609e+003;4.5201284180e+003;4.5042309570e+003;4.5541025391e+003;4.5200000000e+003;4.5189741211e+003;4.5047436523e+003;4.5012822266e+003;4.5167949219e+003;4.5328203125e+003;4.5211538086e+003;4.5314101563e+003;4.5325639648e+003;
1.5000000000e+000;4.5275639648e+003;4.5252563477e+003;4.5130771484e+003;4.4915385742e+003;4.5365385742e+003;4.5087177734e+003;4.5071796875e+003;4.4974360352e+003;4.4955126953e+003;4.5103847656e+003;4.5261538086e+003;4.5151284180e+003;4.5226923828e+003;4.5261538086e+003;
1.5078125000e+000;4.4479487305e+003;4.4429487305e+003;4.4411538086e+003;4.4176923828e+003;4.4394873047e+003;4.4188461914e+003;4.4288461914e+003;4.4330771484e+003;4.4320512695e+003;4.4339741211e+003;4.4558974609e+003;4.4400000000e+003;4.4500000000e+003;4.4528203125e+003;
1.5156250000e+000;4.4279487305e+003;4.4275639648e+003;4.4233334961e+003;4.4198715820e+003;4.4223076172e+003;4.3980771484e+003;4.4070512695e+003;4.4180771484e+003;4.4150000000e+003;4.4096152344e+003;4.4360258789e+003;4.4262822266e+003;4.4338461914e+003;4.4338461914e+003;
1.5234375000e+000;4.4466665039e+003;4.4496152344e+003;4.4401284180e+003;4.4369228516e+003;4.4366665039e+003;4.4171796875e+003;4.4269228516e+003;4.4334614258e+003;4.4306411133e+003;4.4252563477e+003;4.4512822266e+003;4.4430771484e+003;4.4496152344e+003;4.4523076172e+003;
1.5312500000e+000;4.5258974609e+003;4.5335898438e+003;4.5138461914e+003;4.4993588867e+003;4.5160258789e+003;4.4900000000e+003;4.5075639648e+003;4.5132050781e+003;4.5105126953e+003;4.5112822266e+003;4.5291025391e+003;4.5176923828e+003;4.5279487305e+003;4.5324360352e+003;
1.5390625000e+000;4.5135898438e+003;4.5205126953e+003;4.5019228516e+003;4.4851284180e+003;4.5058974609e+003;4.4802563477e+003;4.4992309570e+003;4.5071796875e+003;4.5033334961e+003;4.5056411133e+003;4.5187177734e+003;4.5075639648e+003;4.5182050781e+003;4.5219228516e+003;
1.5468750000e+000;4.4584614258e+003;4.4632050781e+003;4.4497436523e+003;4.4364101563e+003;4.4512822266e+003;4.4348715820e+003;4.4515385742e+003;4.4580771484e+003;4.4533334961e+003;4.4526923828e+003;4.4647436523e+003;4.4562822266e+003;4.4650000000e+003;4.4683334961e+003;
1.5546875000e+000;4.3962822266e+003;4.3962822266e+003;4.3907690430e+003;4.3865385742e+003;4.3928203125e+003;4.3914101563e+003;4.3998715820e+003;4.3965385742e+003;4.3928203125e+003;4.3816665039e+003;4.4020512695e+003;4.3960258789e+003;4.3998715820e+003;4.4043588867e+003;
1.5625000000e+000;4.4137177734e+003;4.4125639648e+003;4.4082050781e+003;4.4021796875e+003;4.4166665039e+003;4.4120512695e+003;4.4164101563e+003;4.4126923828e+003;4.4096152344e+003;4.3975639648e+003;4.4203847656e+003;4.4124360352e+003;4.4153847656e+003;4.4208974609e+003;
1.5703125000e+000;4.4002563477e+003;4.3996152344e+003;4.3974360352e+003;4.3862822266e+003;4.4070512695e+003;4.4046152344e+003;4.4032050781e+003;4.3989741211e+003;4.3956411133e+003;4.3867949219e+003;4.4087177734e+003;4.3994873047e+003;4.4037177734e+003;4.4100000000e+003;
1.5781250000e+000;4.3756411133e+003;4.3766665039e+003;4.3734614258e+003;4.3646152344e+003;4.3752563477e+003;4.3823076172e+003;4.3807690430e+003;4.3721796875e+003;4.3688461914e+003;4.3607690430e+003;4.3834614258e+003;4.3752563477e+003;4.3821796875e+003;4.3866665039e+003;
1.5859375000e+000;4.3682050781e+003;4.3714101563e+003;4.3643588867e+003;4.3597436523e+003;4.3598715820e+003;4.3741025391e+003;4.3730771484e+003;4.3619228516e+003;4.3589741211e+003;4.3515385742e+003;4.3760258789e+003;4.3682050781e+003;4.3778203125e+003;4.3797436523e+003;
1.5937500000e+000;4.3682050781e+003;4.3714101563e+003;4.3643588867e+003;4.3597436523e+003;4.3598715820e+003;4.3741025391e+003;4.3730771484e+003;4.3619228516e+003;4.3589741211e+003;4.3515385742e+003;4.3760258789e+003;4.3682050781e+003;4.3778203125e+003;4.3797436523e+003;
1.6015625000e+000;4.4123076172e+003;4.4139741211e+003;4.4021796875e+003;4.4010258789e+003;4.4325639648e+003;4.4160258789e+003;4.4103847656e+003;4.3878203125e+003;4.3873076172e+003;4.3841025391e+003;4.4184614258e+003;4.4055126953e+003;4.4152563477e+003;4.4174360352e+003;
1.6093750000e+000;4.6207690430e+003;4.6261538086e+003;4.6079487305e+003;4.5960258789e+003;4.6166665039e+003;4.5884614258e+003;4.5976923828e+003;4.5873076172e+003;4.5862822266e+003;4.5989741211e+003;4.6196152344e+003;4.6067949219e+003;4.6211538086e+003;4.6205126953e+003;
1.6171875000e+000;4.6556411133e+003;4.6570512695e+003;4.6385898438e+003;4.6176923828e+003;4.6439741211e+003;4.6144873047e+003;4.6235898438e+003;4.6203847656e+003;4.6160258789e+003;4.6265385742e+003;4.6494873047e+003;4.6347436523e+003;4.6493588867e+003;4.6506411133e+003;
1.6250000000e+000;4.6787177734e+003;4.6835898438e+003;4.6635898438e+003;4.6406411133e+003;4.6691025391e+003;4.6351284180e+003;4.6461538086e+003;4.6482050781e+003;4.6464101563e+003;4.6579487305e+003;4.6769228516e+003;4.6610258789e+003;4.6774360352e+003;4.6780771484e+003;
1.6328125000e+000;4.6348715820e+003;4.6416665039e+003;4.6265385742e+003;4.6071796875e+003;4.6239741211e+003;4.5850000000e+003;4.6069228516e+003;4.6110258789e+003;4.6157690430e+003;4.6197436523e+003;4.6361538086e+003;4.6210258789e+003;4.6403847656e+003;4.6362822266e+003;
1.6406250000e+000;4.6764101563e+003;4.6797436523e+003;4.6664101563e+003;4.6448715820e+003;4.6624360352e+003;4.6189741211e+003;4.6420512695e+003;4.6523076172e+003;4.6558974609e+003;4.6615385742e+003;4.6762822266e+003;4.6605126953e+003;4.6802563477e+003;4.6739741211e+003;
1.6484375000e+000;4.6358974609e+003;4.6391025391e+003;4.6264101563e+003;4.6044873047e+003;4.6161538086e+003;4.5917949219e+003;4.6067949219e+003;4.6221796875e+003;4.6205126953e+003;4.6262822266e+003;4.6373076172e+003;4.6261538086e+003;4.6398715820e+003;4.6383334961e+003;
1.6562500000e+000;4.6193588867e+003;4.6252563477e+003;4.6082050781e+003;4.5871796875e+003;4.6007690430e+003;4.5808974609e+003;4.5966665039e+003;4.6023076172e+003;4.6015385742e+003;4.6030771484e+003;4.6174360352e+003;4.6052563477e+003;4.6220512695e+003;4.6202563477e+003;
1.6640625000e+000;4.6750000000e+003;4.6782050781e+003;4.6584614258e+003;4.6371796875e+003;4.6634614258e+003;4.6366665039e+003;4.6524360352e+003;4.6498715820e+003;4.6526923828e+003;4.6494873047e+003;4.6678203125e+003;4.6510258789e+003;4.6739741211e+003;4.6683334961e+003;
1.6718750000e+000;4.6742309570e+003;4.6738461914e+003;4.6584614258e+003;4.6392309570e+003;4.6679487305e+003;4.6410258789e+003;4.6528203125e+003;4.6507690430e+003;4.6541025391e+003;4.6498715820e+003;4.6685898438e+003;4.6510258789e+003;4.6732050781e+003;4.6669228516e+003;
1.6796875000e+000;4.6416665039e+003;4.6400000000e+003;4.6283334961e+003;4.6134614258e+003;4.6375639648e+003;4.6174360352e+003;4.6252563477e+003;4.6220512695e+003;4.6248715820e+003;4.6198715820e+003;4.6391025391e+003;4.6214101563e+003;4.6419228516e+003;4.6360258789e+003;
1.6875000000e+000;4.5150000000e+003;4.5087177734e+003;4.5066665039e+003;4.4878203125e+003;4.4980771484e+003;4.5010258789e+003;4.5043588867e+003;4.4843588867e+003;4.4866665039e+003;4.4823076172e+003;4.5067949219e+003;4.5002563477e+003;4.5101284180e+003;4.5141025391e+003;
1.6953125000e+000;4.5312822266e+003;4.5221796875e+003;4.5223076172e+003;4.4989741211e+003;4.5301284180e+003;4.5169228516e+003;4.5175639648e+003;4.4948715820e+003;4.4969228516e+003;4.4946152344e+003;4.5221796875e+003;4.5139741211e+003;4.5247436523e+003;4.5287177734e+003;
1.7031250000e+000;4.5473076172e+003;4.5435898438e+003;4.5391025391e+003;4.5176923828e+003;4.5462822266e+003;4.5324360352e+003;4.5325639648e+003;4.5205126953e+003;4.5183334961e+003;4.5243588867e+003;4.5487177734e+003;4.5376923828e+003;4.5456411133e+003;4.5500000000e+003;
1.7109375000e+000;4.5847436523e+003;4.5816665039e+003;4.5774360352e+003;4.5626923828e+003;4.5744873047e+003;4.5657690430e+003;4.5721796875e+003;4.5488461914e+003;4.5488461914e+003;4.5506411133e+003;4.5798715820e+003;4.5696152344e+003;4.5850000000e+003;4.5829487305e+003;
1.7187500000e+000;4.6264101563e+003;4.6242309570e+003;4.6185898438e+003;4.6001284180e+003;4.6206411133e+003;4.6023076172e+003;4.6087177734e+003;4.5915385742e+003;4.5937177734e+003;4.5967949219e+003;4.6251284180e+003;4.6117949219e+003;4.6316665039e+003;4.6247436523e+003;
1.7265625000e+000;4.5819228516e+003;4.5880771484e+003;4.5703847656e+003;4.5573076172e+003;4.5696152344e+003;4.5543588867e+003;4.5628203125e+003;4.5616665039e+003;4.5638461914e+003;4.5630771484e+003;4.5883334961e+003;4.5758974609e+003;4.5919228516e+003;4.5848715820e+003;
1.7343750000e+000;4.6282050781e+003;4.6342309570e+003;4.6133334961e+003;4.5992309570e+003;4.6151284180e+003;4.5915385742e+003;4.6046152344e+003;4.6069228516e+003;4.6096152344e+003;4.6078203125e+003;4.6305126953e+003;4.6192309570e+003;4.6337177734e+003;4.6294873047e+003;
1.7421875000e+000;4.7035898438e+003;4.7014101563e+003;4.6911538086e+003;4.6621796875e+003;4.6906411133e+003;4.6538461914e+003;4.6712822266e+003;4.6887177734e+003;4.6902563477e+003;4.6889741211e+003;4.7016665039e+003;4.6942309570e+003;4.7033334961e+003;4.7055126953e+003;
1.7500000000e+000;4.6696152344e+003;4.6641025391e+003;4.6606411133e+003;4.6292309570e+003;4.6538461914e+003;4.6228203125e+003;4.6391025391e+003;4.6614101563e+003;4.6603847656e+003;4.6580771484e+003;4.6689741211e+003;4.6629487305e+003;4.6701284180e+003;4.6724360352e+003;
1.7578125000e+000;4.5832050781e+003;4.5783334961e+003;4.5701284180e+003;4.5578203125e+003;4.5689741211e+003;4.5461538086e+003;4.5598715820e+003;4.5785898438e+003;4.5783334961e+003;4.5724360352e+003;4.5855126953e+003;4.5757690430e+003;4.5884614258e+003;4.5814101563e+003;
1.7656250000e+000;4.5589741211e+003;4.5529487305e+003;4.5482050781e+003;4.5366665039e+003;4.5452563477e+003;4.5284614258e+003;4.5400000000e+003;4.5558974609e+003;4.5565385742e+003;4.5497436523e+003;4.5615385742e+003;4.5523076172e+003;4.5629487305e+003;4.5574360352e+003;
1.7734375000e+000;4.5279487305e+003;4.5242309570e+003;4.5257690430e+003;4.5061538086e+003;4.5015385742e+003;4.5214101563e+003;4.5302563477e+003;4.5315385742e+003;4.5252563477e+003;4.5155126953e+003;4.5326923828e+003;4.5226923828e+003;4.5306411133e+003;4.5302563477e+003;
1.7812500000e+000;4.5525639648e+003;4.5510258789e+003;4.5478203125e+003;4.5285898438e+003;4.5291025391e+003;4.5460258789e+003;4.5544873047e+003;4.5569228516e+003;4.5487177734e+003;4.5407690430e+003;4.5585898438e+003;4.5476923828e+003;4.5574360352e+003;4.5564101563e+003;
1.7890625000e+000;4.5153847656e+003;4.5144873047e+003;4.5119228516e+003;4.4969228516e+003;4.5153847656e+003;4.5130771484e+003;4.5165385742e+003;4.5162822266e+003;4.5091025391e+003;4.5010258789e+003;4.5193588867e+003;4.5134614258e+003;4.5206411133e+003;4.5212822266e+003;
1.7968750000e+000;4.4841025391e+003;4.4829487305e+003;4.4830771484e+003;4.4696152344e+003;4.4960258789e+003;4.4871796875e+003;4.4880771484e+003;4.4811538086e+003;4.4750000000e+003;4.4653847656e+003;4.4855126953e+003;4.4806411133e+003;4.4871796875e+003;4.4896152344e+003;
1.8046875000e+000;4.4784614258e+003;4.4780771484e+003;4.4774360352e+003;4.4651284180e+003;4.4965385742e+003;4.4861538086e+003;4.4855126953e+003;4.4737177734e+003;4.4675639648e+003;4.4578203125e+003;4.4792309570e+003;4.4717949219e+003;4.4803847656e+003;4.4841025391e+003;
1.8125000000e+000;4.5575639648e+003;4.5611538086e+003;4.5556411133e+003;4.5441025391e+003;4.5697436523e+003;4.5552563477e+003;4.5637177734e+003;4.5453847656e+003;4.5338461914e+003;4.5357690430e+003;4.5582050781e+003;4.5439741211e+003;4.5653847656e+003;4.5610258789e+003;
1.8203125000e+000;4.6071796875e+003;4.6094873047e+003;4.6064101563e+003;4.5919228516e+003;4.6157690430e+003;4.5979487305e+003;4.6051284180e+003;4.5929487305e+003;4.5826923828e+003;4.5879487305e+003;4.6084614258e+003;4.5929487305e+003;4.6132050781e+003;4.6105126953e+003;
1.8281250000e+000;4.4950000000e+003;4.4964101563e+003;4.4900000000e+003;4.4858974609e+003;4.4926923828e+003;4.4896152344e+003;4.4876923828e+003;4.4908974609e+003;4.4843588867e+003;4.4791025391e+003;4.5001284180e+003;4.4843588867e+003;4.5008974609e+003;4.5062822266e+003;
1.8359375000e+000;4.4819228516e+003;4.4770512695e+003;4.4779487305e+003;4.4700000000e+003;4.4719228516e+003;4.4651284180e+003;4.4730771484e+003;4.4826923828e+003;4.4821796875e+003;4.4728203125e+003;4.4884614258e+003;4.4821796875e+003;4.4966665039e+003;4.4967949219e+003;
1.8437500000e+000;4.4550000000e+003;4.4470512695e+003;4.4556411133e+003;4.4435898438e+003;4.4406411133e+003;4.4412822266e+003;4.4498715820e+003;4.4621796875e+003;4.4612822266e+003;4.4535898438e+003;4.4651284180e+003;4.4612822266e+003;4.4723076172e+003;4.4733334961e+003;
1.8515625000e+000;4.4494873047e+003;4.4417949219e+003;4.4447436523e+003;4.4324360352e+003;4.4455126953e+003;4.4353847656e+003;4.4470512695e+003;4.4650000000e+003;4.4650000000e+003;4.4567949219e+003;4.4639741211e+003;4.4493588867e+003;4.4698715820e+003;4.4673076172e+003;
1.8593750000e+000;4.4597436523e+003;4.4521796875e+003;4.4524360352e+003;4.4424360352e+003;4.4517949219e+003;4.4433334961e+003;4.4552563477e+003;4.4764101563e+003;4.4784614258e+003;4.4673076172e+003;4.4742309570e+003;4.4592309570e+003;4.4794873047e+003;4.4765385742e+003;
1.8671875000e+000;4.4587177734e+003;4.4480771484e+003;4.4500000000e+003;4.4453847656e+003;4.4355126953e+003;4.4462822266e+003;4.4589741211e+003;4.4702563477e+003;4.4744873047e+003;4.4560258789e+003;4.4680771484e+003;4.4583334961e+003;4.4711538086e+003;4.4725639648e+003;
1.8750000000e+000;4.4902563477e+003;4.4791025391e+003;4.4798715820e+003;4.4752563477e+003;4.4691025391e+003;4.4788461914e+003;4.4923076172e+003;4.4961538086e+003;4.5000000000e+003;4.4821796875e+003;4.4958974609e+003;4.4858974609e+003;4.4987177734e+003;4.5015385742e+003;
1.8828125000e+000;4.5176923828e+003;4.5139741211e+003;4.5125639648e+003;4.5061538086e+003;4.5380771484e+003;4.5219228516e+003;4.5247436523e+003;4.5234614258e+003;4.5230771484e+003;4.5144873047e+003;4.5235898438e+003;4.5091025391e+003;4.5264101563e+003;4.5298715820e+003;
1.8906250000e+000;4.5073076172e+003;4.5042309570e+003;4.5043588867e+003;4.4980771484e+003;4.5310258789e+003;4.5164101563e+003;4.5176923828e+003;4.5107690430e+003;4.5096152344e+003;4.4998715820e+003;4.5115385742e+003;4.4969228516e+003;4.5142309570e+003;4.5182050781e+003;
1.8984375000e+000;4.5997436523e+003;4.5960258789e+003;4.5923076172e+003;4.5747436523e+003;4.6000000000e+003;4.5917949219e+003;4.5979487305e+003;4.5884614258e+003;4.5873076172e+003;4.5821796875e+003;4.5978203125e+003;4.5816665039e+003;4.5997436523e+003;4.6014101563e+003;
1.9062500000e+000;4.5662822266e+003;4.5625639648e+003;4.5594873047e+003;4.5417949219e+003;4.5650000000e+003;4.5617949219e+003;4.5633334961e+003;4.5560258789e+003;4.5526923828e+003;4.5492309570e+003;4.5641025391e+003;4.5487177734e+003;4.5661538086e+003;4.5676923828e+003;
1.9140625000e+000;4.5096152344e+003;4.5062822266e+003;4.5052563477e+003;4.4955126953e+003;4.5137177734e+003;4.5176923828e+003;4.5138461914e+003;4.5030771484e+003;4.4957690430e+003;4.4902563477e+003;4.5070512695e+003;4.4902563477e+003;4.5106411133e+003;4.5124360352e+003;
1.9218750000e+000;4.5397436523e+003;4.5367949219e+003;4.5348715820e+003;4.5276923828e+003;4.5438461914e+003;4.5461538086e+003;4.5450000000e+003;4.5344873047e+003;4.5270512695e+003;4.5206411133e+003;4.5383334961e+003;4.5206411133e+003;4.5419228516e+003;4.5433334961e+003;
1.9296875000e+000;4.5694873047e+003;4.5667949219e+003;4.5643588867e+003;4.5565385742e+003;4.5724360352e+003;4.5715385742e+003;4.5733334961e+003;4.5658974609e+003;4.5578203125e+003;4.5520512695e+003;4.5701284180e+003;4.5535898438e+003;4.5726923828e+003;4.5742309570e+003;
1.9375000000e+000;4.5374360352e+003;4.5242309570e+003;4.5303847656e+003;4.5074360352e+003;4.5403847656e+003;4.5271796875e+003;4.5316665039e+003;4.5335898438e+003;4.5257690430e+003;4.5194873047e+003;4.5341025391e+003;4.5194873047e+003;4.5366665039e+003;4.5425639648e+003;
1.9453125000e+000;4.5169228516e+003;4.5057690430e+003;4.5120512695e+003;4.4907690430e+003;4.5162822266e+003;4.5088461914e+003;4.5120512695e+003;4.5194873047e+003;4.5143588867e+003;4.5023076172e+003;4.5170512695e+003;4.5048715820e+003;4.5178203125e+003;4.5253847656e+003;
1.9531250000e+000;4.4775639648e+003;4.4712822266e+003;4.4765385742e+003;4.4601284180e+003;4.4800000000e+003;4.4634614258e+003;4.4693588867e+003;4.4805126953e+003;4.4789741211e+003;4.4647436523e+003;4.4825639648e+003;4.4708974609e+003;4.4838461914e+003;4.4833334961e+003;
1.9609375000e+000;4.4771796875e+003;4.4656411133e+003;4.4764101563e+003;4.4582050781e+003;4.4741025391e+003;4.4582050781e+003;4.4646152344e+003;4.4788461914e+003;4.4773076172e+003;4.4660258789e+003;4.4814101563e+003;4.4661538086e+003;4.4829487305e+003;4.4810258789e+003;
1.9687500000e+000;4.4226923828e+003;4.4061538086e+003;4.4239741211e+003;4.4070512695e+003;4.3979487305e+003;4.4126923828e+003;4.4152563477e+003;4.4242309570e+003;4.4233334961e+003;4.4087177734e+003;4.4216665039e+003;4.4055126953e+003;4.4230771484e+003;4.4258974609e+003;
1.9765625000e+000;4.4742309570e+003;4.4694873047e+003;4.4788461914e+003;4.4587177734e+003;4.4816665039e+003;4.4802563477e+003;4.4775639648e+003;4.4751284180e+003;4.4755126953e+003;4.4619228516e+003;4.4747436523e+003;4.4680771484e+003;4.4778203125e+003;4.4817949219e+003;
1.9843750000e+000;4.4387177734e+003;4.4316665039e+003;4.4434614258e+003;4.4255126953e+003;4.4561538086e+003;4.4489741211e+003;4.4435898438e+003;4.4389741211e+003;4.4385898438e+003;4.4239741211e+003;4.4387177734e+003;4.4325639648e+003;4.4414101563e+003;4.4461538086e+003;
1.9921875000e+000;4.4321796875e+003;4.4274360352e+003;4.4289741211e+003;4.4197436523e+003;4.4464101563e+003;4.4410258789e+003;4.4361538086e+003;4.4238461914e+003;4.4217949219e+003;4.4030771484e+003;4.4238461914e+003;4.4147436523e+003;4.4292309570e+003;4.4316665039e+003;
2.0000000000e+000;4.4562822266e+003;4.4556411133e+003;4.4515385742e+003;4.4429487305e+003;4.4639741211e+003;4.4626923828e+003;4.4584614258e+003;4.4467949219e+003;4.4419228516e+003;4.4252563477e+003;4.4456411133e+003;4.4371796875e+003;4.4521796875e+003;4.4537177734e+003;
2.0078125000e+000;4.4001284180e+003;4.4039741211e+003;4.4053847656e+003;4.3992309570e+003;4.4094873047e+003;4.4171796875e+003;4.4071796875e+003;4.3921796875e+003;4.3803847656e+003;4.3770512695e+003;4.3920512695e+003;4.3875639648e+003;4.3998715820e+003;4.4030771484e+003;
2.0156250000e+000;4.3908974609e+003;4.3920512695e+003;4.3941025391e+003;4.3905126953e+003;4.4001284180e+003;4.4074360352e+003;4.3953847656e+003;4.3789741211e+003;4.3680771484e+003;4.3662822266e+003;4.3820512695e+003;4.3744873047e+003;4.3902563477e+003;4.3924360352e+003;
2.0234375000e+000;4.3856411133e+003;4.3835898438e+003;4.3861538086e+003;4.3834614258e+003;4.3901284180e+003;4.3994873047e+003;4.3860258789e+003;4.3708974609e+003;4.3612822266e+003;4.3579487305e+003;4.3753847656e+003;4.3661538086e+003;4.3835898438e+003;4.3853847656e+003;
2.0312500000e+000;4.3660258789e+003;4.3617949219e+003;4.3666665039e+003;4.3633334961e+003;4.3644873047e+003;4.3787177734e+003;4.3644873047e+003;4.3501284180e+003;4.3412822266e+003;4.3341025391e+003;4.3542309570e+003;4.3467949219e+003;4.3624360352e+003;4.3653847656e+003;
2.0390625000e+000;4.3723076172e+003;4.3748715820e+003;4.3726923828e+003;4.3757690430e+003;4.3801284180e+003;4.3824360352e+003;4.3737177734e+003;4.3575639648e+003;4.3523076172e+003;4.3442309570e+003;4.3639741211e+003;4.3566665039e+003;4.3753847656e+003;4.3752563477e+003;
2.0468750000e+000;4.3583334961e+003;4.3584614258e+003;4.3556411133e+003;4.3615385742e+003;4.3666665039e+003;4.3697436523e+003;4.3607690430e+003;4.3501284180e+003;4.3448715820e+003;4.3352563477e+003;4.3512822266e+003;4.3411538086e+003;4.3628203125e+003;4.3624360352e+003;
2.0546875000e+000;4.3823076172e+003;4.3732050781e+003;4.3811538086e+003;4.3748715820e+003;4.3755126953e+003;4.3850000000e+003;4.3833334961e+003;4.3788461914e+003;4.3761538086e+003;4.3570512695e+003;4.3721796875e+003;4.3585898438e+003;4.3792309570e+003;4.3816665039e+003;
2.0625000000e+000;4.4071796875e+003;4.3923076172e+003;4.4147436523e+003;4.3993588867e+003;4.4066665039e+003;4.4029487305e+003;4.4038461914e+003;4.4166665039e+003;4.4160258789e+003;4.4014101563e+003;4.4076923828e+003;4.3960258789e+003;4.4124360352e+003;4.4103847656e+003;
2.0703125000e+000;4.3673076172e+003;4.3483334961e+003;4.3746152344e+003;4.3600000000e+003;4.3614101563e+003;4.3651284180e+003;4.3666665039e+003;4.3766665039e+003;4.3739741211e+003;4.3573076172e+003;4.3655126953e+003;4.3556411133e+003;4.3716665039e+003;4.3697436523e+003;
2.0781250000e+000;4.3606411133e+003;4.3401284180e+003;4.3651284180e+003;4.3505126953e+003;4.3415385742e+003;4.3567949219e+003;4.3594873047e+003;4.3664101563e+003;4.3620512695e+003;4.3442309570e+003;4.3555126953e+003;4.3467949219e+003;4.3629487305e+003;4.3626923828e+003;
2.0859375000e+000;4.3766665039e+003;4.3582050781e+003;4.3789741211e+003;4.3641025391e+003;4.3439741211e+003;4.3703847656e+003;4.3725639648e+003;4.3791025391e+003;4.3748715820e+003;4.3579487305e+003;4.3706411133e+003;4.3630771484e+003;4.3785898438e+003;4.3810258789e+003;
2.0937500000e+000;4.3738461914e+003;4.3721796875e+003;4.3823076172e+003;4.3746152344e+003;4.3907690430e+003;4.3864101563e+003;4.3820512695e+003;4.3728203125e+003;4.3729487305e+003;4.3573076172e+003;4.3746152344e+003;4.3625639648e+003;4.3830771484e+003;4.3871796875e+003;
2.1015625000e+000;4.4084614258e+003;4.4061538086e+003;4.4134614258e+003;4.4048715820e+003;4.4302563477e+003;4.4175639648e+003;4.4139741211e+003;4.4043588867e+003;4.4038461914e+003;4.3892309570e+003;4.4076923828e+003;4.3933334961e+003;4.4160258789e+003;4.4176923828e+003;
2.1093750000e+000;4.3856411133e+003;4.3821796875e+003;4.3888461914e+003;4.3864101563e+003;4.3769228516e+003;4.3946152344e+003;4.3829487305e+003;4.3756411133e+003;4.3721796875e+003;4.3589741211e+003;4.3823076172e+003;4.3719228516e+003;4.3867949219e+003;4.3905126953e+003;
2.1171875000e+000;4.4117949219e+003;4.4194873047e+003;4.4194873047e+003;4.4123076172e+003;4.4214101563e+003;4.4306411133e+003;4.4203847656e+003;4.4193588867e+003;4.4119228516e+003;4.4023076172e+003;4.4201284180e+003;4.4070512695e+003;4.4216665039e+003;4.4283334961e+003;
2.1250000000e+000;4.3806411133e+003;4.3885898438e+003;4.3898715820e+003;4.3826923828e+003;4.3912822266e+003;4.4069228516e+003;4.3958974609e+003;4.3964101563e+003;4.3875639648e+003;4.3756411133e+003;4.3920512695e+003;4.3807690430e+003;4.3943588867e+003;4.4008974609e+003;
2.1328125000e+000;4.3893588867e+003;4.3889741211e+003;4.3942309570e+003;4.3941025391e+003;4.3838461914e+003;4.3993588867e+003;4.3888461914e+003;4.3865385742e+003;4.3814101563e+003;4.3648715820e+003;4.3875639648e+003;4.3798715820e+003;4.4010258789e+003;4.4016665039e+003;
2.1406250000e+000;4.3965385742e+003;4.3944873047e+003;4.4008974609e+003;4.3971796875e+003;4.3908974609e+003;4.3975639648e+003;4.3861538086e+003;4.3891025391e+003;4.3843588867e+003;4.3723076172e+003;4.3926923828e+003;4.3861538086e+003;4.4055126953e+003;4.4076923828e+003;
2.1484375000e+000;4.3067949219e+003;4.3065385742e+003;4.3152563477e+003;4.3097436523e+003;4.3026923828e+003;4.3088461914e+003;4.3026923828e+003;4.3076923828e+003;4.3033334961e+003;4.2942309570e+003;4.3160258789e+003;4.3042309570e+003;4.3187177734e+003;4.3228203125e+003;
2.1562500000e+000;4.3137177734e+003;4.3148715820e+003;4.3225639648e+003;4.3235898438e+003;4.3055126953e+003;4.3128203125e+003;4.3097436523e+003;4.3169228516e+003;4.3151284180e+003;4.3037177734e+003;4.3265385742e+003;4.3114101563e+003;4.3293588867e+003;4.3315385742e+003;
2.1640625000e+000;4.2969228516e+003;4.2984614258e+003;4.3087177734e+003;4.3171796875e+003;4.2856411133e+003;4.2900000000e+003;4.2869228516e+003;4.3025639648e+003;4.3010258789e+003;4.2838461914e+003;4.3065385742e+003;4.2938461914e+003;4.3129487305e+003;4.3191025391e+003;
2.1718750000e+000;4.2851284180e+003;4.2852563477e+003;4.2973076172e+003;4.3032050781e+003;4.2758974609e+003;4.2755126953e+003;4.2723076172e+003;4.2879487305e+003;4.2844873047e+003;4.2657690430e+003;4.2894873047e+003;4.2792309570e+003;4.2967949219e+003;4.3062822266e+003;
2.1796875000e+000;4.3083334961e+003;4.3058974609e+003;4.3189741211e+003;4.3189741211e+003;4.2974360352e+003;4.2939741211e+003;4.2920512695e+003;4.3064101563e+003;4.3020512695e+003;4.2847436523e+003;4.3084614258e+003;4.2992309570e+003;4.3150000000e+003;4.3255126953e+003;
2.1875000000e+000;4.3565385742e+003;4.3503847656e+003;4.3657690430e+003;4.3589741211e+003;4.3362822266e+003;4.3370512695e+003;4.3369228516e+003;4.3508974609e+003;4.3482050781e+003;4.3342309570e+003;4.3555126953e+003;4.3470512695e+003;4.3596152344e+003;4.3689741211e+003;
2.1953125000e+000;4.3203847656e+003;4.3119228516e+003;4.3391025391e+003;4.3252563477e+003;4.2985898438e+003;4.3247436523e+003;4.3211538086e+003;4.3206411133e+003;4.3210258789e+003;4.3024360352e+003;4.3146152344e+003;4.3152563477e+003;4.3179487305e+003;4.3303847656e+003;
2.2031250000e+000;4.2634614258e+003;4.2553847656e+003;4.2847436523e+003;4.2835898438e+003;4.2834614258e+003;4.2906411133e+003;4.2774360352e+003;4.2711538086e+003;4.2643588867e+003;4.2407690430e+003;4.2593588867e+003;4.2626923828e+003;4.2603847656e+003;4.2769228516e+003;
2.2109375000e+000;4.2483334961e+003;4.2424360352e+003;4.2669228516e+003;4.2687177734e+003;4.2579487305e+003;4.2796152344e+003;4.2657690430e+003;4.2538461914e+003;4.2466665039e+003;4.2261538086e+003;4.2429487305e+003;4.2471796875e+003;4.2450000000e+003;4.2591025391e+003;
2.2187500000e+000;4.2782050781e+003;4.2775639648e+003;4.2905126953e+003;4.2892309570e+003;4.2847436523e+003;4.3117949219e+003;4.2970512695e+003;4.2839741211e+003;4.2760258789e+003;4.2628203125e+003;4.2744873047e+003;4.2730771484e+003;4.2779487305e+003;4.2870512695e+003;
2.2265625000e+000;4.2024360352e+003;4.2003847656e+003;4.2192309570e+003;4.2210258789e+003;4.2191025391e+003;4.2452563477e+003;4.2324360352e+003;4.2185898438e+003;4.2138461914e+003;4.1924360352e+003;4.2150000000e+003;4.2041025391e+003;4.2173076172e+003;4.2184614258e+003;
2.2343750000e+000;4.2055126953e+003;4.2037177734e+003;4.2184614258e+003;4.2246152344e+003;4.2176923828e+003;4.2443588867e+003;4.2319228516e+003;4.2226923828e+003;4.2187177734e+003;4.2001284180e+003;4.2198715820e+003;4.2066665039e+003;4.2225639648e+003;4.2217949219e+003;
2.2421875000e+000;4.1891025391e+003;4.1914101563e+003;4.1983334961e+003;4.2141025391e+003;4.2060258789e+003;4.2269228516e+003;4.2130771484e+003;4.2065385742e+003;4.2039741211e+003;4.1871796875e+003;4.2028203125e+003;4.1919228516e+003;4.2069228516e+003;4.2076923828e+003;
2.2500000000e+000;4.2173076172e+003;4.2211538086e+003;4.2269228516e+003;4.2423076172e+003;4.2367949219e+003;4.2506411133e+003;4.2392309570e+003;4.2321796875e+003;4.2312822266e+003;4.2115385742e+003;4.2292309570e+003;4.2200000000e+003;4.2346152344e+003;4.2360258789e+003;
2.2578125000e+000;4.3226923828e+003;4.3203847656e+003;4.3330771484e+003;4.3301284180e+003;4.3157690430e+003;4.3288461914e+003;4.3241025391e+003;4.3375639648e+003;4.3397436523e+003;4.3141025391e+003;4.3355126953e+003;4.3248715820e+003;4.3415385742e+003;4.3378203125e+003;
2.2656250000e+000;4.3135898438e+003;4.3087177734e+003;4.3229487305e+003;4.3191025391e+003;4.3033334961e+003;4.3162822266e+003;4.3115385742e+003;4.3266665039e+003;4.3278203125e+003;4.3034614258e+003;4.3256411133e+003;4.3135898438e+003;4.3307690430e+003;4.3256411133e+003;
2.2734375000e+000;4.4314101563e+003;4.4247436523e+003;4.4401284180e+003;4.4301284180e+003;4.4376923828e+003;4.4142309570e+003;4.4214101563e+003;4.4379487305e+003;4.4402563477e+003;4.4253847656e+003;4.4416665039e+003;4.4307690430e+003;4.4469228516e+003;4.4400000000e+003;
2.2812500000e+000;4.4366665039e+003;4.4302563477e+003;4.4493588867e+003;4.4346152344e+003;4.4341025391e+003;4.4203847656e+003;4.4289741211e+003;4.4471796875e+003;4.4507690430e+003;4.4346152344e+003;4.4475639648e+003;4.4408974609e+003;4.4537177734e+003;4.4476923828e+003;
2.2890625000e+000;4.4321796875e+003;4.4302563477e+003;4.4467949219e+003;4.4320512695e+003;4.4114101563e+003;4.4298715820e+003;4.4351284180e+003;4.4438461914e+003;4.4471796875e+003;4.4255126953e+003;4.4388461914e+003;4.4352563477e+003;4.4491025391e+003;4.4421796875e+003;
2.2968750000e+000;4.4826923828e+003;4.4841025391e+003;4.4934614258e+003;4.4800000000e+003;4.4697436523e+003;4.4823076172e+003;4.4853847656e+003;4.4920512695e+003;4.4925639648e+003;4.4729487305e+003;4.4864101563e+003;4.4812822266e+003;4.4976923828e+003;4.4894873047e+003;
2.3046875000e+000;4.5317949219e+003;4.5342309570e+003;4.5397436523e+003;4.5252563477e+003;4.5364101563e+003;4.5307690430e+003;4.5307690430e+003;4.5405126953e+003;4.5365385742e+003;4.5216665039e+003;4.5335898438e+003;4.5282050781e+003;4.5435898438e+003;4.5357690430e+003;
2.3125000000e+000;4.5344873047e+003;4.5350000000e+003;4.5432050781e+003;4.5261538086e+003;4.5558974609e+003;4.5350000000e+003;4.5312822266e+003;4.5433334961e+003;4.5351284180e+003;4.5233334961e+003;4.5343588867e+003;4.5310258789e+003;4.5419228516e+003;4.5364101563e+003;
2.3203125000e+000;4.4655126953e+003;4.4665385742e+003;4.4766665039e+003;4.4661538086e+003;4.4739741211e+003;4.4788461914e+003;4.4716665039e+003;4.4614101563e+003;4.4608974609e+003;4.4434614258e+003;4.4546152344e+003;4.4553847656e+003;4.4600000000e+003;4.4638461914e+003;
2.3281250000e+000;4.4711538086e+003;4.4693588867e+003;4.4766665039e+003;4.4605126953e+003;4.4830771484e+003;4.4824360352e+003;4.4797436523e+003;4.4630771484e+003;4.4515385742e+003;4.4410258789e+003;4.4639741211e+003;4.4566665039e+003;4.4651284180e+003;4.4657690430e+003;
2.3359375000e+000;4.5016665039e+003;4.4994873047e+003;4.5066665039e+003;4.4893588867e+003;4.5105126953e+003;4.5092309570e+003;4.5071796875e+003;4.4923076172e+003;4.4824360352e+003;4.4744873047e+003;4.4967949219e+003;4.4874360352e+003;4.4970512695e+003;4.4980771484e+003;
2.3437500000e+000;4.4673076172e+003;4.4660258789e+003;4.4806411133e+003;4.4624360352e+003;4.4701284180e+003;4.4807690430e+003;4.4752563477e+003;4.4651284180e+003;4.4596152344e+003;4.4514101563e+003;4.4678203125e+003;4.4607690430e+003;4.4675639648e+003;4.4733334961e+003;
2.3515625000e+000;4.4891025391e+003;4.4893588867e+003;4.4985898438e+003;4.4865385742e+003;4.4953847656e+003;4.4946152344e+003;4.4992309570e+003;4.5094873047e+003;4.5050000000e+003;4.4874360352e+003;4.4998715820e+003;4.4876923828e+003;4.4998715820e+003;4.4919228516e+003;
2.3593750000e+000;4.4624360352e+003;4.4615385742e+003;4.4734614258e+003;4.4664101563e+003;4.4678203125e+003;4.4682050781e+003;4.4721796875e+003;4.4876923828e+003;4.4850000000e+003;4.4647436523e+003;4.4761538086e+003;4.4660258789e+003;4.4741025391e+003;4.4674360352e+003;
2.3671875000e+000;4.4271796875e+003;4.4257690430e+003;4.4391025391e+003;4.4315385742e+003;4.4335898438e+003;4.4292309570e+003;4.4330771484e+003;4.4494873047e+003;4.4480771484e+003;4.4252563477e+003;4.4389741211e+003;4.4317949219e+003;4.4370512695e+003;4.4355126953e+003;
2.3750000000e+000;4.4379487305e+003;4.4357690430e+003;4.4485898438e+003;4.4343588867e+003;4.4429487305e+003;4.4343588867e+003;4.4391025391e+003;4.4574360352e+003;4.4551284180e+003;4.4341025391e+003;4.4482050781e+003;4.4407690430e+003;4.4471796875e+003;4.4473076172e+003;
2.3828125000e+000;4.4179487305e+003;4.4094873047e+003;4.4292309570e+003;4.4011538086e+003;4.3929487305e+003;4.4066665039e+003;4.4130771484e+003;4.4312822266e+003;4.4292309570e+003;4.4078203125e+003;4.4251284180e+003;4.4180771484e+003;4.4206411133e+003;4.4251284180e+003;
2.3906250000e+000;4.4389741211e+003;4.4284614258e+003;4.4494873047e+003;4.4233334961e+003;4.4082050781e+003;4.4232050781e+003;4.4305126953e+003;4.4465385742e+003;4.4456411133e+003;4.4235898438e+003;4.4432050781e+003;4.4344873047e+003;4.4383334961e+003;4.4417949219e+003;
2.3984375000e+000;4.4673076172e+003;4.4551284180e+003;4.4767949219e+003;4.4543588867e+003;4.4414101563e+003;4.4480771484e+003;4.4534614258e+003;4.4710258789e+003;4.4706411133e+003;4.4492309570e+003;4.4696152344e+003;4.4587177734e+003;4.4655126953e+003;4.4669228516e+003;
2.4062500000e+000;4.4335898438e+003;4.4192309570e+003;4.4439741211e+003;4.4271796875e+003;4.4391025391e+003;4.4235898438e+003;4.4194873047e+003;4.4384614258e+003;4.4360258789e+003;4.4150000000e+003;4.4355126953e+003;4.4251284180e+003;4.4337177734e+003;4.4334614258e+003;
2.4140625000e+000;4.4178203125e+003;4.4042309570e+003;4.4266665039e+003;4.4061538086e+003;4.4202563477e+003;4.4219228516e+003;4.4180771484e+003;4.4164101563e+003;4.4108974609e+003;4.3917949219e+003;4.4161538086e+003;4.4115385742e+003;4.4155126953e+003;4.4169228516e+003;
2.4218750000e+000;4.4261538086e+003;4.4126923828e+003;4.4330771484e+003;4.4147436523e+003;4.4183334961e+003;4.4328203125e+003;4.4265385742e+003;4.4244873047e+003;4.4155126953e+003;4.3998715820e+003;4.4239741211e+003;4.4201284180e+003;4.4220512695e+003;4.4252563477e+003;
2.4296875000e+000;4.4050000000e+003;4.3915385742e+003;4.4116665039e+003;4.3966665039e+003;4.3951284180e+003;4.4165385742e+003;4.4069228516e+003;4.4035898438e+003;4.3908974609e+003;4.3775639648e+003;4.4017949219e+003;4.3985898438e+003;4.3987177734e+003;4.4046152344e+003;
2.4375000000e+000;4.3787177734e+003;4.3656411133e+003;4.3865385742e+003;4.3726923828e+003;4.3751284180e+003;4.3943588867e+003;4.3843588867e+003;4.3760258789e+003;4.3612822266e+003;4.3480771484e+003;4.3728203125e+003;4.3697436523e+003;4.3697436523e+003;4.3780771484e+003;
2.4453125000e+000;4.3870512695e+003;4.3752563477e+003;4.4015385742e+003;4.3798715820e+003;4.3834614258e+003;4.4050000000e+003;4.4029487305e+003;4.3896152344e+003;4.3687177734e+003;4.3533334961e+003;4.3755126953e+003;4.3761538086e+003;4.3700000000e+003;4.3848715820e+003;
2.4531250000e+000;4.3620512695e+003;4.3503847656e+003;4.3756411133e+003;4.3608974609e+003;4.3556411133e+003;4.3850000000e+003;4.3787177734e+003;4.3653847656e+003;4.3410258789e+003;4.3260258789e+003;4.3493588867e+003;4.3512822266e+003;4.3432050781e+003;4.3597436523e+003;
2.4609375000e+000;4.4084614258e+003;4.4001284180e+003;4.4164101563e+003;4.4050000000e+003;4.4074360352e+003;4.4196152344e+003;4.4105126953e+003;4.4121796875e+003;4.3912822266e+003;4.3792309570e+003;4.3952563477e+003;4.3911538086e+003;4.3926923828e+003;4.4070512695e+003;
2.4687500000e+000;4.3885898438e+003;4.3801284180e+003;4.3980771484e+003;4.3833334961e+003;4.3839741211e+003;4.3973076172e+003;4.3897436523e+003;4.3973076172e+003;4.3784614258e+003;4.3642309570e+003;4.3767949219e+003;4.3729487305e+003;4.3744873047e+003;4.3888461914e+003;
2.4765625000e+000;4.3455126953e+003;4.3365385742e+003;4.3565385742e+003;4.3410258789e+003;4.3351284180e+003;4.3521796875e+003;4.3491025391e+003;4.3569228516e+003;4.3402563477e+003;4.3193588867e+003;4.3341025391e+003;4.3310258789e+003;4.3326923828e+003;4.3451284180e+003;
2.4843750000e+000;4.3558974609e+003;4.3523076172e+003;4.3592309570e+003;4.3497436523e+003;4.3388461914e+003;4.3434614258e+003;4.3406411133e+003;4.3621796875e+003;4.3547436523e+003;4.3335898438e+003;4.3434614258e+003;4.3383334961e+003;4.3446152344e+003;4.3533334961e+003;
2.4921875000e+000;4.3446152344e+003;4.3394873047e+003;4.3448715820e+003;4.3412822266e+003;4.3135898438e+003;4.3332050781e+003;4.3293588867e+003;4.3482050781e+003;4.3419228516e+003;4.3196152344e+003;4.3278203125e+003;4.3216665039e+003;4.3326923828e+003;4.3378203125e+003;
2.5000000000e+000;4.3600000000e+003;4.3508974609e+003;4.3546152344e+003;4.3610258789e+003;4.3276923828e+003;4.3501284180e+003;4.3456411133e+003;4.3648715820e+003;4.3592309570e+003;4.3378203125e+003;4.3426923828e+003;4.3341025391e+003;4.3507690430e+003;4.3510258789e+003;
2.5078125000e+000;4.3465385742e+003;4.3379487305e+003;4.3429487305e+003;4.3507690430e+003;4.3328203125e+003;4.3394873047e+003;4.3343588867e+003;4.3539741211e+003;4.3483334961e+003;4.3270512695e+003;4.3326923828e+003;4.3255126953e+003;4.3393588867e+003;4.3410258789e+003;
2.5156250000e+000;4.3870512695e+003;4.3824360352e+003;4.3862822266e+003;4.3808974609e+003;4.4012822266e+003;4.3779487305e+003;4.3673076172e+003;4.3816665039e+003;4.3774360352e+003;4.3579487305e+003;4.3715385742e+003;4.3646152344e+003;4.3757690430e+003;4.3802563477e+003;
2.5234375000e+000;4.4119228516e+003;4.4037177734e+003;4.4106411133e+003;4.3991025391e+003;4.4133334961e+003;4.4026923828e+003;4.3893588867e+003;4.4041025391e+003;4.3984614258e+003;4.3824360352e+003;4.3948715820e+003;4.3870512695e+003;4.3982050781e+003;4.4023076172e+003;
2.5312500000e+000;4.3408974609e+003;4.3274360352e+003;4.3392309570e+003;4.3366665039e+003;4.3325639648e+003;4.3492309570e+003;4.3380771484e+003;4.3338461914e+003;4.3184614258e+003;4.3025639648e+003;4.3224360352e+003;4.3158974609e+003;4.3217949219e+003;4.3275639648e+003;
2.5390625000e+000;4.3578203125e+003;4.3484614258e+003;4.3521796875e+003;4.3546152344e+003;4.3557690430e+003;4.3650000000e+003;4.3580771484e+003;4.3502563477e+003;4.3329487305e+003;4.3165385742e+003;4.3392309570e+003;4.3317949219e+003;4.3393588867e+003;4.3437177734e+003;
2.5468750000e+000;4.3706411133e+003;4.3651284180e+003;4.3652563477e+003;4.3647436523e+003;4.3682050781e+003;4.3796152344e+003;4.3753847656e+003;4.3714101563e+003;4.3506411133e+003;4.3329487305e+003;4.3541025391e+003;4.3476923828e+003;4.3557690430e+003;4.3567949219e+003;
2.5546875000e+000;4.3457690430e+003;4.3401284180e+003;4.3465385742e+003;4.3424360352e+003;4.3414101563e+003;4.3620512695e+003;4.3576923828e+003;4.3521796875e+003;4.3300000000e+003;4.3097436523e+003;4.3310258789e+003;4.3253847656e+003;4.3320512695e+003;4.3323076172e+003;
2.5625000000e+000;4.3393588867e+003;4.3343588867e+003;4.3457690430e+003;4.3401284180e+003;4.3362822266e+003;4.3614101563e+003;4.3580771484e+003;4.3489741211e+003;4.3265385742e+003;4.3048715820e+003;4.3271796875e+003;4.3201284180e+003;4.3271796875e+003;4.3261538086e+003;
2.5703125000e+000;4.3637177734e+003;4.3602563477e+003;4.3725639648e+003;4.3671796875e+003;4.3635898438e+003;4.3862822266e+003;4.3846152344e+003;4.3747436523e+003;4.3532050781e+003;4.3326923828e+003;4.3552563477e+003;4.3452563477e+003;4.3542309570e+003;4.3516665039e+003;
2.5781250000e+000;4.3520512695e+003;4.3529487305e+003;4.3605126953e+003;4.3528203125e+003;4.3479487305e+003;4.3570512695e+003;4.3573076172e+003;4.3606411133e+003;4.3452563477e+003;4.3284614258e+003;4.3441025391e+003;4.3391025391e+003;4.3438461914e+003;4.3476923828e+003;
2.5859375000e+000;4.3676923828e+003;4.3670512695e+003;4.3710258789e+003;4.3733334961e+003;4.3594873047e+003;4.3582050781e+003;4.3558974609e+003;4.3732050781e+003;4.3602563477e+003;4.3439741211e+003;4.3584614258e+003;4.3520512695e+003;4.3565385742e+003;4.3623076172e+003;
2.5937500000e+000;4.3498715820e+003;4.3487177734e+003;4.3517949219e+003;4.3588461914e+003;4.3329487305e+003;4.3412822266e+003;4.3394873047e+003;4.3547436523e+003;4.3400000000e+003;4.3232050781e+003;4.3417949219e+003;4.3350000000e+003;4.3424360352e+003;4.3475639648e+003;
2.6015625000e+000;4.3779487305e+003;4.3811538086e+003;4.3817949219e+003;4.3730771484e+003;4.3412822266e+003;4.3612822266e+003;4.3634614258e+003;4.3801284180e+003;4.3688461914e+003;4.3524360352e+003;4.3734614258e+003;4.3673076172e+003;4.3773076172e+003;4.3823076172e+003;
2.6093750000e+000;4.3761538086e+003;4.3819228516e+003;4.3826923828e+003;4.3632050781e+003;4.3411538086e+003;4.3587177734e+003;4.3600000000e+003;4.3778203125e+003;4.3698715820e+003;4.3532050781e+003;4.3721796875e+003;4.3703847656e+003;4.3757690430e+003;4.3829487305e+003;
2.6171875000e+000;4.3787177734e+003;4.3865385742e+003;4.3817949219e+003;4.3776923828e+003;4.3894873047e+003;4.3730771484e+003;4.3697436523e+003;4.3752563477e+003;4.3664101563e+003;4.3489741211e+003;4.3648715820e+003;4.3724360352e+003;4.3691025391e+003;4.3769228516e+003;
2.6250000000e+000;4.3750000000e+003;4.3826923828e+003;4.3797436523e+003;4.3825639648e+003;4.3729487305e+003;4.3803847656e+003;4.3685898438e+003;4.3807690430e+003;4.3691025391e+003;4.3537177734e+003;4.3742309570e+003;4.3664101563e+003;4.3682050781e+003;4.3801284180e+003;
2.6328125000e+000;4.3419228516e+003;4.3471796875e+003;4.3487177734e+003;4.3432050781e+003;4.3356411133e+003;4.3515385742e+003;4.3382050781e+003;4.3458974609e+003;4.3352563477e+003;4.3173076172e+003;4.3419228516e+003;4.3320512695e+003;4.3364101563e+003;4.3500000000e+003;
2.6406250000e+000;4.3398715820e+003;4.3428203125e+003;4.3471796875e+003;4.3335898438e+003;4.3365385742e+003;4.3496152344e+003;4.3375639648e+003;4.3403847656e+003;4.3302563477e+003;4.3103847656e+003;4.3375639648e+003;4.3271796875e+003;4.3352563477e+003;4.3480771484e+003;
2.6484375000e+000;4.3544873047e+003;4.3598715820e+003;4.3638461914e+003;4.3494873047e+003;4.3608974609e+003;4.3648715820e+003;4.3566665039e+003;4.3574360352e+003;4.3464101563e+003;4.3264101563e+003;4.3502563477e+003;4.3430771484e+003;4.3528203125e+003;4.3624360352e+003;
2.6562500000e+000;4.3260258789e+003;4.3346152344e+003;4.3371796875e+003;4.3287177734e+003;4.3308974609e+003;4.3411538086e+003;4.3329487305e+003;4.3325639648e+003;4.3210258789e+003;4.3010258789e+003;4.3226923828e+003;4.3175639648e+003;4.3247436523e+003;4.3341025391e+003;
2.6640625000e+000;4.2960258789e+003;4.3053847656e+003;4.3065385742e+003;4.3037177734e+003;4.2964101563e+003;4.3147436523e+003;4.3061538086e+003;4.3032050781e+003;4.2914101563e+003;4.2711538086e+003;4.2928203125e+003;4.2875639648e+003;4.2934614258e+003;4.3023076172e+003;
2.6718750000e+000;4.2766665039e+003;4.2778203125e+003;4.2858974609e+003;4.2806411133e+003;4.2735898438e+003;4.3000000000e+003;4.2948715820e+003;4.2910258789e+003;4.2761538086e+003;4.2547436523e+003;4.2784614258e+003;4.2674360352e+003;4.2741025391e+003;4.2808974609e+003;
2.6796875000e+000;4.3128203125e+003;4.3106411133e+003;4.3216665039e+003;4.3106411133e+003;4.3083334961e+003;4.3285898438e+003;4.3279487305e+003;4.3217949219e+003;4.3103847656e+003;4.2891025391e+003;4.3142309570e+003;4.3017949219e+003;4.3084614258e+003;4.3166665039e+003;
2.6875000000e+000;4.3341025391e+003;4.3285898438e+003;4.3391025391e+003;4.3329487305e+003;4.3235898438e+003;4.3419228516e+003;4.3374360352e+003;4.3444873047e+003;4.3405126953e+003;4.3202563477e+003;4.3432050781e+003;4.3357690430e+003;4.3356411133e+003;4.3417949219e+003;
2.6953125000e+000;4.3396152344e+003;4.3529487305e+003;4.3452563477e+003;4.3492309570e+003;4.3239741211e+003;4.3455126953e+003;4.3446152344e+003;4.3476923828e+003;4.3483334961e+003;4.3315385742e+003;4.3517949219e+003;4.3382050781e+003;4.3466665039e+003;4.3489741211e+003;
2.7031250000e+000;4.3602563477e+003;4.3726923828e+003;4.3675639648e+003;4.3643588867e+003;4.3532050781e+003;4.3602563477e+003;4.3576923828e+003;4.3643588867e+003;4.3685898438e+003;4.3537177734e+003;4.3702563477e+003;4.3557690430e+003;4.3648715820e+003;4.3692309570e+003;
2.7109375000e+000;4.3192309570e+003;4.3201284180e+003;4.3283334961e+003;4.3170512695e+003;4.3314101563e+003;4.3232050781e+003;4.3103847656e+003;4.3141025391e+003;4.3189741211e+003;4.2998715820e+003;4.3188461914e+003;4.3134614258e+003;4.3156411133e+003;4.3278203125e+003;
2.7187500000e+000;4.3432050781e+003;4.3438461914e+003;4.3503847656e+003;4.3416665039e+003;4.3492309570e+003;4.3444873047e+003;4.3334614258e+003;4.3379487305e+003;4.3408974609e+003;4.3239741211e+003;4.3429487305e+003;4.3365385742e+003;4.3401284180e+003;4.3530771484e+003;
2.7265625000e+000;4.3328203125e+003;4.3379487305e+003;4.3424360352e+003;4.3361538086e+003;4.3264101563e+003;4.3350000000e+003;4.3261538086e+003;4.3351284180e+003;4.3371796875e+003;4.3208974609e+003;4.3348715820e+003;4.3260258789e+003;4.3300000000e+003;4.3461538086e+003;
2.7343750000e+000;4.2983334961e+003;4.3069228516e+003;4.3102563477e+003;4.3038461914e+003;4.2943588867e+003;4.3071796875e+003;4.2975639648e+003;4.3037177734e+003;4.3058974609e+003;4.2856411133e+003;4.2992309570e+003;4.2893588867e+003;4.2935898438e+003;4.3103847656e+003;
2.7421875000e+000;4.2734614258e+003;4.2838461914e+003;4.2861538086e+003;4.2898715820e+003;4.2916665039e+003;4.3023076172e+003;4.2929487305e+003;4.2921796875e+003;4.2901284180e+003;4.2708974609e+003;4.2837177734e+003;4.2676923828e+003;4.2788461914e+003;4.2911538086e+003;
2.7500000000e+000;4.2365385742e+003;4.2423076172e+003;4.2478203125e+003;4.2534614258e+003;4.2507690430e+003;4.2667949219e+003;4.2573076172e+003;4.2561538086e+003;4.2529487305e+003;4.2302563477e+003;4.2451284180e+003;4.2326923828e+003;4.2406411133e+003;4.2537177734e+003;
2.7578125000e+000;4.2266665039e+003;4.2319228516e+003;4.2339741211e+003;4.2411538086e+003;4.2348715820e+003;4.2557690430e+003;4.2471796875e+003;4.2424360352e+003;4.2394873047e+003;4.2142309570e+003;4.2311538086e+003;4.2214101563e+003;4.2292309570e+003;4.2423076172e+003;
2.7656250000e+000;4.2510258789e+003;4.2598715820e+003;4.2544873047e+003;4.2614101563e+003;4.2532050781e+003;4.2758974609e+003;4.2687177734e+003;4.2617949219e+003;4.2607690430e+003;4.2355126953e+003;4.2528203125e+003;4.2442309570e+003;4.2535898438e+003;4.2664101563e+003;
2.7734375000e+000;4.2523076172e+003;4.2617949219e+003;4.2623076172e+003;4.2588461914e+003;4.2516665039e+003;4.2617949219e+003;4.2621796875e+003;4.2598715820e+003;4.2533334961e+003;4.2348715820e+003;4.2544873047e+003;4.2487177734e+003;4.2501284180e+003;4.2644873047e+003;
2.7812500000e+000;4.2773076172e+003;4.2811538086e+003;4.2835898438e+003;4.2752563477e+003;4.2653847656e+003;4.2779487305e+003;4.2806411133e+003;4.2798715820e+003;4.2719228516e+003;4.2537177734e+003;4.2743588867e+003;4.2666665039e+003;4.2711538086e+003;4.2842309570e+003;
2.7890625000e+000;4.2351284180e+003;4.2279487305e+003;4.2379487305e+003;4.2366665039e+003;4.1888461914e+003;4.2362822266e+003;4.2289741211e+003;4.2350000000e+003;4.2305126953e+003;4.2112822266e+003;4.2296152344e+003;4.2253847656e+003;4.2300000000e+003;4.2471796875e+003;
2.7968750000e+000;4.2197436523e+003;4.2147436523e+003;4.2233334961e+003;4.2308974609e+003;4.1871796875e+003;4.2242309570e+003;4.2156411133e+003;4.2170512695e+003;4.2129487305e+003;4.1935898438e+003;4.2150000000e+003;4.2114101563e+003;4.2155126953e+003;4.2330771484e+003;
2.8046875000e+000;4.3198715820e+003;4.3258974609e+003;4.3211538086e+003;4.3323076172e+003;4.3298715820e+003;4.3153847656e+003;4.3137177734e+003;4.3138461914e+003;4.3070512695e+003;4.2937177734e+003;4.3166665039e+003;4.3097436523e+003;4.3146152344e+003;4.3314101563e+003;
2.8125000000e+000;3.9332050781e+003;3.9302563477e+003;3.9476923828e+003;3.9510256348e+003;3.9250000000e+003;3.9673076172e+003;3.9453845215e+003;3.9511538086e+003;3.9478205566e+003;3.9156411133e+003;3.9358974609e+003;3.9317949219e+003;3.9308974609e+003;3.9507692871e+003;
2.8203125000e+000;3.8355129395e+003;3.8264101563e+003;3.8533332520e+003;3.8635898438e+003;3.8261538086e+003;3.8829487305e+003;3.8578205566e+003;3.8585898438e+003;3.8543588867e+003;3.8153845215e+003;3.8380769043e+003;3.8348718262e+003;3.8319230957e+003;3.8530769043e+003;
2.8281250000e+000;3.7461538086e+003;3.7383332520e+003;3.7746154785e+003;3.7998718262e+003;3.7542307129e+003;3.8165385742e+003;3.7944870605e+003;3.7878205566e+003;3.7764101563e+003;3.7307692871e+003;3.7532050781e+003;3.7519230957e+003;3.7411538086e+003;3.7647436523e+003;
2.8359375000e+000;3.7150000000e+003;3.7133332520e+003;3.7471794434e+003;3.7779487305e+003;3.7305129395e+003;3.7943588867e+003;3.7738461914e+003;3.7652563477e+003;3.7524357910e+003;3.7050000000e+003;3.7255129395e+003;3.7230769043e+003;3.7130769043e+003;3.7342307129e+003;
2.8437500000e+000;3.6212819824e+003;3.6234614258e+003;3.6450000000e+003;3.6787180176e+003;3.6256411133e+003;3.7071794434e+003;3.6791025391e+003;3.6735898438e+003;3.6684614258e+003;3.6132050781e+003;3.6310256348e+003;3.6302563477e+003;3.6289743652e+003;3.6446154785e+003;
2.8515625000e+000;3.6029487305e+003;3.6014101563e+003;3.6237180176e+003;3.6578205566e+003;3.6023076172e+003;3.6867949219e+003;3.6580769043e+003;3.6485898438e+003;3.6447436523e+003;3.5888461914e+003;3.6092307129e+003;3.6117949219e+003;3.6091025391e+003;3.6279487305e+003;
2.8593750000e+000;3.6161538086e+003;3.6120512695e+003;3.6352563477e+003;3.6712819824e+003;3.6139743652e+003;3.6938461914e+003;3.6688461914e+003;3.6530769043e+003;3.6496154785e+003;3.5971794434e+003;3.6198718262e+003;3.6235898438e+003;3.6198718262e+003;3.6411538086e+003;
2.8671875000e+000;3.6485898438e+003;3.6466667480e+003;3.6769230957e+003;3.7169230957e+003;3.6447436523e+003;3.7083332520e+003;3.6866667480e+003;3.6726923828e+003;3.6710256348e+003;3.6283332520e+003;3.6534614258e+003;3.6678205566e+003;3.6550000000e+003;3.6767949219e+003;
2.8750000000e+000;3.6943588867e+003;3.6946154785e+003;3.7188461914e+003;3.7583332520e+003;3.6860256348e+003;3.7487180176e+003;3.7287180176e+003;3.7129487305e+003;3.7107692871e+003;3.6657692871e+003;3.6965385742e+003;3.7100000000e+003;3.6967949219e+003;3.7216667480e+003;
2.8828125000e+000;3.7251281738e+003;3.7264101563e+003;3.7478205566e+003;3.7779487305e+003;3.7247436523e+003;3.7711538086e+003;3.7520512695e+003;3.7451281738e+003;3.7382050781e+003;3.7070512695e+003;3.7291025391e+003;3.7416667480e+003;3.7226923828e+003;3.7484614258e+003;
2.8906250000e+000;3.6441025391e+003;3.6410256348e+003;3.6708974609e+003;3.7000000000e+003;3.6401281738e+003;3.6974357910e+003;3.6760256348e+003;3.6679487305e+003;3.6593588867e+003;3.6283332520e+003;3.6482050781e+003;3.6632050781e+003;3.6435898438e+003;3.6670512695e+003;
2.8984375000e+000;3.5603845215e+003;3.5505129395e+003;3.5891025391e+003;3.6216667480e+003;3.5314101563e+003;3.6243588867e+003;3.6021794434e+003;3.5916667480e+003;3.5825642090e+003;3.5426923828e+003;3.5682050781e+003;3.5832050781e+003;3.5655129395e+003;3.5883332520e+003;
2.9062500000e+000;3.5487180176e+003;3.5380769043e+003;3.5771794434e+003;3.6135898438e+003;3.5157692871e+003;3.6165385742e+003;3.5953845215e+003;3.5856411133e+003;3.5760256348e+003;3.5315385742e+003;3.5614101563e+003;3.5752563477e+003;3.5560256348e+003;3.5821794434e+003;
2.9140625000e+000;3.5326923828e+003;3.5300000000e+003;3.5593588867e+003;3.6144870605e+003;3.5557692871e+003;3.6057692871e+003;3.5878205566e+003;3.5761538086e+003;3.5652563477e+003;3.5162819824e+003;3.5491025391e+003;3.5598718262e+003;3.5407692871e+003;3.5671794434e+003;
2.9218750000e+000;3.5197436523e+003;3.5224357910e+003;3.5462819824e+003;3.5964101563e+003;3.5392307129e+003;3.5962819824e+003;3.5729487305e+003;3.5720512695e+003;3.5628205566e+003;3.5170512695e+003;3.5393588867e+003;3.5501281738e+003;3.5361538086e+003;3.5534614258e+003;
2.9296875000e+000;3.4828205566e+003;3.4839743652e+003;3.5096154785e+003;3.5588461914e+003;3.4917949219e+003;3.5632050781e+003;3.5401281738e+003;3.5341025391e+003;3.5264101563e+003;3.4783332520e+003;3.5024357910e+003;3.5128205566e+003;3.5010256348e+003;3.5188461914e+003;
2.9375000000e+000;3.4853845215e+003;3.4873076172e+003;3.5076923828e+003;3.5715385742e+003;3.4961538086e+003;3.5624357910e+003;3.5382050781e+003;3.5310256348e+003;3.5264101563e+003;3.4801281738e+003;3.5033332520e+003;3.5083332520e+003;3.5038461914e+003;3.5244870605e+003;
2.9453125000e+000;3.4606411133e+003;3.4624357910e+003;3.4839743652e+003;3.5487180176e+003;3.4712819824e+003;3.5403845215e+003;3.5107692871e+003;3.5078205566e+003;3.5032050781e+003;3.4570512695e+003;3.4779487305e+003;3.4853845215e+003;3.4769230957e+003;3.5007692871e+003;
2.9531250000e+000;3.4393588867e+003;3.4387180176e+003;3.4628205566e+003;3.5230769043e+003;3.4460256348e+003;3.5208974609e+003;3.4878205566e+003;3.4848718262e+003;3.4803845215e+003;3.4338461914e+003;3.4537180176e+003;3.4641025391e+003;3.4523076172e+003;3.4785898438e+003;
2.9609375000e+000;3.4555129395e+003;3.4511538086e+003;3.4769230957e+003;3.5297436523e+003;3.4575642090e+003;3.5339743652e+003;3.5011538086e+003;3.4965385742e+003;3.4924357910e+003;3.4467949219e+003;3.4662819824e+003;3.4775642090e+003;3.4661538086e+003;3.4923076172e+003;
2.9687500000e+000;3.4916667480e+003;3.4900000000e+003;3.5093588867e+003;3.5737180176e+003;3.4943588867e+003;3.5648718262e+003;3.5394870605e+003;3.5357692871e+003;3.5289743652e+003;3.4888461914e+003;3.5078205566e+003;3.5156411133e+003;3.5091025391e+003;3.5301281738e+003;
2.9765625000e+000;3.5616667480e+003;3.5542307129e+003;3.5853845215e+003;3.6329487305e+003;3.5702563477e+003;3.6175642090e+003;3.6006411133e+003;3.5969230957e+003;3.5860256348e+003;3.5541025391e+003;3.5743588867e+003;3.5883332520e+003;3.5751281738e+003;3.5987180176e+003;
2.9843750000e+000;3.5716667480e+003;3.5634614258e+003;3.5951281738e+003;3.6401281738e+003;3.5830769043e+003;3.6278205566e+003;3.6150000000e+003;3.6038461914e+003;3.5916667480e+003;3.5612819824e+003;3.5824357910e+003;3.5970512695e+003;3.5833332520e+003;3.6064101563e+003;
2.9921875000e+000;3.6667949219e+003;3.6669230957e+003;3.6844870605e+003;3.7326923828e+003;3.6703845215e+003;3.7175642090e+003;3.7117949219e+003;3.6916667480e+003;3.6828205566e+003;3.6566667480e+003;3.6747436523e+003;3.6864101563e+003;3.6774357910e+003;3.6956411133e+003;
3.0000000000e+000;3.6358974609e+003;3.6360256348e+003;3.6543588867e+003;3.7029487305e+003;3.6373076172e+003;3.6864101563e+003;3.6691025391e+003;3.6561538086e+003;3.6502563477e+003;3.6216667480e+003;3.6367949219e+003;3.6558974609e+003;3.6423076172e+003;3.6594870605e+003;
3.0078125000e+000;3.7030769043e+003;3.7043588867e+003;3.7220512695e+003;3.7658974609e+003;3.7219230957e+003;3.7496154785e+003;3.7343588867e+003;3.7198718262e+003;3.7132050781e+003;3.6858974609e+003;3.7038461914e+003;3.7201281738e+003;3.7096154785e+003;3.7233332520e+003;
3.0156250000e+000;3.7706411133e+003;3.7723076172e+003;3.7928205566e+003;3.8308974609e+003;3.8030769043e+003;3.8134614258e+003;3.7964101563e+003;3.7965385742e+003;3.7926923828e+003;3.7687180176e+003;3.7788461914e+003;3.7896154785e+003;3.7846154785e+003;3.7917949219e+003;
3.0234375000e+000;3.6721794434e+003;3.6724357910e+003;3.6962819824e+003;3.7403845215e+003;3.6989743652e+003;3.7225642090e+003;3.7000000000e+003;3.7069230957e+003;3.7050000000e+003;3.6771794434e+003;3.6834614258e+003;3.6948718262e+003;3.6888461914e+003;3.6958974609e+003;
3.0312500000e+000;3.3117949219e+003;3.3135898438e+003;3.3367949219e+003;3.4062819824e+003;3.3347436523e+003;3.3920512695e+003;3.3562819824e+003;3.3574357910e+003;3.3552563477e+003;3.3088461914e+003;3.3220512695e+003;3.3461538086e+003;3.3244870605e+003;3.3387180176e+003;
3.0390625000e+000;3.2515385742e+003;3.2533332520e+003;3.2801281738e+003;3.3496154785e+003;3.2794870605e+003;3.3417949219e+003;3.3035898438e+003;3.3001281738e+003;3.2964101563e+003;3.2474357910e+003;3.2632050781e+003;3.2921794434e+003;3.2655129395e+003;3.2808974609e+003;
3.0468750000e+000;3.1698718262e+003;3.1669230957e+003;3.2020512695e+003;3.2702563477e+003;3.1989743652e+003;3.2769230957e+003;3.2358974609e+003;3.2252563477e+003;3.2226923828e+003;3.1700000000e+003;3.1866667480e+003;3.2130769043e+003;3.1924357910e+003;3.2042307129e+003;
3.0546875000e+000;3.1455129395e+003;3.1407692871e+003;3.1752563477e+003;3.2466667480e+003;3.1712819824e+003;3.2553845215e+003;3.2153845215e+003;3.2050000000e+003;3.2048718262e+003;3.1498718262e+003;3.1658974609e+003;3.1846154785e+003;3.1717949219e+003;3.1811538086e+003;
3.0625000000e+000;3.0189743652e+003;3.0191025391e+003;3.0503845215e+003;3.1397436523e+003;3.0465385742e+003;3.1355129395e+003;3.0974357910e+003;3.0905129395e+003;3.0869230957e+003;3.0271794434e+003;3.0400000000e+003;3.0587180176e+003;3.0402563477e+003;3.0547436523e+003;
3.0703125000e+000;2.9923076172e+003;2.9923076172e+003;3.0248718262e+003;3.1164101563e+003;3.0233332520e+003;3.1105129395e+003;3.0705129395e+003;3.0605129395e+003;3.0541025391e+003;2.9942307129e+003;3.0065385742e+003;3.0330769043e+003;3.0092307129e+003;3.0243588867e+003;
3.0781250000e+000;2.9932050781e+003;2.9906411133e+003;3.0246154785e+003;3.1151281738e+003;3.0233332520e+003;3.1102563477e+003;3.0684614258e+003;3.0561538086e+003;3.0489743652e+003;2.9892307129e+003;3.0025642090e+003;3.0339743652e+003;3.0076923828e+003;3.0212819824e+003;
3.0859375000e+000;2.9939743652e+003;2.9882050781e+003;3.0233332520e+003;3.1124357910e+003;3.0160256348e+003;3.1094870605e+003;3.0666667480e+003;3.0541025391e+003;3.0478205566e+003;2.9873076172e+003;3.0032050781e+003;3.0353845215e+003;3.0087180176e+003;3.0205129395e+003;
3.0937500000e+000;2.9303845215e+003;2.9285898438e+003;2.9646154785e+003;3.0546154785e+003;2.9392307129e+003;3.0441025391e+003;3.0084614258e+003;2.9846154785e+003;2.9815385742e+003;2.9242307129e+003;2.9467949219e+003;2.9752563477e+003;2.9500000000e+003;2.9689743652e+003;
3.1015625000e+000;2.9557692871e+003;2.9525642090e+003;2.9908974609e+003;3.0774357910e+003;2.9812819824e+003;3.0655129395e+003;3.0283332520e+003;3.0057692871e+003;3.0064101563e+003;2.9529487305e+003;2.9707692871e+003;3.0008974609e+003;2.9760256348e+003;2.9933332520e+003;
3.1093750000e+000;2.8801281738e+003;2.8748718262e+003;2.9150000000e+003;3.0058974609e+003;2.9185898438e+003;3.0023076172e+003;2.9579487305e+003;2.9287180176e+003;2.9367949219e+003;2.8815385742e+003;2.8993588867e+003;2.9280769043e+003;2.9076923828e+003;2.9162819824e+003;
3.1171875000e+000;2.9242307129e+003;2.9146154785e+003;2.9469230957e+003;3.0457692871e+003;2.9353845215e+003;3.0308974609e+003;2.9910256348e+003;2.9666667480e+003;2.9747436523e+003;2.9246154785e+003;2.9426923828e+003;2.9683332520e+003;2.9512819824e+003;2.9602563477e+003;
3.1250000000e+000;2.8866667480e+003;2.8762819824e+003;2.9102563477e+003;3.0103845215e+003;2.9023076172e+003;2.9988461914e+003;2.9548718262e+003;2.9333332520e+003;2.9402563477e+003;2.8897436523e+003;2.9069230957e+003;2.9347436523e+003;2.9135898438e+003;2.9242307129e+003;
3.1328125000e+000;2.8651281738e+003;2.8570512695e+003;2.8967949219e+003;2.9806411133e+003;2.8902563477e+003;2.9906411133e+003;2.9511538086e+003;2.9264101563e+003;2.9283332520e+003;2.8761538086e+003;2.8942307129e+003;2.9139743652e+003;2.9005129395e+003;2.9046154785e+003;
3.1406250000e+000;2.8107692871e+003;2.7971794434e+003;2.8453845215e+003;2.9374357910e+003;2.8210256348e+003;2.9375642090e+003;2.8992307129e+003;2.8738461914e+003;2.8793588867e+003;2.8229487305e+003;2.8335898438e+003;2.8632050781e+003;2.8365385742e+003;2.8532050781e+003;
3.1484375000e+000;2.8162819824e+003;2.8042307129e+003;2.8470512695e+003;2.9467949219e+003;2.8348718262e+003;2.9442307129e+003;2.9046154785e+003;2.8780769043e+003;2.8850000000e+003;2.8255129395e+003;2.8356411133e+003;2.8670512695e+003;2.8397436523e+003;2.8561538086e+003;
3.1562500000e+000;2.8446154785e+003;2.8341025391e+003;2.8720512695e+003;2.9738461914e+003;2.8730769043e+003;2.9721794434e+003;2.9317949219e+003;2.9078205566e+003;2.9146154785e+003;2.8547436523e+003;2.8629487305e+003;2.8944870605e+003;2.8692307129e+003;2.8821794434e+003;
3.1640625000e+000;2.8448718262e+003;2.8329487305e+003;2.8747436523e+003;2.9688461914e+003;2.8682050781e+003;2.9738461914e+003;2.9321794434e+003;2.9130769043e+003;2.9180769043e+003;2.8601281738e+003;2.8643588867e+003;2.8973076172e+003;2.8730769043e+003;2.8802563477e+003;
3.1718750000e+000;2.8542307129e+003;2.8464101563e+003;2.8867949219e+003;2.9774357910e+003;2.8532050781e+003;2.9760256348e+003;2.9397436523e+003;2.9178205566e+003;2.9291025391e+003;2.8691025391e+003;2.8743588867e+003;2.9050000000e+003;2.8819230957e+003;2.8865385742e+003;
3.1796875000e+000;2.8570512695e+003;2.8512819824e+003;2.8896154785e+003;2.9801281738e+003;2.8691025391e+003;2.9779487305e+003;2.9402563477e+003;2.9221794434e+003;2.9341025391e+003;2.8752563477e+003;2.8784614258e+003;2.9094870605e+003;2.8847436523e+003;2.8900000000e+003;
3.1875000000e+000;2.8419230957e+003;2.8355129395e+003;2.8751281738e+003;2.9650000000e+003;2.8707692871e+003;2.9634614258e+003;2.9232050781e+003;2.9053845215e+003;2.9170512695e+003;2.8594870605e+003;2.8626923828e+003;2.8947436523e+003;2.8684614258e+003;2.8741025391e+003;
3.1953125000e+000;2.9021794434e+003;2.8910256348e+003;2.9308974609e+003;3.0188461914e+003;2.9362819824e+003;3.0110256348e+003;2.9703845215e+003;2.9441025391e+003;2.9587180176e+003;2.9075642090e+003;2.9166667480e+003;2.9439743652e+003;2.9233332520e+003;2.9273076172e+003;
3.2031250000e+000;2.9819230957e+003;2.9696154785e+003;3.0060256348e+003;3.0917949219e+003;3.0019230957e+003;3.0778205566e+003;3.0384614258e+003;3.0134614258e+003;3.0306411133e+003;2.9858974609e+003;2.9956411133e+003;3.0193588867e+003;3.0017949219e+003;3.0061538086e+003;
3.2109375000e+000;3.0276923828e+003;3.0144870605e+003;3.0496154785e+003;3.1314101563e+003;3.0319230957e+003;3.1143588867e+003;3.0751281738e+003;3.0551281738e+003;3.0732050781e+003;3.0341025391e+003;3.0429487305e+003;3.0662819824e+003;3.0473076172e+003;3.0543588867e+003;
3.2187500000e+000;2.9615385742e+003;2.9420512695e+003;2.9924357910e+003;3.0538461914e+003;2.9576923828e+003;3.0411538086e+003;3.0033332520e+003;2.9792307129e+003;2.9937180176e+003;2.9555129395e+003;2.9680769043e+003;3.0035898438e+003;2.9756411133e+003;2.9829487305e+003;
3.2265625000e+000;2.9538461914e+003;2.9350000000e+003;2.9851281738e+003;3.0492307129e+003;2.9484614258e+003;3.0343588867e+003;2.9957692871e+003;2.9738461914e+003;2.9882050781e+003;2.9501281738e+003;2.9610256348e+003;2.9967949219e+003;2.9692307129e+003;2.9789743652e+003;
3.2343750000e+000;3.0300000000e+003;3.0173076172e+003;3.0492307129e+003;3.1212819824e+003;3.0256411133e+003;3.1025642090e+003;3.0700000000e+003;3.0487180176e+003;3.0583332520e+003;3.0256411133e+003;3.0357692871e+003;3.0682050781e+003;3.0464101563e+003;3.0597436523e+003;
3.2421875000e+000;2.9619230957e+003;2.9552563477e+003;2.9844870605e+003;3.0600000000e+003;2.9674357910e+003;3.0470512695e+003;3.0101281738e+003;2.9924357910e+003;3.0012819824e+003;2.9673076172e+003;2.9679487305e+003;3.0043588867e+003;2.9770512695e+003;2.9880769043e+003;
3.2500000000e+000;2.9393588867e+003;2.9328205566e+003;2.9632050781e+003;3.0410256348e+003;2.9485898438e+003;3.0292307129e+003;2.9939743652e+003;2.9714101563e+003;2.9791025391e+003;2.9432050781e+003;2.9430769043e+003;2.9774357910e+003;2.9505129395e+003;2.9628205566e+003;
3.2578125000e+000;3.0088461914e+003;2.9947436523e+003;3.0273076172e+003;3.1025642090e+003;2.9902563477e+003;3.0891025391e+003;3.0566667480e+003;3.0416667480e+003;3.0480769043e+003;3.0166667480e+003;3.0034614258e+003;3.0353845215e+003;3.0107692871e+003;3.0217949219e+003;
3.2656250000e+000;3.1134614258e+003;3.1005129395e+003;3.1303845215e+003;3.1970512695e+003;3.1325642090e+003;3.1923076172e+003;3.1615385742e+003;3.1371794434e+003;3.1524357910e+003;3.1228205566e+003;3.1091025391e+003;3.1369230957e+003;3.1207692871e+003;3.1269230957e+003;
3.2734375000e+000;3.1782050781e+003;3.1653845215e+003;3.1950000000e+003;3.2584614258e+003;3.2087180176e+003;3.2520512695e+003;3.2229487305e+003;3.2028205566e+003;3.2184614258e+003;3.1924357910e+003;3.1792307129e+003;3.2039743652e+003;3.1892307129e+003;3.1938461914e+003;
3.2812500000e+000;3.1917949219e+003;3.1769230957e+003;3.2094870605e+003;3.2712819824e+003;3.2185898438e+003;3.2626923828e+003;3.2329487305e+003;3.2194870605e+003;3.2337180176e+003;3.2103845215e+003;3.1966667480e+003;3.2214101563e+003;3.2048718262e+003;3.2078205566e+003;
3.2890625000e+000;3.1232050781e+003;3.1006411133e+003;3.1380769043e+003;3.2000000000e+003;3.1185898438e+003;3.1878205566e+003;3.1565385742e+003;3.1451281738e+003;3.1582050781e+003;3.1343588867e+003;3.1211538086e+003;3.1526923828e+003;3.1307692871e+003;3.1298718262e+003;
3.2968750000e+000;3.0898718262e+003;3.0621794434e+003;3.0989743652e+003;3.1606411133e+003;3.0837180176e+003;3.1396154785e+003;3.1101281738e+003;3.0956411133e+003;3.1071794434e+003;3.0869230957e+003;3.0784614258e+003;3.1221794434e+003;3.0896154785e+003;3.0967949219e+003;
3.3046875000e+000;3.0739743652e+003;3.0475642090e+003;3.0861538086e+003;3.1483332520e+003;3.0721794434e+003;3.1256411133e+003;3.0950000000e+003;3.0779487305e+003;3.0889743652e+003;3.0688461914e+003;3.0647436523e+003;3.1097436523e+003;3.0755129395e+003;3.0837180176e+003;
3.3125000000e+000;3.0912819824e+003;3.0655129395e+003;3.1051281738e+003;3.1657692871e+003;3.0878205566e+003;3.1414101563e+003;3.1106411133e+003;3.0908974609e+003;3.1033332520e+003;3.0832050781e+003;3.0826923828e+003;3.1261538086e+003;3.0943588867e+003;3.0994870605e+003;
3.3203125000e+000;3.1953845215e+003;3.1671794434e+003;3.2088461914e+003;3.2601281738e+003;3.1803845215e+003;3.2296154785e+003;3.2003845215e+003;3.1883332520e+003;3.2047436523e+003;3.1894870605e+003;3.1852563477e+003;3.2262819824e+003;3.1979487305e+003;3.1980769043e+003;
3.3281250000e+000;3.2030769043e+003;3.1737180176e+003;3.2178205566e+003;3.2665385742e+003;3.1855129395e+003;3.2326923828e+003;3.2034614258e+003;3.1983332520e+003;3.2129487305e+003;3.2003845215e+003;3.1928205566e+003;3.2356411133e+003;3.2048718262e+003;3.2078205566e+003;
3.3359375000e+000;3.1776923828e+003;3.1488461914e+003;3.1938461914e+003;3.2439743652e+003;3.1597436523e+003;3.2071794434e+003;3.1785898438e+003;3.1758974609e+003;3.1864101563e+003;3.1755129395e+003;3.1673076172e+003;3.2112819824e+003;3.1791025391e+003;3.1856411133e+003;
3.3437500000e+000;3.1929487305e+003;3.1753845215e+003;3.2044870605e+003;3.2533332520e+003;3.1875642090e+003;3.2341025391e+003;3.2116667480e+003;3.2035898438e+003;3.2183332520e+003;3.2046154785e+003;3.1878205566e+003;3.2187180176e+003;3.1970512695e+003;3.1957692871e+003;
3.3515625000e+000;3.1717949219e+003;3.1516667480e+003;3.1820512695e+003;3.2325642090e+003;3.1619230957e+003;3.2158974609e+003;3.1926923828e+003;3.1821794434e+003;3.1958974609e+003;3.1782050781e+003;3.1648718262e+003;3.1957692871e+003;3.1726923828e+003;3.1724357910e+003;
3.3593750000e+000;3.1857692871e+003;3.1642307129e+003;3.1953845215e+003;3.2415385742e+003;3.1588461914e+003;3.2324357910e+003;3.2092307129e+003;3.1957692871e+003;3.2038461914e+003;3.1911538086e+003;3.1800000000e+003;3.2091025391e+003;3.1902563477e+003;3.1876923828e+003;
3.3671875000e+000;3.2407692871e+003;3.2256411133e+003;3.2428205566e+003;3.3034614258e+003;3.2617949219e+003;3.2965385742e+003;3.2755129395e+003;3.2487180176e+003;3.2621794434e+003;3.2562819824e+003;3.2362819824e+003;3.2661538086e+003;3.2501281738e+003;3.2456411133e+003;
3.3750000000e+000;3.2996154785e+003;3.2864101563e+003;3.2973076172e+003;3.3602563477e+003;3.3255129395e+003;3.3496154785e+003;3.3274357910e+003;3.3080769043e+003;3.3225642090e+003;3.3207692871e+003;3.2992307129e+003;3.3262819824e+003;3.3103845215e+003;3.3067949219e+003;
3.3828125000e+000;3.2555129395e+003;3.2437180176e+003;3.2611538086e+003;3.3078205566e+003;3.2610256348e+003;3.3016667480e+003;3.2764101563e+003;3.2601281738e+003;3.2793588867e+003;3.2787180176e+003;3.2612819824e+003;3.2862819824e+003;3.2673076172e+003;3.2655129395e+003;
3.3906250000e+000;3.2628205566e+003;3.2498718262e+003;3.2692307129e+003;3.3106411133e+003;3.2661538086e+003;3.3044870605e+003;3.2830769043e+003;3.2620512695e+003;3.2833332520e+003;3.2812819824e+003;3.2653845215e+003;3.2910256348e+003;3.2734614258e+003;3.2698718262e+003;
3.3984375000e+000;3.3050000000e+003;3.2870512695e+003;3.3079487305e+003;3.3491025391e+003;3.3038461914e+003;3.3367949219e+003;3.3169230957e+003;3.3023076172e+003;3.3219230957e+003;3.3247436523e+003;3.3062819824e+003;3.3339743652e+003;3.3160256348e+003;3.3111538086e+003;
3.4062500000e+000;3.2876923828e+003;3.2673076172e+003;3.2905129395e+003;3.3328205566e+003;3.2794870605e+003;3.3189743652e+003;3.2958974609e+003;3.2847436523e+003;3.3007692871e+003;3.3071794434e+003;3.2884614258e+003;3.3175642090e+003;3.2984614258e+003;3.2942307129e+003;
3.4140625000e+000;3.2965385742e+003;3.2776923828e+003;3.3025642090e+003;3.3353845215e+003;3.2741025391e+003;3.3155129395e+003;3.2939743652e+003;3.2843588867e+003;3.2962819824e+003;3.3067949219e+003;3.2891025391e+003;3.3212819824e+003;3.3032050781e+003;3.2993588867e+003;
3.4218750000e+000;3.2920512695e+003;3.2723076172e+003;3.2987180176e+003;3.3315385742e+003;3.2703845215e+003;3.3094870605e+003;3.2897436523e+003;3.2837180176e+003;3.2951281738e+003;3.3043588867e+003;3.2858974609e+003;3.3215385742e+003;3.2982050781e+003;3.2971794434e+003;
3.4296875000e+000;3.2471794434e+003;3.2251281738e+003;3.2547436523e+003;3.2948718262e+003;3.2320512695e+003;3.2770512695e+003;3.2582050781e+003;3.2480769043e+003;3.2574357910e+003;3.2620512695e+003;3.2467949219e+003;3.2861538086e+003;3.2546154785e+003;3.2562819824e+003;
