Time (s),AF3,F7,F3,FC5,T7,P7,O1,O2,P8,T8,FC6,F4,F8,AF4,Sampling Rate
0.0000000000e+000,2.5839743652e+003,2.3197436523e+003,2.3898718262e+003,2.5252563477e+003,2.3510256348e+003,2.3896154785e+003,2.4473076172e+003,2.3797436523e+003,2.4412819824e+003,2.3710256348e+003,2.3442307129e+003,2.4211538086e+003,2.3730769043e+003,2.4394870605e+003,128
7.8125000000e-003,2.5228205566e+003,2.2483332520e+003,2.3264101563e+003,2.4584614258e+003,2.2726923828e+003,2.3196154785e+003,2.3825642090e+003,2.3115385742e+003,2.3735898438e+003,2.3006411133e+003,2.2747436523e+003,2.3597436523e+003,2.3110256348e+003,2.3767949219e+003,
1.5625000000e-002,2.4320512695e+003,2.1478205566e+003,2.2333332520e+003,2.3657692871e+003,2.1746154785e+003,2.2173076172e+003,2.2860256348e+003,2.2184614258e+003,2.2785898438e+003,2.2047436523e+003,2.1766667480e+003,2.2610256348e+003,2.2171794434e+003,2.2819230957e+003,
2.3437500000e-002,2.4147436523e+003,2.1252563477e+003,2.2133332520e+003,2.3471794434e+003,2.1612819824e+003,2.1921794434e+003,2.2642307129e+003,2.2010256348e+003,2.2579487305e+003,2.1839743652e+003,2.1552563477e+003,2.2356411133e+003,2.1917949219e+003,2.2584614258e+003,
3.1250000000e-002,2.5216667480e+003,2.2152563477e+003,2.2946154785e+003,2.4464101563e+003,2.2575642090e+003,2.2653845215e+003,2.3434614258e+003,2.2944870605e+003,2.3446154785e+003,2.2753845215e+003,2.2498718262e+003,2.3256411133e+003,2.2825642090e+003,2.3464101563e+003,
3.9062500000e-002,2.5693588867e+003,2.2647436523e+003,2.3356411133e+003,2.4929487305e+003,2.2973076172e+003,2.3083332520e+003,2.3852563477e+003,2.3415385742e+003,2.3941025391e+003,2.3260256348e+003,2.2992307129e+003,2.3753845215e+003,2.3346154785e+003,2.3957692871e+003,
4.6875000000e-002,2.6201281738e+003,2.3193588867e+003,2.3842307129e+003,2.5411538086e+003,2.3416667480e+003,2.3571794434e+003,2.4325642090e+003,2.3926923828e+003,2.4497436523e+003,2.3816667480e+003,2.3510256348e+003,2.4282050781e+003,2.3889743652e+003,2.4487180176e+003,
5.4687500000e-002,2.7000000000e+003,2.4026923828e+003,2.4641025391e+003,2.6156411133e+003,2.4187180176e+003,2.4342307129e+003,2.5087180176e+003,2.4710256348e+003,2.5324357910e+003,2.4657692871e+003,2.4294870605e+003,2.5065385742e+003,2.4688461914e+003,2.5267949219e+003,
6.2500000000e-002,3.2793588867e+003,3.0158974609e+003,3.0420512695e+003,3.1871794434e+003,3.0392307129e+003,3.0142307129e+003,3.0726923828e+003,3.0585898438e+003,3.1160256348e+003,3.0900000000e+003,3.0414101563e+003,3.0846154785e+003,3.0679487305e+003,3.0905129395e+003,
7.0312500000e-002,3.3451281738e+003,3.0953845215e+003,3.1132050781e+003,3.2610256348e+003,3.1197436523e+003,3.0905129395e+003,3.1424357910e+003,3.1300000000e+003,3.1861538086e+003,3.1679487305e+003,3.1217949219e+003,3.1571794434e+003,3.1408974609e+003,3.1594870605e+003,
7.8125000000e-002,3.4639743652e+003,3.2402563477e+003,3.2485898438e+003,3.3944870605e+003,3.2624357910e+003,3.2308974609e+003,3.2737180176e+003,3.2452563477e+003,3.3024357910e+003,3.3012819824e+003,3.2473076172e+003,3.2850000000e+003,3.2641025391e+003,3.2798718262e+003,
8.5937500000e-002,3.2887180176e+003,3.0730769043e+003,3.0941025391e+003,3.2300000000e+003,3.1082050781e+003,3.0882050781e+003,3.1221794434e+003,3.0897436523e+003,3.1457692871e+003,3.1455129395e+003,3.0969230957e+003,3.1398718262e+003,3.1020512695e+003,3.1273076172e+003,
9.3750000000e-002,3.1292307129e+003,2.9110256348e+003,2.9433332520e+003,3.0793588867e+003,2.9535898438e+003,2.9417949219e+003,2.9764101563e+003,2.9371794434e+003,2.9933332520e+003,2.9825642090e+003,2.9443588867e+003,2.9870512695e+003,2.9414101563e+003,2.9743588867e+003,
1.0156250000e-001,2.7889743652e+003,2.5612819824e+003,2.6100000000e+003,2.7656411133e+003,2.5988461914e+003,2.6038461914e+003,2.6557692871e+003,2.5912819824e+003,2.6446154785e+003,2.6164101563e+003,2.5802563477e+003,2.6464101563e+003,2.5917949219e+003,2.6346154785e+003,
1.0937500000e-001,2.7107692871e+003,2.4796154785e+003,2.5270512695e+003,2.6887180176e+003,2.5091025391e+003,2.5173076172e+003,2.5746154785e+003,2.5089743652e+003,2.5606411133e+003,2.5342307129e+003,2.4916667480e+003,2.5651281738e+003,2.5125642090e+003,2.5558974609e+003,
1.1718750000e-001,2.5298718262e+003,2.2842307129e+003,2.3364101563e+003,2.4971794434e+003,2.3058974609e+003,2.3235898438e+003,2.3883332520e+003,2.3228205566e+003,2.3719230957e+003,2.3433332520e+003,2.2988461914e+003,2.3757692871e+003,2.3279487305e+003,2.3730769043e+003,
1.2500000000e-001,2.4675642090e+003,2.2112819824e+003,2.2698718262e+003,2.4265385742e+003,2.2366667480e+003,2.2543588867e+003,2.3226923828e+003,2.2557692871e+003,2.3046154785e+003,2.2703845215e+003,2.2300000000e+003,2.3075642090e+003,2.2597436523e+003,2.3062819824e+003,
1.3281250000e-001,2.5112819824e+003,2.2273076172e+003,2.2941025391e+003,2.4661538086e+003,2.2647436523e+003,2.2611538086e+003,2.3380769043e+003,2.2784614258e+003,2.3375642090e+003,2.2919230957e+003,2.2516667480e+003,2.3276923828e+003,2.2817949219e+003,2.3275642090e+003,
1.4062500000e-001,2.5265385742e+003,2.2394870605e+003,2.3014101563e+003,2.4883332520e+003,2.2719230957e+003,2.2682050781e+003,2.3452563477e+003,2.2916667480e+003,2.3537180176e+003,2.3075642090e+003,2.2689743652e+003,2.3392307129e+003,2.2920512695e+003,2.3378205566e+003,
1.4843750000e-001,2.5798718262e+003,2.2969230957e+003,2.3414101563e+003,2.5444870605e+003,2.3111538086e+003,2.3175642090e+003,2.3935898438e+003,2.3442307129e+003,2.4048718262e+003,2.3567949219e+003,2.3266667480e+003,2.3893588867e+003,2.3396154785e+003,2.3843588867e+003,
1.5625000000e-001,2.6892307129e+003,2.4110256348e+003,2.4464101563e+003,2.6439743652e+003,2.4197436523e+003,2.4237180176e+003,2.4994870605e+003,2.4512819824e+003,2.5098718262e+003,2.4641025391e+003,2.4294870605e+003,2.4932050781e+003,2.4506411133e+003,2.4889743652e+003,
1.6406250000e-001,3.1317949219e+003,2.8673076172e+003,2.8880769043e+003,3.0552563477e+003,2.8914101563e+003,2.8482050781e+003,2.9187180176e+003,2.8948718262e+003,2.9517949219e+003,2.9379487305e+003,2.8700000000e+003,2.9288461914e+003,2.9087180176e+003,2.9279487305e+003,
1.7187500000e-001,3.1860256348e+003,2.9273076172e+003,2.9450000000e+003,3.1102563477e+003,2.9570512695e+003,2.9033332520e+003,2.9712819824e+003,2.9534614258e+003,3.0103845215e+003,3.0056411133e+003,2.9433332520e+003,2.9914101563e+003,2.9648718262e+003,2.9882050781e+003,
1.7968750000e-001,3.2051281738e+003,2.9525642090e+003,2.9667949219e+003,3.1326923828e+003,2.9834614258e+003,2.9282050781e+003,2.9928205566e+003,2.9755129395e+003,3.0328205566e+003,3.0325642090e+003,2.9825642090e+003,3.0185898438e+003,2.9855129395e+003,3.0128205566e+003,
1.8750000000e-001,3.2214101563e+003,2.9752563477e+003,2.9855129395e+003,3.1516667480e+003,3.0029487305e+003,2.9533332520e+003,3.0134614258e+003,2.9928205566e+003,3.0511538086e+003,3.0521794434e+003,3.0108974609e+003,3.0389743652e+003,3.0055129395e+003,3.0310256348e+003,
1.9531250000e-001,3.2402563477e+003,3.0129487305e+003,3.0176923828e+003,3.1815385742e+003,3.0460256348e+003,3.0088461914e+003,3.0506411133e+003,3.0016667480e+003,3.0692307129e+003,3.0789743652e+003,3.0091025391e+003,3.0592307129e+003,3.0328205566e+003,3.0450000000e+003,
2.0312500000e-001,3.5798718262e+003,3.3838461914e+003,3.3708974609e+003,3.5274357910e+003,3.4071794434e+003,3.3602563477e+003,3.4053845215e+003,3.3305129395e+003,3.3752563477e+003,3.4088461914e+003,3.3611538086e+003,3.4093588867e+003,3.3765385742e+003,3.3865385742e+003,
2.1093750000e-001,3.7011538086e+003,3.5134614258e+003,3.4966667480e+003,3.6502563477e+003,3.5317949219e+003,3.4828205566e+003,3.5279487305e+003,3.4597436523e+003,3.4952563477e+003,3.5412819824e+003,3.4916667480e+003,3.5401281738e+003,3.5083332520e+003,3.5130769043e+003,
2.1875000000e-001,3.8443588867e+003,3.6801281738e+003,3.6479487305e+003,3.7985898438e+003,3.6982050781e+003,3.6319230957e+003,3.6755129395e+003,3.6248718262e+003,3.6475642090e+003,3.7211538086e+003,3.6680769043e+003,3.7039743652e+003,3.6710256348e+003,3.6694870605e+003,
2.2656250000e-001,3.8733332520e+003,3.7207692871e+003,3.6828205566e+003,3.8338461914e+003,3.7360256348e+003,3.6630769043e+003,3.7078205566e+003,3.6628205566e+003,3.6823076172e+003,3.7651281738e+003,3.7124357910e+003,3.7402563477e+003,3.7067949219e+003,3.7039743652e+003,
2.3437500000e-001,3.9350000000e+003,3.8025642090e+003,3.7678205566e+003,3.9188461914e+003,3.7857692871e+003,3.7250000000e+003,3.7778205566e+003,3.7423076172e+003,3.7588461914e+003,3.8421794434e+003,3.7871794434e+003,3.8175642090e+003,3.7823076172e+003,3.7787180176e+003,
2.4218750000e-001,3.9542307129e+003,3.8417949219e+003,3.8016667480e+003,3.9385898438e+003,3.8448718262e+003,3.7528205566e+003,3.7992307129e+003,3.7956411133e+003,3.8162819824e+003,3.8919230957e+003,3.8344870605e+003,3.8646154785e+003,3.8200000000e+003,3.8182050781e+003,
2.5000000000e-001,3.8702563477e+003,3.7628205566e+003,3.7256411133e+003,3.8584614258e+003,3.7738461914e+003,3.6764101563e+003,3.7210256348e+003,3.7251281738e+003,3.7465385742e+003,3.8194870605e+003,3.7608974609e+003,3.7880769043e+003,3.7442307129e+003,3.7430769043e+003,
2.5781250000e-001,3.6393588867e+003,3.5473076172e+003,3.5084614258e+003,3.6562819824e+003,3.5343588867e+003,3.4708974609e+003,3.5132050781e+003,3.5150000000e+003,3.5450000000e+003,3.6016667480e+003,3.5335898438e+003,3.5564101563e+003,3.5361538086e+003,3.5300000000e+003,
2.6562500000e-001,3.6629487305e+003,3.5748718262e+003,3.5353845215e+003,3.6856411133e+003,3.5582050781e+003,3.4970512695e+003,3.5385898438e+003,3.5369230957e+003,3.5697436523e+003,3.6243588867e+003,3.5519230957e+003,3.5800000000e+003,3.5632050781e+003,3.5551281738e+003,
2.7343750000e-001,3.7839743652e+003,3.7007692871e+003,3.6667949219e+003,3.8088461914e+003,3.7007692871e+003,3.6151281738e+003,3.6569230957e+003,3.6520512695e+003,3.6846154785e+003,3.7461538086e+003,3.6742307129e+003,3.7074357910e+003,3.6865385742e+003,3.6776923828e+003,
2.8125000000e-001,3.8220512695e+003,3.7423076172e+003,3.7088461914e+003,3.8484614258e+003,3.7500000000e+003,3.6530769043e+003,3.6947436523e+003,3.6903845215e+003,3.7224357910e+003,3.7888461914e+003,3.7217949219e+003,3.7505129395e+003,3.7261538086e+003,3.7184614258e+003,
2.8906250000e-001,3.7698718262e+003,3.7023076172e+003,3.6629487305e+003,3.8005129395e+003,3.7012819824e+003,3.6237180176e+003,3.6556411133e+003,3.6442307129e+003,3.6839743652e+003,3.7469230957e+003,3.6883332520e+003,3.7133332520e+003,3.6839743652e+003,3.6833332520e+003,
2.9687500000e-001,3.7547436523e+003,3.6915385742e+003,3.6502563477e+003,3.7834614258e+003,3.6903845215e+003,3.6189743652e+003,3.6467949219e+003,3.6264101563e+003,3.6687180176e+003,3.7297436523e+003,3.6698718262e+003,3.6989743652e+003,3.6733332520e+003,3.6710256348e+003,
3.0468750000e-001,3.7676923828e+003,3.7101281738e+003,3.6650000000e+003,3.7956411133e+003,3.7110256348e+003,3.6398718262e+003,3.6651281738e+003,3.6342307129e+003,3.6773076172e+003,3.7401281738e+003,3.6798718262e+003,3.7105129395e+003,3.6908974609e+003,3.6833332520e+003,
3.1250000000e-001,3.8129487305e+003,3.7614101563e+003,3.7112819824e+003,3.8423076172e+003,3.7632050781e+003,3.6903845215e+003,3.7147436523e+003,3.6730769043e+003,3.7151281738e+003,3.7829487305e+003,3.7247436523e+003,3.7543588867e+003,3.7392307129e+003,3.7257692871e+003,
3.2031250000e-001,4.1503847656e+003,4.1256411133e+003,4.0634614258e+003,4.1812822266e+003,4.1282050781e+003,4.0407692871e+003,4.0620512695e+003,4.0183332520e+003,4.0416667480e+003,4.1370512695e+003,4.0866667480e+003,4.1147436523e+003,4.0960258789e+003,4.0766667480e+003,
3.2812500000e-001,4.1596152344e+003,4.1523076172e+003,4.1011538086e+003,4.1905126953e+003,4.1558974609e+003,4.0738461914e+003,4.1056411133e+003,4.0598718262e+003,4.0735898438e+003,4.1800000000e+003,4.1333334961e+003,4.1597436523e+003,4.1357690430e+003,4.1083334961e+003,
3.3593750000e-001,4.2732050781e+003,4.2742309570e+003,4.2142309570e+003,4.3082050781e+003,4.2694873047e+003,4.1876923828e+003,4.2203847656e+003,4.1766665039e+003,4.1870512695e+003,4.2967949219e+003,4.2465385742e+003,4.2714101563e+003,4.2537177734e+003,4.2192309570e+003,
3.4375000000e-001,4.5185898438e+003,4.5497436523e+003,4.4674360352e+003,4.5638461914e+003,4.5414101563e+003,4.4370512695e+003,4.4658974609e+003,4.4501284180e+003,4.4479487305e+003,4.5742309570e+003,4.5123076172e+003,4.5303847656e+003,4.5215385742e+003,4.4762822266e+003,
3.5156250000e-001,4.6106411133e+003,4.6744873047e+003,4.5821796875e+003,4.6757690430e+003,4.6562822266e+003,4.5476923828e+003,4.5708974609e+003,4.5858974609e+003,4.5942309570e+003,4.7116665039e+003,4.6567949219e+003,4.6615385742e+003,4.6425639648e+003,4.5958974609e+003,
3.5937500000e-001,4.6034614258e+003,4.6719228516e+003,4.5819228516e+003,4.6708974609e+003,4.6453847656e+003,4.5464101563e+003,4.5685898438e+003,4.5878203125e+003,4.5988461914e+003,4.7114101563e+003,4.6514101563e+003,4.6587177734e+003,4.6406411133e+003,4.5911538086e+003,
3.6718750000e-001,4.5439741211e+003,4.6251284180e+003,4.5429487305e+003,4.6089741211e+003,4.6026923828e+003,4.4951284180e+003,4.5165385742e+003,4.5460258789e+003,4.5588461914e+003,4.6728203125e+003,4.6012822266e+003,4.6100000000e+003,4.5964101563e+003,4.5444873047e+003,
3.7500000000e-001,4.5000000000e+003,4.5858974609e+003,4.5066665039e+003,4.5633334961e+003,4.5701284180e+003,4.4534614258e+003,4.4739741211e+003,4.5071796875e+003,4.5223076172e+003,4.6375639648e+003,4.5664101563e+003,4.5726923828e+003,4.5592309570e+003,4.5093588867e+003,
3.8281250000e-001,4.1524360352e+003,4.2350000000e+003,4.1761538086e+003,4.2411538086e+003,4.2219228516e+003,4.1328203125e+003,4.1478203125e+003,4.1808974609e+003,4.2024360352e+003,4.2957690430e+003,4.2338461914e+003,4.2528203125e+003,4.2241025391e+003,4.1919228516e+003,
3.9062500000e-001,3.9562819824e+003,4.0347436523e+003,3.9866667480e+003,4.0592307129e+003,4.0248718262e+003,3.9501281738e+003,3.9647436523e+003,3.9919230957e+003,4.0161538086e+003,4.0952563477e+003,4.0307692871e+003,4.0607692871e+003,4.0302563477e+003,4.0006411133e+003,
3.9843750000e-001,3.6728205566e+003,3.7408974609e+003,3.7066667480e+003,3.7847436523e+003,3.7515385742e+003,3.6807692871e+003,3.6978205566e+003,3.7014101563e+003,3.7358974609e+003,3.7888461914e+003,3.7234614258e+003,3.7658974609e+003,3.7382050781e+003,3.7107692871e+003,
4.0625000000e-001,3.6439743652e+003,3.7061538086e+003,3.6737180176e+003,3.7483332520e+003,3.7258974609e+003,3.6507692871e+003,3.6693588867e+003,3.6592307129e+003,3.6974357910e+003,3.7439743652e+003,3.6848718262e+003,3.7262819824e+003,3.6974357910e+003,3.6748718262e+003,
4.1406250000e-001,3.7120512695e+003,3.7655129395e+003,3.7301281738e+003,3.7966667480e+003,3.7787180176e+003,3.7171794434e+003,3.7326923828e+003,3.7048718262e+003,3.7373076172e+003,3.7910256348e+003,3.7479487305e+003,3.7791025391e+003,3.7471794434e+003,3.7369230957e+003,
4.2187500000e-001,3.6660256348e+003,3.7175642090e+003,3.6837180176e+003,3.7556411133e+003,3.7294870605e+003,3.6756411133e+003,3.6914101563e+003,3.6632050781e+003,3.6928205566e+003,3.7473076172e+003,3.7030769043e+003,3.7361538086e+003,3.7051281738e+003,3.6933332520e+003,
4.2968750000e-001,3.5923076172e+003,3.6391025391e+003,3.6098718262e+003,3.6891025391e+003,3.6541025391e+003,3.6050000000e+003,3.6239743652e+003,3.5946154785e+003,3.6220512695e+003,3.6717949219e+003,3.6269230957e+003,3.6656411133e+003,3.6335898438e+003,3.6203845215e+003,
4.3750000000e-001,3.5375642090e+003,3.5770512695e+003,3.5541025391e+003,3.6385898438e+003,3.5958974609e+003,3.5491025391e+003,3.5737180176e+003,3.5420512695e+003,3.5671794434e+003,3.6097436523e+003,3.5656411133e+003,3.6107692871e+003,3.5761538086e+003,3.5628205566e+003,
4.4531250000e-001,3.9374357910e+003,3.9778205566e+003,3.9361538086e+003,4.0169230957e+003,3.9835898438e+003,3.9258974609e+003,3.9588461914e+003,3.9226923828e+003,3.9403845215e+003,4.0062819824e+003,3.9587180176e+003,3.9807692871e+003,3.9714101563e+003,3.9406411133e+003,
4.5312500000e-001,4.4917949219e+003,4.5874360352e+003,4.4952563477e+003,4.5926923828e+003,4.5870512695e+003,4.4771796875e+003,4.5005126953e+003,4.5091025391e+003,4.5203847656e+003,4.6203847656e+003,4.5503847656e+003,4.5574360352e+003,4.5507690430e+003,4.5073076172e+003,
4.6093750000e-001,4.4839741211e+003,4.5887177734e+003,4.4982050781e+003,4.5888461914e+003,4.5843588867e+003,4.4780771484e+003,4.4998715820e+003,4.5129487305e+003,4.5221796875e+003,4.6265385742e+003,4.5547436523e+003,4.5571796875e+003,4.5460258789e+003,4.5035898438e+003,
4.6875000000e-001,4.7898715820e+003,4.9207690430e+003,4.8165385742e+003,4.8801284180e+003,4.9100000000e+003,4.7992309570e+003,4.8198715820e+003,4.8085898438e+003,4.8153847656e+003,4.9334614258e+003,4.8820512695e+003,4.8597436523e+003,4.8641025391e+003,4.8058974609e+003,
4.7656250000e-001,6.5916665039e+003,6.8364101563e+003,6.6341025391e+003,6.6646152344e+003,6.7946152344e+003,6.5935898438e+003,6.5841025391e+003,6.6325639648e+003,6.6116665039e+003,6.8301284180e+003,6.7506411133e+003,6.6912822266e+003,6.7246152344e+003,6.6233334961e+003,
4.8437500000e-001,6.6379487305e+003,6.9456411133e+003,6.7160258789e+003,6.7329487305e+003,6.8952563477e+003,6.6661538086e+003,6.6450000000e+003,6.7187177734e+003,6.6892309570e+003,6.9535898438e+003,6.8534614258e+003,6.7817949219e+003,6.8114101563e+003,6.6991025391e+003,
4.9218750000e-001,6.6584614258e+003,6.9833334961e+003,6.7769228516e+003,6.7670512695e+003,6.9475639648e+003,6.7321796875e+003,6.7082050781e+003,6.7619228516e+003,6.7269228516e+003,6.9838461914e+003,6.9076923828e+003,6.8325639648e+003,6.8471796875e+003,6.7442309570e+003,
5.0000000000e-001,6.8779487305e+003,7.1257690430e+003,6.9861538086e+003,6.9688461914e+003,7.1076923828e+003,6.9498715820e+003,6.9335898438e+003,6.9580771484e+003,6.9253847656e+003,7.1124360352e+003,7.0733334961e+003,7.0242309570e+003,7.0235898438e+003,6.9517949219e+003,
5.0781250000e-001,7.2921796875e+003,7.4747436523e+003,7.4317949219e+003,7.3987177734e+003,7.4644873047e+003,7.3962822266e+003,7.3724360352e+003,7.4091025391e+003,7.3696152344e+003,7.4738461914e+003,7.4510258789e+003,7.4469228516e+003,7.4333334961e+003,7.3994873047e+003,
5.1562500000e-001,7.0394873047e+003,7.3361538086e+003,7.2364101563e+003,7.1969228516e+003,7.3164101563e+003,7.2000000000e+003,7.1624360352e+003,7.2243588867e+003,7.1748715820e+003,7.3447436523e+003,7.2979487305e+003,7.2634614258e+003,7.2662822266e+003,7.1961538086e+003,
5.2343750000e-001,6.5326923828e+003,7.0308974609e+003,6.8232050781e+003,6.7782050781e+003,6.9994873047e+003,6.7948715820e+003,6.7453847656e+003,6.8157690430e+003,6.7485898438e+003,7.0247436523e+003,6.9671796875e+003,6.8739741211e+003,6.9016665039e+003,6.7664101563e+003,
5.3125000000e-001,6.4994873047e+003,7.0208974609e+003,6.8032050781e+003,6.7578203125e+003,6.9861538086e+003,6.7785898438e+003,6.7326923828e+003,6.7911538086e+003,6.7196152344e+003,6.9994873047e+003,6.9548715820e+003,6.8566665039e+003,6.8841025391e+003,6.7453847656e+003,
5.3906250000e-001,6.8126923828e+003,7.2584614258e+003,7.1051284180e+003,7.0541025391e+003,7.2205126953e+003,7.0766665039e+003,7.0434614258e+003,7.0903847656e+003,7.0210258789e+003,7.2297436523e+003,7.2062822266e+003,7.1452563477e+003,7.1524360352e+003,7.0652563477e+003,
5.4687500000e-001,6.8610258789e+003,7.3011538086e+003,7.1601284180e+003,7.1091025391e+003,7.2652563477e+003,7.1297436523e+003,7.0983334961e+003,7.1496152344e+003,7.0848715820e+003,7.2765385742e+003,7.2535898438e+003,7.1982050781e+003,7.2019228516e+003,7.1247436523e+003,
5.5468750000e-001,6.8757690430e+003,7.3273076172e+003,7.1883334961e+003,7.1376923828e+003,7.2924360352e+003,7.1567949219e+003,7.1260258789e+003,7.1825639648e+003,7.1224360352e+003,7.3071796875e+003,7.2844873047e+003,7.2275639648e+003,7.2306411133e+003,7.1546152344e+003,
5.6250000000e-001,6.8693588867e+003,7.3407690430e+003,7.1978203125e+003,7.1458974609e+003,7.3043588867e+003,7.1655126953e+003,7.1342309570e+003,7.1953847656e+003,7.1382050781e+003,7.3271796875e+003,7.3023076172e+003,7.2403847656e+003,7.2448715820e+003,7.1638461914e+003,
5.7031250000e-001,6.8566665039e+003,7.3273076172e+003,7.1951284180e+003,7.1371796875e+003,7.2988461914e+003,7.1643588867e+003,7.1344873047e+003,7.1787177734e+003,7.1314101563e+003,7.3210258789e+003,7.2893588867e+003,7.2303847656e+003,7.2411538086e+003,7.1630771484e+003,
5.7812500000e-001,6.9600000000e+003,7.4071796875e+003,7.2902563477e+003,7.2369228516e+003,7.3852563477e+003,7.2630771484e+003,7.2365385742e+003,7.2792309570e+003,7.2388461914e+003,7.3962822266e+003,7.3765385742e+003,7.3179487305e+003,7.3328203125e+003,7.2646152344e+003,
5.8593750000e-001,7.0867949219e+003,7.5188461914e+003,7.4255126953e+003,7.3703847656e+003,7.4921796875e+003,7.4023076172e+003,7.3711538086e+003,7.4360258789e+003,7.4092309570e+003,7.5269228516e+003,7.5112822266e+003,7.4528203125e+003,7.4742309570e+003,7.4087177734e+003,
5.9375000000e-001,6.8421796875e+003,7.3673076172e+003,7.2412822266e+003,7.1615385742e+003,7.3280771484e+003,7.1982050781e+003,7.1558974609e+003,7.2376923828e+003,7.1930771484e+003,7.3615385742e+003,7.3407690430e+003,7.2747436523e+003,7.2765385742e+003,7.2125639648e+003,
6.0156250000e-001,6.6701284180e+003,7.2600000000e+003,7.1069228516e+003,7.0148715820e+003,7.2115385742e+003,7.0564101563e+003,7.0078203125e+003,7.1107690430e+003,7.0552563477e+003,7.2515385742e+003,7.2294873047e+003,7.1421796875e+003,7.1475639648e+003,7.0737177734e+003,
6.0937500000e-001,5.7323076172e+003,6.3870512695e+003,6.2396152344e+003,6.1188461914e+003,6.3266665039e+003,6.1957690430e+003,6.1442309570e+003,6.2408974609e+003,6.1800000000e+003,6.3832050781e+003,6.3533334961e+003,6.2651284180e+003,6.2792309570e+003,6.1923076172e+003,
6.1718750000e-001,5.3750000000e+003,5.9469228516e+003,5.8443588867e+003,5.7534614258e+003,5.9203847656e+003,5.8305126953e+003,5.7926923828e+003,5.8247436523e+003,5.7815385742e+003,5.9171796875e+003,5.9032050781e+003,5.8552563477e+003,5.8602563477e+003,5.8066665039e+003,
6.2500000000e-001,5.3767949219e+003,5.9512822266e+003,5.8426923828e+003,5.7576923828e+003,5.9333334961e+003,5.8306411133e+003,5.7955126953e+003,5.8282050781e+003,5.7800000000e+003,5.9210258789e+003,5.9129487305e+003,5.8562822266e+003,5.8642309570e+003,5.8091025391e+003,
6.3281250000e-001,5.6301284180e+003,6.1802563477e+003,6.0717949219e+003,5.9848715820e+003,6.1566665039e+003,6.0537177734e+003,6.0332050781e+003,6.0469228516e+003,5.9960258789e+003,6.1350000000e+003,6.1625639648e+003,6.0815385742e+003,6.1010258789e+003,6.0419228516e+003,
6.4062500000e-001,5.8529487305e+003,6.4020512695e+003,6.2857690430e+003,6.1951284180e+003,6.3703847656e+003,6.2614101563e+003,6.2419228516e+003,6.2550000000e+003,6.2071796875e+003,6.3506411133e+003,6.3811538086e+003,6.2958974609e+003,6.3182050781e+003,6.2574360352e+003,
6.4843750000e-001,6.1517949219e+003,6.7167949219e+003,6.5858974609e+003,6.4858974609e+003,6.6797436523e+003,6.5420512695e+003,6.5129487305e+003,6.5638461914e+003,6.5143588867e+003,6.6851284180e+003,6.6908974609e+003,6.6055126953e+003,6.6283334961e+003,6.5625639648e+003,
6.5625000000e-001,6.0797436523e+003,6.6435898438e+003,6.5185898438e+003,6.4169228516e+003,6.6089741211e+003,6.4684614258e+003,6.4341025391e+003,6.5075639648e+003,6.4578203125e+003,6.6321796875e+003,6.6188461914e+003,6.5411538086e+003,6.5621796875e+003,6.4964101563e+003,
6.6406250000e-001,5.2797436523e+003,5.8138461914e+003,5.7320512695e+003,5.6328203125e+003,5.7802563477e+003,5.6903847656e+003,5.6615385742e+003,5.7335898438e+003,5.7000000000e+003,5.8174360352e+003,5.7935898438e+003,5.7474360352e+003,5.7482050781e+003,5.7037177734e+003,
6.7187500000e-001,5.0965385742e+003,5.6200000000e+003,5.5480771484e+003,5.4491025391e+003,5.5871796875e+003,5.5102563477e+003,5.4873076172e+003,5.5433334961e+003,5.5167949219e+003,5.6121796875e+003,5.6041025391e+003,5.5584614258e+003,5.5533334961e+003,5.5183334961e+003,
6.7968750000e-001,5.0446152344e+003,5.5560258789e+003,5.4888461914e+003,5.3933334961e+003,5.5260258789e+003,5.4526923828e+003,5.4338461914e+003,5.4780771484e+003,5.4565385742e+003,5.5375639648e+003,5.5458974609e+003,5.4938461914e+003,5.4905126953e+003,5.4603847656e+003,
6.8750000000e-001,5.0979487305e+003,5.5978203125e+003,5.5310258789e+003,5.4432050781e+003,5.5692309570e+003,5.4950000000e+003,5.4769228516e+003,5.5182050781e+003,5.4989741211e+003,5.5739741211e+003,5.5929487305e+003,5.5321796875e+003,5.5371796875e+003,5.5067949219e+003,
6.9531250000e-001,5.0023076172e+003,5.4717949219e+003,5.4214101563e+003,5.3471796875e+003,5.4364101563e+003,5.3866665039e+003,5.3558974609e+003,5.4260258789e+003,5.4105126953e+003,5.4753847656e+003,5.4734614258e+003,5.4314101563e+003,5.4370512695e+003,5.4050000000e+003,
7.0312500000e-001,4.7708974609e+003,5.2265385742e+003,5.1896152344e+003,5.1130771484e+003,5.2038461914e+003,5.1567949219e+003,5.1271796875e+003,5.1950000000e+003,5.1811538086e+003,5.2330771484e+003,5.2317949219e+003,5.1993588867e+003,5.1980771484e+003,5.1707690430e+003,
7.1093750000e-001,4.1161538086e+003,4.5060258789e+003,4.5121796875e+003,4.4396152344e+003,4.5025639648e+003,4.4878203125e+003,4.4701284180e+003,4.5016665039e+003,4.4900000000e+003,4.4947436523e+003,4.5229487305e+003,4.5073076172e+003,4.4908974609e+003,4.4967949219e+003,
7.1875000000e-001,3.7783332520e+003,4.1125639648e+003,4.1342309570e+003,4.0805129395e+003,4.1096152344e+003,4.1238461914e+003,4.1166665039e+003,4.1188461914e+003,4.1152563477e+003,4.0930769043e+003,4.1274360352e+003,4.1310258789e+003,4.1041025391e+003,4.1315385742e+003,
7.2656250000e-001,3.6576923828e+003,3.9728205566e+003,4.0010256348e+003,3.9583332520e+003,3.9773076172e+003,3.9905129395e+003,3.9885898438e+003,3.9828205566e+003,3.9807692871e+003,3.9517949219e+003,3.9853845215e+003,3.9975642090e+003,3.9683332520e+003,3.9993588867e+003,
7.3437500000e-001,3.4361538086e+003,3.6819230957e+003,3.7338461914e+003,3.7093588867e+003,3.6907692871e+003,3.7225642090e+003,3.7328205566e+003,3.7050000000e+003,3.7029487305e+003,3.6529487305e+003,3.6987180176e+003,3.7152563477e+003,3.6911538086e+003,3.7320512695e+003,
7.4218750000e-001,3.4534614258e+003,3.6821794434e+003,3.7342307129e+003,3.7087180176e+003,3.6873076172e+003,3.7246154785e+003,3.7361538086e+003,3.7062819824e+003,3.7066667480e+003,3.6520512695e+003,3.7043588867e+003,3.7157692871e+003,3.6939743652e+003,3.7360256348e+003,
7.5000000000e-001,3.5492307129e+003,3.7606411133e+003,3.8015385742e+003,3.7769230957e+003,3.7648718262e+003,3.7855129395e+003,3.8000000000e+003,3.7739743652e+003,3.7830769043e+003,3.7296154785e+003,3.7824357910e+003,3.7893588867e+003,3.7732050781e+003,3.8116667480e+003,
7.5781250000e-001,3.5788461914e+003,3.7843588867e+003,3.8200000000e+003,3.8010256348e+003,3.7884614258e+003,3.7961538086e+003,3.8126923828e+003,3.7932050781e+003,3.8060256348e+003,3.7561538086e+003,3.7998718262e+003,3.8096154785e+003,3.7975642090e+003,3.8328205566e+003,
7.6562500000e-001,3.3634614258e+003,3.5265385742e+003,3.5826923828e+003,3.5787180176e+003,3.5264101563e+003,3.5460256348e+003,3.5673076172e+003,3.5720512695e+003,3.5934614258e+003,3.5289743652e+003,3.5456411133e+003,3.5766667480e+003,3.5526923828e+003,3.5998718262e+003,
7.7343750000e-001,3.2537180176e+003,3.3996154785e+003,3.4633332520e+003,3.4628205566e+003,3.4011538086e+003,3.4312819824e+003,3.4530769043e+003,3.4578205566e+003,3.4832050781e+003,3.4058974609e+003,3.4250000000e+003,3.4589743652e+003,3.4280769043e+003,3.4820512695e+003,
7.8125000000e-001,3.1997436523e+003,3.3269230957e+003,3.3784614258e+003,3.3938461914e+003,3.3247436523e+003,3.3647436523e+003,3.3864101563e+003,3.3846154785e+003,3.4188461914e+003,3.3224357910e+003,3.3525642090e+003,3.3744870605e+003,3.3507692871e+003,3.4030769043e+003,
7.8906250000e-001,3.2330769043e+003,3.3537180176e+003,3.3960256348e+003,3.4200000000e+003,3.3475642090e+003,3.3908974609e+003,3.4119230957e+003,3.4108974609e+003,3.4476923828e+003,3.3479487305e+003,3.3774357910e+003,3.3917949219e+003,3.3773076172e+003,3.4239743652e+003,
7.9687500000e-001,3.2121794434e+003,3.2843588867e+003,3.3500000000e+003,3.3911538086e+003,3.3020512695e+003,3.3574357910e+003,3.3757692871e+003,3.3817949219e+003,3.4150000000e+003,3.3074357910e+003,3.3160256348e+003,3.3424357910e+003,3.3293588867e+003,3.3732050781e+003,
8.0468750000e-001,3.1752563477e+003,3.2333332520e+003,3.3080769043e+003,3.3574357910e+003,3.2648718262e+003,3.3198718262e+003,3.3379487305e+003,3.3393588867e+003,3.3720512695e+003,3.2610256348e+003,3.2675642090e+003,3.2992307129e+003,3.2811538086e+003,3.3269230957e+003,
8.1250000000e-001,3.1380769043e+003,3.1893588867e+003,3.2651281738e+003,3.3226923828e+003,3.2285898438e+003,3.2819230957e+003,3.2996154785e+003,3.2944870605e+003,3.3273076172e+003,3.2153845215e+003,3.2242307129e+003,3.2560256348e+003,3.2338461914e+003,3.2817949219e+003,
8.2031250000e-001,3.2000000000e+003,3.2125642090e+003,3.2755129395e+003,3.3584614258e+003,3.2410256348e+003,3.2862819824e+003,3.3082050781e+003,3.2600000000e+003,3.2893588867e+003,3.1978205566e+003,3.2292307129e+003,3.2633332520e+003,3.2461538086e+003,3.2947436523e+003,
8.2812500000e-001,3.3192307129e+003,3.3275642090e+003,3.3873076172e+003,3.4716667480e+003,3.3544870605e+003,3.3946154785e+003,3.4133332520e+003,3.3639743652e+003,3.3892307129e+003,3.3061538086e+003,3.3366667480e+003,3.3721794434e+003,3.3553845215e+003,3.4012819824e+003,
8.3593750000e-001,3.3083332520e+003,3.3207692871e+003,3.3685898438e+003,3.4447436523e+003,3.3252563477e+003,3.3734614258e+003,3.3847436523e+003,3.3517949219e+003,3.3639743652e+003,3.2973076172e+003,3.3241025391e+003,3.3523076172e+003,3.3296154785e+003,3.3776923828e+003,
8.4375000000e-001,3.0048718262e+003,2.9782050781e+003,3.0546154785e+003,3.1166667480e+003,2.9910256348e+003,3.0533332520e+003,3.0774357910e+003,3.0375642090e+003,3.0528205566e+003,2.9717949219e+003,3.0060256348e+003,3.0474357910e+003,3.0203845215e+003,3.0703845215e+003,
8.5156250000e-001,3.0050000000e+003,2.9639743652e+003,3.0435898438e+003,3.1091025391e+003,2.9824357910e+003,3.0383332520e+003,3.0641025391e+003,3.0246154785e+003,3.0458974609e+003,2.9576923828e+003,2.9914101563e+003,3.0374357910e+003,3.0089743652e+003,3.0594870605e+003,
8.5937500000e-001,3.0544870605e+003,2.9933332520e+003,3.0685898438e+003,3.1432050781e+003,3.0147436523e+003,3.0435898438e+003,3.0735898438e+003,3.0564101563e+003,3.0966667480e+003,2.9971794434e+003,3.0178205566e+003,3.0658974609e+003,3.0308974609e+003,3.0834614258e+003,
8.6718750000e-001,3.0232050781e+003,2.9539743652e+003,3.0373076172e+003,3.1055129395e+003,2.9711538086e+003,3.0053845215e+003,3.0414101563e+003,3.0264101563e+003,3.0691025391e+003,2.9664101563e+003,2.9844870605e+003,3.0317949219e+003,2.9975642090e+003,3.0498718262e+003,
8.7500000000e-001,2.9342307129e+003,2.8439743652e+003,2.9434614258e+003,3.0007692871e+003,2.8553845215e+003,2.9097436523e+003,2.9507692871e+003,2.9384614258e+003,2.9812819824e+003,2.8725642090e+003,2.8875642090e+003,2.9265385742e+003,2.8976923828e+003,2.9516667480e+003,
8.8281250000e-001,2.8732050781e+003,2.7755129395e+003,2.8744870605e+003,2.9358974609e+003,2.7887180176e+003,2.8473076172e+003,2.8852563477e+003,2.8766667480e+003,2.9197436523e+003,2.8066667480e+003,2.8198718262e+003,2.8565385742e+003,2.8251281738e+003,2.8833332520e+003,
8.9062500000e-001,2.7957692871e+003,2.6937180176e+003,2.7882050781e+003,2.8591025391e+003,2.7120512695e+003,2.7697436523e+003,2.8044870605e+003,2.7979487305e+003,2.8417949219e+003,2.7225642090e+003,2.7342307129e+003,2.7744870605e+003,2.7358974609e+003,2.7997436523e+003,
8.9843750000e-001,2.7144870605e+003,2.6087180176e+003,2.6991025391e+003,2.7791025391e+003,2.6342307129e+003,2.6880769043e+003,2.7226923828e+003,2.7139743652e+003,2.7591025391e+003,2.6332050781e+003,2.6439743652e+003,2.6912819824e+003,2.6464101563e+003,2.7139743652e+003,
9.0625000000e-001,2.5076923828e+003,2.3530769043e+003,2.4660256348e+003,2.5443588867e+003,2.3901281738e+003,2.4637180176e+003,2.5021794434e+003,2.4812819824e+003,2.5261538086e+003,2.3933332520e+003,2.3965385742e+003,2.4515385742e+003,2.4193588867e+003,2.4764101563e+003,
9.1406250000e-001,2.3971794434e+003,2.2083332520e+003,2.3191025391e+003,2.4380769043e+003,2.2546154785e+003,2.3385898438e+003,2.3748718262e+003,2.3165385742e+003,2.3702563477e+003,2.2276923828e+003,2.2350000000e+003,2.3033332520e+003,2.2641025391e+003,2.3260256348e+003,
9.2187500000e-001,2.4284614258e+003,2.2342307129e+003,2.3415385742e+003,2.4571794434e+003,2.2846154785e+003,2.3617949219e+003,2.3978205566e+003,2.3333332520e+003,2.3875642090e+003,2.2465385742e+003,2.2566667480e+003,2.3230769043e+003,2.2856411133e+003,2.3457692871e+003,
9.2968750000e-001,2.4521794434e+003,2.2458974609e+003,2.3533332520e+003,2.4646154785e+003,2.2973076172e+003,2.3734614258e+003,2.4055129395e+003,2.3408974609e+003,2.3882050781e+003,2.2573076172e+003,2.2665385742e+003,2.3332050781e+003,2.2917949219e+003,2.3562819824e+003,
9.3750000000e-001,2.4073076172e+003,2.1976923828e+003,2.3037180176e+003,2.4253845215e+003,2.2462819824e+003,2.3289743652e+003,2.3585898438e+003,2.2942307129e+003,2.3373076172e+003,2.2112819824e+003,2.2184614258e+003,2.2864101563e+003,2.2425642090e+003,2.3103845215e+003,
9.4531250000e-001,2.2428205566e+003,2.0162821045e+003,2.1210256348e+003,2.2665385742e+003,2.0675642090e+003,2.1570512695e+003,2.1937180176e+003,2.1098718262e+003,2.1485898438e+003,2.0214102783e+003,2.0324359131e+003,2.1055129395e+003,2.0596154785e+003,2.1298718262e+003,
9.5312500000e-001,2.3107692871e+003,2.0724357910e+003,2.1803845215e+003,2.3139743652e+003,2.1256411133e+003,2.2074357910e+003,2.2510256348e+003,2.1621794434e+003,2.2007692871e+003,2.0737180176e+003,2.0866667480e+003,2.1614101563e+003,2.1165385742e+003,2.1866667480e+003,
9.6093750000e-001,2.8376923828e+003,2.5878205566e+003,2.6805129395e+003,2.7921794434e+003,2.6139743652e+003,2.6773076172e+003,2.7284614258e+003,2.6747436523e+003,2.7175642090e+003,2.6137180176e+003,2.6132050781e+003,2.6779487305e+003,2.6470512695e+003,2.7000000000e+003,
9.6875000000e-001,2.9492307129e+003,2.7116667480e+003,2.7888461914e+003,2.9105129395e+003,2.7357692871e+003,2.7810256348e+003,2.8217949219e+003,2.8152563477e+003,2.8632050781e+003,2.7643588867e+003,2.7498718262e+003,2.8043588867e+003,2.7701281738e+003,2.8119230957e+003,
9.7656250000e-001,2.9315385742e+003,2.6955129395e+003,2.7703845215e+003,2.8891025391e+003,2.7284614258e+003,2.7652563477e+003,2.8057692871e+003,2.8006411133e+003,2.8484614258e+003,2.7483332520e+003,2.7333332520e+003,2.7851281738e+003,2.7510256348e+003,2.7900000000e+003,
9.8437500000e-001,2.9391025391e+003,2.7050000000e+003,2.7773076172e+003,2.8917949219e+003,2.7442307129e+003,2.7741025391e+003,2.8162819824e+003,2.8083332520e+003,2.8548718262e+003,2.7562819824e+003,2.7407692871e+003,2.7919230957e+003,2.7601281738e+003,2.7946154785e+003,
9.9218750000e-001,3.0174357910e+003,2.7893588867e+003,2.8576923828e+003,2.9694870605e+003,2.8232050781e+003,2.8507692871e+003,2.8964101563e+003,2.8830769043e+003,2.9276923828e+003,2.8356411133e+003,2.8183332520e+003,2.8758974609e+003,2.8465385742e+003,2.8720512695e+003,
1.0000000000e+000,3.0564101563e+003,2.8315385742e+003,2.8961538086e+003,3.0243588867e+003,2.8557692871e+003,2.8902563477e+003,2.9311538086e+003,2.9115385742e+003,2.9579487305e+003,2.8762819824e+003,2.8605129395e+003,2.9185898438e+003,2.8844870605e+003,2.9094870605e+003,
1.0078125000e+000,3.0660256348e+003,2.8415385742e+003,2.9070512695e+003,3.0384614258e+003,2.8711538086e+003,2.9037180176e+003,2.9424357910e+003,2.9142307129e+003,2.9600000000e+003,2.8858974609e+003,2.8721794434e+003,2.9280769043e+003,2.8974357910e+003,2.9200000000e+003,
1.0156250000e+000,3.1271794434e+003,2.9056411133e+003,2.9697436523e+003,3.1016667480e+003,2.9408974609e+003,2.9679487305e+003,3.0046154785e+003,2.9664101563e+003,3.0112819824e+003,2.9461538086e+003,2.9344870605e+003,2.9889743652e+003,2.9637180176e+003,2.9810256348e+003,
1.0234375000e+000,3.2533332520e+003,3.0388461914e+003,3.0956411133e+003,3.2283332520e+003,3.0769230957e+003,3.0952563477e+003,3.1288461914e+003,3.0846154785e+003,3.1283332520e+003,3.0726923828e+003,3.0616667480e+003,3.1146154785e+003,3.0941025391e+003,3.1051281738e+003,
1.0312500000e+000,3.5957692871e+003,3.4257692871e+003,3.4401281738e+003,3.5861538086e+003,3.4484614258e+003,3.4579487305e+003,3.4739743652e+003,3.4470512695e+003,3.4739743652e+003,3.4538461914e+003,3.4351281738e+003,3.4771794434e+003,3.4517949219e+003,3.4555129395e+003,
1.0390625000e+000,3.5601281738e+003,3.3953845215e+003,3.4102563477e+003,3.5508974609e+003,3.4175642090e+003,3.4319230957e+003,3.4473076172e+003,3.4142307129e+003,3.4364101563e+003,3.4212819824e+003,3.4044870605e+003,3.4460256348e+003,3.4221794434e+003,3.4223076172e+003,
1.0468750000e+000,3.6624357910e+003,3.5098718262e+003,3.5275642090e+003,3.6571794434e+003,3.5414101563e+003,3.5479487305e+003,3.5651281738e+003,3.5179487305e+003,3.5320512695e+003,3.5251281738e+003,3.5126923828e+003,3.5507692871e+003,3.5366667480e+003,3.5241025391e+003,
1.0546875000e+000,3.7226923828e+003,3.5979487305e+003,3.5928205566e+003,3.7408974609e+003,3.6121794434e+003,3.6107692871e+003,3.6261538086e+003,3.6114101563e+003,3.6235898438e+003,3.6198718262e+003,3.5964101563e+003,3.6244870605e+003,3.6123076172e+003,3.5952563477e+003,
1.0625000000e+000,3.6308974609e+003,3.5098718262e+003,3.5051281738e+003,3.6506411133e+003,3.5251281738e+003,3.5224357910e+003,3.5388461914e+003,3.5308974609e+003,3.5467949219e+003,3.5366667480e+003,3.5073076172e+003,3.5407692871e+003,3.5252563477e+003,3.5084614258e+003,
1.0703125000e+000,3.4351281738e+003,3.3046154785e+003,3.3238461914e+003,3.4539743652e+003,3.3360256348e+003,3.3305129395e+003,3.3543588867e+003,3.3410256348e+003,3.3698718262e+003,3.3415385742e+003,3.3092307129e+003,3.3488461914e+003,3.3326923828e+003,3.3229487305e+003,
1.0781250000e+000,3.4826923828e+003,3.3548718262e+003,3.3705129395e+003,3.5044870605e+003,3.3832050781e+003,3.3753845215e+003,3.4003845215e+003,3.3862819824e+003,3.4178205566e+003,3.3938461914e+003,3.3605129395e+003,3.3925642090e+003,3.3848718262e+003,3.3723076172e+003,
1.0859375000e+000,3.5329487305e+003,3.4137180176e+003,3.4232050781e+003,3.5603845215e+003,3.4258974609e+003,3.4173076172e+003,3.4432050781e+003,3.4424357910e+003,3.4753845215e+003,3.4547436523e+003,3.4098718262e+003,3.4584614258e+003,3.4358974609e+003,3.4283332520e+003,
1.0937500000e+000,3.4317949219e+003,3.3094870605e+003,3.3269230957e+003,3.4600000000e+003,3.3198718262e+003,3.3158974609e+003,3.3439743652e+003,3.3442307129e+003,3.3782050781e+003,3.3485898438e+003,3.3069230957e+003,3.3642307129e+003,3.3276923828e+003,3.3302563477e+003,
1.1015625000e+000,3.1932050781e+003,3.0646154785e+003,3.0944870605e+003,3.2247436523e+003,3.0671794434e+003,3.0861538086e+003,3.1175642090e+003,3.1046154785e+003,3.1415385742e+003,3.1008974609e+003,3.0729487305e+003,3.1255129395e+003,3.0846154785e+003,3.0964101563e+003,
1.1093750000e+000,3.1182050781e+003,2.9867949219e+003,3.0196154785e+003,3.1496154785e+003,2.9861538086e+003,3.0185898438e+003,3.0484614258e+003,3.0250000000e+003,3.0633332520e+003,3.0233332520e+003,2.9982050781e+003,3.0466667480e+003,3.0120512695e+003,3.0214101563e+003,
1.1171875000e+000,3.0475642090e+003,2.8975642090e+003,2.9393588867e+003,3.0612819824e+003,2.9280769043e+003,2.9494870605e+003,2.9729487305e+003,2.9350000000e+003,2.9780769043e+003,2.9324357910e+003,2.9030769043e+003,2.9643588867e+003,2.9338461914e+003,2.9416667480e+003,
1.1250000000e+000,3.0484614258e+003,2.8924357910e+003,2.9361538086e+003,3.0605129395e+003,2.9357692871e+003,2.9446154785e+003,2.9698718262e+003,2.9319230957e+003,2.9746154785e+003,2.9242307129e+003,2.8984614258e+003,2.9615385742e+003,2.9283332520e+003,2.9393588867e+003,
1.1328125000e+000,3.1733332520e+003,3.0176923828e+003,3.0520512695e+003,3.1944870605e+003,3.0555129395e+003,3.0605129395e+003,3.0885898438e+003,3.0450000000e+003,3.0838461914e+003,3.0369230957e+003,3.0212819824e+003,3.0752563477e+003,3.0448718262e+003,3.0564101563e+003,
1.1406250000e+000,3.3187180176e+003,3.1694870605e+003,3.1921794434e+003,3.3424357910e+003,3.1933332520e+003,3.2035898438e+003,3.2291025391e+003,3.1817949219e+003,3.2178205566e+003,3.1814101563e+003,3.1651281738e+003,3.2129487305e+003,3.1888461914e+003,3.1960256348e+003,
1.1484375000e+000,3.4974357910e+003,3.3565385742e+003,3.3657692871e+003,3.5183332520e+003,3.3678205566e+003,3.3798718262e+003,3.4010256348e+003,3.3528205566e+003,3.3844870605e+003,3.3620512695e+003,3.3403845215e+003,3.3846154785e+003,3.3666667480e+003,3.3682050781e+003,
1.1562500000e+000,4.1101284180e+003,4.0166667480e+003,3.9953845215e+003,4.0992309570e+003,4.0433332520e+003,4.0048718262e+003,4.0142307129e+003,3.9830769043e+003,3.9858974609e+003,4.0192307129e+003,3.9920512695e+003,4.0208974609e+003,4.0029487305e+003,3.9876923828e+003,
1.1640625000e+000,4.1994873047e+003,4.1207690430e+003,4.0907692871e+003,4.1897436523e+003,4.1425639648e+003,4.1032050781e+003,4.1116665039e+003,4.0869230957e+003,4.0855129395e+003,4.1282050781e+003,4.0987177734e+003,4.1205126953e+003,4.1056411133e+003,4.0843588867e+003,
1.1718750000e+000,4.2464101563e+003,4.1978203125e+003,4.1641025391e+003,4.2625639648e+003,4.2026923828e+003,4.1684614258e+003,4.1808974609e+003,4.1867949219e+003,4.1816665039e+003,4.2289741211e+003,4.1821796875e+003,4.2028203125e+003,4.1801284180e+003,4.1573076172e+003,
1.1796875000e+000,3.9483332520e+003,3.9051281738e+003,3.8942307129e+003,3.9906411133e+003,3.9165385742e+003,3.8893588867e+003,3.9014101563e+003,3.9147436523e+003,3.9225642090e+003,3.9501281738e+003,3.9005129395e+003,3.9252563477e+003,3.9041025391e+003,3.8801281738e+003,
1.1875000000e+000,3.8964101563e+003,3.8555129395e+003,3.8444870605e+003,3.9379487305e+003,3.8644870605e+003,3.8389743652e+003,3.8542307129e+003,3.8641025391e+003,3.8748718262e+003,3.8983332520e+003,3.8506411133e+003,3.8770512695e+003,3.8538461914e+003,3.8329487305e+003,
1.1953125000e+000,3.8450000000e+003,3.8092307129e+003,3.7953845215e+003,3.8873076172e+003,3.8070512695e+003,3.7880769043e+003,3.8070512695e+003,3.8178205566e+003,3.8343588867e+003,3.8544870605e+003,3.8080769043e+003,3.8350000000e+003,3.8024357910e+003,3.7962819824e+003,
1.2031250000e+000,3.7708974609e+003,3.7330769043e+003,3.7255129395e+003,3.8206411133e+003,3.7306411133e+003,3.7183332520e+003,3.7344870605e+003,3.7442307129e+003,3.7652563477e+003,3.7816667480e+003,3.7365385742e+003,3.7642307129e+003,3.7311538086e+003,3.7250000000e+003,
1.2109375000e+000,3.5928205566e+003,3.5384614258e+003,3.5525642090e+003,3.6444870605e+003,3.5432050781e+003,3.5419230957e+003,3.5647436523e+003,3.5447436523e+003,3.5765385742e+003,3.5770512695e+003,3.5406411133e+003,3.5788461914e+003,3.5476923828e+003,3.5384614258e+003,
1.2187500000e+000,3.6306411133e+003,3.5742307129e+003,3.5884614258e+003,3.6750000000e+003,3.5844870605e+003,3.5788461914e+003,3.6034614258e+003,3.5778205566e+003,3.6084614258e+003,3.6087180176e+003,3.5721794434e+003,3.6125642090e+003,3.5824357910e+003,3.5748718262e+003,
1.2265625000e+000,3.7161538086e+003,3.6625642090e+003,3.6748718262e+003,3.7566667480e+003,3.6898718262e+003,3.6737180176e+003,3.6903845215e+003,3.6646154785e+003,3.6935898438e+003,3.6982050781e+003,3.6610256348e+003,3.7003845215e+003,3.6703845215e+003,3.6682050781e+003,
1.2343750000e+000,3.7206411133e+003,3.6706411133e+003,3.6806411133e+003,3.7665385742e+003,3.7044870605e+003,3.6864101563e+003,3.6970512695e+003,3.6698718262e+003,3.7000000000e+003,3.7069230957e+003,3.6706411133e+003,3.7067949219e+003,3.6785898438e+003,3.6760256348e+003,
1.2421875000e+000,3.5782050781e+003,3.5351281738e+003,3.5379487305e+003,3.6293588867e+003,3.5605129395e+003,3.5573076172e+003,3.5634614258e+003,3.5335898438e+003,3.5587180176e+003,3.5721794434e+003,3.5328205566e+003,3.5688461914e+003,3.5401281738e+003,3.5307692871e+003,
1.2500000000e+000,3.4715385742e+003,3.4232050781e+003,3.4335898438e+003,3.5187180176e+003,3.4465385742e+003,3.4512819824e+003,3.4602563477e+003,3.4303845215e+003,3.4506411133e+003,3.4607692871e+003,3.4200000000e+003,3.4646154785e+003,3.4291025391e+003,3.4238461914e+003,
1.2578125000e+000,3.4151281738e+003,3.3551281738e+003,3.3737180176e+003,3.4584614258e+003,3.3814101563e+003,3.3926923828e+003,3.4083332520e+003,3.3637180176e+003,3.3778205566e+003,3.3782050781e+003,3.3410256348e+003,3.3947436523e+003,3.3614101563e+003,3.3597436523e+003,
1.2656250000e+000,3.6101281738e+003,3.5544870605e+003,3.5592307129e+003,3.6534614258e+003,3.5785898438e+003,3.5828205566e+003,3.6014101563e+003,3.5461538086e+003,3.5580769043e+003,3.5637180176e+003,3.5294870605e+003,3.5752563477e+003,3.5556411133e+003,3.5460256348e+003,
1.2734375000e+000,3.9748718262e+003,3.9328205566e+003,3.9120512695e+003,4.0157692871e+003,3.9502563477e+003,3.9382050781e+003,3.9593588867e+003,3.8992307129e+003,3.9084614258e+003,3.9306411133e+003,3.8974357910e+003,3.9283332520e+003,3.9243588867e+003,3.9017949219e+003,
1.2812500000e+000,5.3684614258e+003,5.4355126953e+003,5.3273076172e+003,5.3888461914e+003,5.4403847656e+003,5.3287177734e+003,5.3258974609e+003,5.3558974609e+003,5.3562822266e+003,5.4755126953e+003,5.4087177734e+003,5.3800000000e+003,5.3917949219e+003,5.3180771484e+003,
1.2890625000e+000,5.4753847656e+003,5.5624360352e+003,5.4483334961e+003,5.5060258789e+003,5.5653847656e+003,5.4501284180e+003,5.4446152344e+003,5.4711538086e+003,5.4655126953e+003,5.5937177734e+003,5.5294873047e+003,5.4966665039e+003,5.5121796875e+003,5.4325639648e+003,
1.2968750000e+000,6.6970512695e+003,6.8730771484e+003,6.6948715820e+003,6.7511538086e+003,6.8574360352e+003,6.6787177734e+003,6.6632050781e+003,6.6952563477e+003,6.6620512695e+003,6.8710258789e+003,6.8146152344e+003,6.7407690430e+003,6.7846152344e+003,6.6683334961e+003,
1.3046875000e+000,6.4021796875e+003,6.6550000000e+003,6.5010258789e+003,6.5024360352e+003,6.6152563477e+003,6.4566665039e+003,6.4167949219e+003,6.5279487305e+003,6.4896152344e+003,6.7261538086e+003,6.6373076172e+003,6.5697436523e+003,6.5760258789e+003,6.4671796875e+003,
1.3125000000e+000,5.8189741211e+003,6.0743588867e+003,5.9521796875e+003,5.9389741211e+003,6.0396152344e+003,5.9151284180e+003,5.8758974609e+003,5.9774360352e+003,5.9426923828e+003,6.1485898438e+003,6.0644873047e+003,6.0162822266e+003,6.0073076172e+003,5.9119228516e+003,
1.3203125000e+000,4.9212822266e+003,5.1535898438e+003,5.0783334961e+003,5.0847436523e+003,5.1614101563e+003,5.0776923828e+003,5.0532050781e+003,5.0801284180e+003,5.0638461914e+003,5.1887177734e+003,5.1367949219e+003,5.1170512695e+003,5.1048715820e+003,5.0308974609e+003,
1.3281250000e+000,4.8507690430e+003,5.0770512695e+003,5.0070512695e+003,5.0244873047e+003,5.0894873047e+003,5.0120512695e+003,4.9875639648e+003,5.0121796875e+003,4.9997436523e+003,5.1160258789e+003,5.0635898438e+003,5.0448715820e+003,5.0321796875e+003,4.9633334961e+003,
1.3359375000e+000,4.1998715820e+003,4.3992309570e+003,4.3655126953e+003,4.3937177734e+003,4.4119228516e+003,4.3794873047e+003,4.3626923828e+003,4.3792309570e+003,4.3725639648e+003,4.4474360352e+003,4.3997436523e+003,4.3979487305e+003,4.3762822266e+003,4.3301284180e+003,
1.3437500000e+000,4.1142309570e+003,4.2996152344e+003,4.2729487305e+003,4.3053847656e+003,4.3178203125e+003,4.2885898438e+003,4.2808974609e+003,4.2734614258e+003,4.2684614258e+003,4.3275639648e+003,4.2928203125e+003,4.2970512695e+003,4.2788461914e+003,4.2385898438e+003,
1.3515625000e+000,4.4997436523e+003,4.6697436523e+003,4.6292309570e+003,4.6687177734e+003,4.6926923828e+003,4.6417949219e+003,4.6417949219e+003,4.6082050781e+003,4.5994873047e+003,4.6642309570e+003,4.6423076172e+003,4.6458974609e+003,4.6407690430e+003,4.6019228516e+003,
1.3593750000e+000,4.7325639648e+003,4.9038461914e+003,4.8524360352e+003,4.8892309570e+003,4.9232050781e+003,4.8620512695e+003,4.8569228516e+003,4.8356411133e+003,4.8221796875e+003,4.9038461914e+003,4.8744873047e+003,4.8742309570e+003,4.8710258789e+003,4.8302563477e+003,
1.3671875000e+000,4.5152563477e+003,4.6826923828e+003,4.6479487305e+003,4.6700000000e+003,4.6966665039e+003,4.6541025391e+003,4.6361538086e+003,4.6578203125e+003,4.6464101563e+003,4.7329487305e+003,4.6861538086e+003,4.6829487305e+003,4.6666665039e+003,4.6291025391e+003,
1.3750000000e+000,4.3488461914e+003,4.5091025391e+003,4.4839741211e+003,4.5100000000e+003,4.5237177734e+003,4.4896152344e+003,4.4765385742e+003,4.4942309570e+003,4.4896152344e+003,4.5594873047e+003,4.5188461914e+003,4.5142309570e+003,4.5000000000e+003,4.4635898438e+003,
1.3828125000e+000,4.3128203125e+003,4.4658974609e+003,4.4388461914e+003,4.4742309570e+003,4.4787177734e+003,4.4412822266e+003,4.4394873047e+003,4.4502563477e+003,4.4539741211e+003,4.4997436523e+003,4.4661538086e+003,4.4592309570e+003,4.4573076172e+003,4.4173076172e+003,
1.3906250000e+000,4.3864101563e+003,4.5388461914e+003,4.5070512695e+003,4.5402563477e+003,4.5505126953e+003,4.5057690430e+003,4.5058974609e+003,4.5223076172e+003,4.5252563477e+003,4.5700000000e+003,4.5326923828e+003,4.5283334961e+003,4.5285898438e+003,4.4860258789e+003,
1.3984375000e+000,4.4524360352e+003,4.6033334961e+003,4.5692309570e+003,4.5976923828e+003,4.6134614258e+003,4.5633334961e+003,4.5635898438e+003,4.5882050781e+003,4.5891025391e+003,4.6384614258e+003,4.5955126953e+003,4.5952563477e+003,4.5938461914e+003,4.5492309570e+003,
1.4062500000e+000,4.7412822266e+003,4.8911538086e+003,4.8523076172e+003,4.8932050781e+003,4.8915385742e+003,4.8302563477e+003,4.8350000000e+003,4.8643588867e+003,4.8632050781e+003,4.9334614258e+003,4.8976923828e+003,4.8864101563e+003,4.8865385742e+003,4.8341025391e+003,
1.4140625000e+000,4.7961538086e+003,4.9511538086e+003,4.9101284180e+003,4.9479487305e+003,4.9538461914e+003,4.8888461914e+003,4.8915385742e+003,4.9194873047e+003,4.9156411133e+003,4.9878203125e+003,4.9528203125e+003,4.9414101563e+003,4.9398715820e+003,4.8891025391e+003,
1.4218750000e+000,5.1494873047e+003,5.3248715820e+003,5.2693588867e+003,5.2900000000e+003,5.3376923828e+003,5.2489741211e+003,5.2444873047e+003,5.2557690430e+003,5.2435898438e+003,5.3401284180e+003,5.3133334961e+003,5.2887177734e+003,5.2935898438e+003,5.2435898438e+003,
1.4296875000e+000,5.3339741211e+003,5.5212822266e+003,5.4560258789e+003,5.4748715820e+003,5.5351284180e+003,5.4334614258e+003,5.4270512695e+003,5.4366665039e+003,5.4203847656e+003,5.5311538086e+003,5.5071796875e+003,5.4784614258e+003,5.4856411133e+003,5.4312822266e+003,
1.4375000000e+000,5.6685898438e+003,5.8903847656e+003,5.7991025391e+003,5.8189741211e+003,5.8987177734e+003,5.7770512695e+003,5.7633334961e+003,5.7792309570e+003,5.7526923828e+003,5.8910258789e+003,5.8685898438e+003,5.8337177734e+003,5.8428203125e+003,5.7748715820e+003,
1.4453125000e+000,6.1621796875e+003,6.4437177734e+003,6.3397436523e+003,6.3279487305e+003,6.4489741211e+003,6.3178203125e+003,6.2839741211e+003,6.3148715820e+003,6.2644873047e+003,6.4467949219e+003,6.4187177734e+003,6.3666665039e+003,6.3802563477e+003,6.3051284180e+003,
1.4531250000e+000,6.1317949219e+003,6.4228203125e+003,6.3258974609e+003,6.3050000000e+003,6.4300000000e+003,6.3015385742e+003,6.2644873047e+003,6.3052563477e+003,6.2543588867e+003,6.4401284180e+003,6.4080771484e+003,6.3543588867e+003,6.3655126953e+003,6.2917949219e+003,
1.4609375000e+000,5.2087177734e+003,5.5074360352e+003,5.4447436523e+003,5.4262822266e+003,5.5173076172e+003,5.4384614258e+003,5.3971796875e+003,5.4514101563e+003,5.4221796875e+003,5.5544873047e+003,5.5210258789e+003,5.4812822266e+003,5.4761538086e+003,5.4139741211e+003,
1.4687500000e+000,4.8346152344e+003,5.1262822266e+003,5.0785898438e+003,5.0655126953e+003,5.1357690430e+003,5.0782050781e+003,5.0406411133e+003,5.0865385742e+003,5.0664101563e+003,5.1679487305e+003,5.1382050781e+003,5.1082050781e+003,5.0996152344e+003,5.0467949219e+003,
1.4765625000e+000,4.4389741211e+003,4.7047436523e+003,4.6780771484e+003,4.6829487305e+003,4.7130771484e+003,4.6802563477e+003,4.6562822266e+003,4.6852563477e+003,4.6789741211e+003,4.7330771484e+003,4.7096152344e+003,4.6939741211e+003,4.6865385742e+003,4.6510258789e+003,
1.4843750000e+000,4.3985898438e+003,4.6494873047e+003,4.6285898438e+003,4.6441025391e+003,4.6578203125e+003,4.6291025391e+003,4.6116665039e+003,4.6380771484e+003,4.6351284180e+003,4.6776923828e+003,4.6551284180e+003,4.6434614258e+003,4.6371796875e+003,4.6073076172e+003,
1.4921875000e+000,4.3135898438e+003,4.5355126953e+003,4.5261538086e+003,4.5561538086e+003,4.5556411133e+003,4.5157690430e+003,4.5091025391e+003,4.5424360352e+003,4.5412822266e+003,4.5726923828e+003,4.5515385742e+003,4.5403847656e+003,4.5365385742e+003,4.5101284180e+003,
1.5000000000e+000,4.2558974609e+003,4.4739741211e+003,4.4637177734e+003,4.4930771484e+003,4.4971796875e+003,4.4528203125e+003,4.4479487305e+003,4.4806411133e+003,4.4805126953e+003,4.5087177734e+003,4.4883334961e+003,4.4767949219e+003,4.4735898438e+003,4.4467949219e+003,
1.5078125000e+000,4.3071796875e+003,4.5152563477e+003,4.5001284180e+003,4.5208974609e+003,4.5366665039e+003,4.4882050781e+003,4.4902563477e+003,4.5073076172e+003,4.5091025391e+003,4.5325639648e+003,4.5174360352e+003,4.5079487305e+003,4.5051284180e+003,4.4820512695e+003,
1.5156250000e+000,4.4732050781e+003,4.6769228516e+003,4.6571796875e+003,4.6711538086e+003,4.6956411133e+003,4.6417949219e+003,4.6478203125e+003,4.6558974609e+003,4.6574360352e+003,4.6838461914e+003,4.6726923828e+003,4.6607690430e+003,4.6617949219e+003,4.6384614258e+003,
1.5234375000e+000,4.7044873047e+003,4.9082050781e+003,4.8801284180e+003,4.8889741211e+003,4.9241025391e+003,4.8605126953e+003,4.8680771484e+003,4.8735898438e+003,4.8733334961e+003,4.9091025391e+003,4.9002563477e+003,4.8816665039e+003,4.8892309570e+003,4.8611538086e+003,
1.5312500000e+000,5.2916665039e+003,5.5311538086e+003,5.4753847656e+003,5.4888461914e+003,5.5434614258e+003,5.4575639648e+003,5.4441025391e+003,5.4607690430e+003,5.4378203125e+003,5.5329487305e+003,5.5238461914e+003,5.4933334961e+003,5.4960258789e+003,5.4567949219e+003,
1.5390625000e+000,5.4080771484e+003,5.6565385742e+003,5.5950000000e+003,5.6050000000e+003,5.6689741211e+003,5.5802563477e+003,5.5656411133e+003,5.5724360352e+003,5.5467949219e+003,5.6501284180e+003,5.6433334961e+003,5.6106411133e+003,5.6150000000e+003,5.5746152344e+003,
1.5468750000e+000,5.8150000000e+003,6.1064101563e+003,6.0208974609e+003,6.0043588867e+003,6.1137177734e+003,6.0038461914e+003,5.9791025391e+003,5.9958974609e+003,5.9514101563e+003,6.0912822266e+003,6.0896152344e+003,6.0379487305e+003,6.0537177734e+003,5.9964101563e+003,
1.5546875000e+000,5.8423076172e+003,6.1438461914e+003,6.0579487305e+003,6.0332050781e+003,6.1544873047e+003,6.0400000000e+003,6.0100000000e+003,6.0360258789e+003,5.9869228516e+003,6.1325639648e+003,6.1321796875e+003,6.0756411133e+003,6.0917949219e+003,6.0315385742e+003,
1.5625000000e+000,5.6891025391e+003,6.0023076172e+003,5.9247436523e+003,5.8946152344e+003,6.0141025391e+003,5.9130771484e+003,5.8747436523e+003,5.9088461914e+003,5.8623076172e+003,6.0019228516e+003,5.9956411133e+003,5.9396152344e+003,5.9512822266e+003,5.8929487305e+003,
1.5703125000e+000,5.3093588867e+003,5.6274360352e+003,5.5614101563e+003,5.5365385742e+003,5.6330771484e+003,5.5687177734e+003,5.5352563477e+003,5.5716665039e+003,5.5402563477e+003,5.6407690430e+003,5.6258974609e+003,5.5689741211e+003,5.5892309570e+003,5.5306411133e+003,
1.5781250000e+000,5.2688461914e+003,5.5838461914e+003,5.5217949219e+003,5.4994873047e+003,5.6023076172e+003,5.5303847656e+003,5.4992309570e+003,5.5420512695e+003,5.5134614258e+003,5.6033334961e+003,5.5873076172e+003,5.5291025391e+003,5.5519228516e+003,5.4939741211e+003,
1.5859375000e+000,5.1321796875e+003,5.4402563477e+003,5.3896152344e+003,5.3798715820e+003,5.4679487305e+003,5.3970512695e+003,5.3732050781e+003,5.4183334961e+003,5.3997436523e+003,5.4653847656e+003,5.4448715820e+003,5.3994873047e+003,5.4135898438e+003,5.3680771484e+003,
1.5937500000e+000,5.1455126953e+003,5.4520512695e+003,5.4020512695e+003,5.3942309570e+003,5.4729487305e+003,5.4055126953e+003,5.3834614258e+003,5.4307690430e+003,5.4120512695e+003,5.4782050781e+003,5.4579487305e+003,5.4116665039e+003,5.4273076172e+003,5.3830771484e+003,
1.6015625000e+000,5.1250000000e+003,5.4252563477e+003,5.3838461914e+003,5.3726923828e+003,5.4379487305e+003,5.3721796875e+003,5.3497436523e+003,5.4174360352e+003,5.3928203125e+003,5.4610258789e+003,5.4433334961e+003,5.3951284180e+003,5.4085898438e+003,5.3667949219e+003,
1.6093750000e+000,4.9852563477e+003,5.2787177734e+003,5.2478203125e+003,5.2339741211e+003,5.2911538086e+003,5.2292309570e+003,5.2070512695e+003,5.2833334961e+003,5.2588461914e+003,5.3197436523e+003,5.3030771484e+003,5.2610258789e+003,5.2661538086e+003,5.2302563477e+003,
1.6171875000e+000,4.2765385742e+003,4.5302563477e+003,4.5426923828e+003,4.5201284180e+003,4.5474360352e+003,4.5241025391e+003,4.5100000000e+003,4.5585898438e+003,4.5532050781e+003,4.5678203125e+003,4.5608974609e+003,4.5469228516e+003,4.5353847656e+003,4.5248715820e+003,
1.6250000000e+000,4.1456411133e+003,4.3830771484e+003,4.4069228516e+003,4.3812822266e+003,4.4028203125e+003,4.3902563477e+003,4.3789741211e+003,4.4103847656e+003,4.4100000000e+003,4.4132050781e+003,4.4148715820e+003,4.4060258789e+003,4.3960258789e+003,4.3907690430e+003,
1.6328125000e+000,4.0352563477e+003,4.2442309570e+003,4.2811538086e+003,4.2643588867e+003,4.2679487305e+003,4.2615385742e+003,4.2520512695e+003,4.2689741211e+003,4.2707690430e+003,4.2617949219e+003,4.2779487305e+003,4.2766665039e+003,4.2679487305e+003,4.2689741211e+003,
1.6406250000e+000,3.9376923828e+003,4.1337177734e+003,4.1761538086e+003,4.1721796875e+003,4.1574360352e+003,4.1553847656e+003,4.1450000000e+003,4.1624360352e+003,4.1637177734e+003,4.1493588867e+003,4.1674360352e+003,4.1708974609e+003,4.1591025391e+003,4.1639741211e+003,
1.6484375000e+000,3.7805129395e+003,3.9623076172e+003,4.0128205566e+003,4.0210256348e+003,3.9862819824e+003,3.9939743652e+003,3.9833332520e+003,3.9975642090e+003,3.9989743652e+003,3.9769230957e+003,3.9951281738e+003,4.0052563477e+003,3.9878205566e+003,3.9984614258e+003,
1.6562500000e+000,3.6079487305e+003,3.7735898438e+003,3.8341025391e+003,3.8482050781e+003,3.7997436523e+003,3.8201281738e+003,3.8107692871e+003,3.8134614258e+003,3.8161538086e+003,3.7853845215e+003,3.8043588867e+003,3.8225642090e+003,3.7996154785e+003,3.8169230957e+003,
1.6640625000e+000,3.5308974609e+003,3.6447436523e+003,3.7020512695e+003,3.7243588867e+003,3.6673076172e+003,3.7117949219e+003,3.7094870605e+003,3.6773076172e+003,3.6814101563e+003,3.6394870605e+003,3.6675642090e+003,3.6930769043e+003,3.6819230957e+003,3.6980769043e+003,
1.6718750000e+000,3.3488461914e+003,3.4126923828e+003,3.4842307129e+003,3.5035898438e+003,3.4569230957e+003,3.4988461914e+003,3.5056411133e+003,3.4853845215e+003,3.5037180176e+003,3.4302563477e+003,3.4473076172e+003,3.4733332520e+003,3.4653845215e+003,3.4762819824e+003,
1.6796875000e+000,3.3674357910e+003,3.4184614258e+003,3.4920512695e+003,3.5150000000e+003,3.4729487305e+003,3.5096154785e+003,3.5189743652e+003,3.4979487305e+003,3.5215385742e+003,3.4426923828e+003,3.4570512695e+003,3.4833332520e+003,3.4794870605e+003,3.4839743652e+003,
1.6875000000e+000,3.4479487305e+003,3.4873076172e+003,3.5480769043e+003,3.5947436523e+003,3.5312819824e+003,3.5750000000e+003,3.5834614258e+003,3.5785898438e+003,3.6038461914e+003,3.5241025391e+003,3.5198718262e+003,3.5550000000e+003,3.5569230957e+003,3.5538461914e+003,
1.6953125000e+000,3.3229487305e+003,3.3403845215e+003,3.3952563477e+003,3.4446154785e+003,3.3761538086e+003,3.4134614258e+003,3.4255129395e+003,3.4255129395e+003,3.4560256348e+003,3.3630769043e+003,3.3410256348e+003,3.3978205566e+003,3.3956411133e+003,3.4006411133e+003,
1.7031250000e+000,3.3496154785e+003,3.3546154785e+003,3.4173076172e+003,3.4682050781e+003,3.3988461914e+003,3.4267949219e+003,3.4420512695e+003,3.4364101563e+003,3.4683332520e+003,3.3762819824e+003,3.3587180176e+003,3.4178205566e+003,3.4129487305e+003,3.4176923828e+003,
1.7109375000e+000,3.3488461914e+003,3.3279487305e+003,3.3994870605e+003,3.4625642090e+003,3.3629487305e+003,3.4020512695e+003,3.4150000000e+003,3.4143588867e+003,3.4466667480e+003,3.3619230957e+003,3.3469230957e+003,3.4052563477e+003,3.3988461914e+003,3.4028205566e+003,
1.7187500000e+000,3.2983332520e+003,3.2729487305e+003,3.3430769043e+003,3.4070512695e+003,3.3055129395e+003,3.3478205566e+003,3.3617949219e+003,3.3596154785e+003,3.3933332520e+003,3.3065385742e+003,3.2917949219e+003,3.3511538086e+003,3.3451281738e+003,3.3492307129e+003,
1.7265625000e+000,3.3026923828e+003,3.2662819824e+003,3.3337180176e+003,3.3965385742e+003,3.3007692871e+003,3.3371794434e+003,3.3562819824e+003,3.3366667480e+003,3.3723076172e+003,3.2864101563e+003,3.2776923828e+003,3.3438461914e+003,3.3334614258e+003,3.3410256348e+003,
1.7343750000e+000,3.3808974609e+003,3.3405129395e+003,3.4029487305e+003,3.4644870605e+003,3.3721794434e+003,3.4057692871e+003,3.4243588867e+003,3.3958974609e+003,3.4297436523e+003,3.3514101563e+003,3.3457692871e+003,3.4135898438e+003,3.4010256348e+003,3.4106411133e+003,
1.7421875000e+000,3.4733332520e+003,3.4319230957e+003,3.4866667480e+003,3.5453845215e+003,3.4580769043e+003,3.4912819824e+003,3.5061538086e+003,3.4739743652e+003,3.5039743652e+003,3.4360256348e+003,3.4321794434e+003,3.4982050781e+003,3.4852563477e+003,3.4956411133e+003,
1.7500000000e+000,3.5552563477e+003,3.5147436523e+003,3.5611538086e+003,3.6103845215e+003,3.5400000000e+003,3.5700000000e+003,3.5778205566e+003,3.5491025391e+003,3.5724357910e+003,3.5161538086e+003,3.5162819824e+003,3.5719230957e+003,3.5610256348e+003,3.5696154785e+003,
1.7578125000e+000,3.5351281738e+003,3.4919230957e+003,3.5382050781e+003,3.5929487305e+003,3.5314101563e+003,3.5483332520e+003,3.5592307129e+003,3.5280769043e+003,3.5489743652e+003,3.4871794434e+003,3.4902563477e+003,3.5444870605e+003,3.5371794434e+003,3.5416667480e+003,
1.7656250000e+000,3.5561538086e+003,3.5133332520e+003,3.5553845215e+003,3.6144870605e+003,3.5452563477e+003,3.5675642090e+003,3.5779487305e+003,3.5458974609e+003,3.5651281738e+003,3.5056411133e+003,3.5073076172e+003,3.5634614258e+003,3.5560256348e+003,3.5612819824e+003,
1.7734375000e+000,3.5591025391e+003,3.5157692871e+003,3.5564101563e+003,3.6173076172e+003,3.5380769043e+003,3.5700000000e+003,3.5784614258e+003,3.5474357910e+003,3.5644870605e+003,3.5087180176e+003,3.5078205566e+003,3.5658974609e+003,3.5557692871e+003,3.5634614258e+003,
1.7812500000e+000,3.5234614258e+003,3.4769230957e+003,3.5215385742e+003,3.5824357910e+003,3.4953845215e+003,3.5351281738e+003,3.5417949219e+003,3.5123076172e+003,3.5284614258e+003,3.4739743652e+003,3.4697436523e+003,3.5297436523e+003,3.5152563477e+003,3.5262819824e+003,
1.7890625000e+000,3.3784614258e+003,3.3107692871e+003,3.3688461914e+003,3.4515385742e+003,3.3611538086e+003,3.3888461914e+003,3.4058974609e+003,3.3847436523e+003,3.4037180176e+003,3.3275642090e+003,3.3156411133e+003,3.3698718262e+003,3.3612819824e+003,3.3696154785e+003,
1.7968750000e+000,3.3715385742e+003,3.3017949219e+003,3.3537180176e+003,3.4442307129e+003,3.3478205566e+003,3.3785898438e+003,3.3989743652e+003,3.3858974609e+003,3.4042307129e+003,3.3247436523e+003,3.3092307129e+003,3.3621794434e+003,3.3553845215e+003,3.3624357910e+003,
1.8046875000e+000,3.0953845215e+003,3.0082050781e+003,3.0646154785e+003,3.1496154785e+003,3.0385898438e+003,3.0889743652e+003,3.1106411133e+003,3.1129487305e+003,3.1385898438e+003,3.0416667480e+003,3.0166667480e+003,3.0803845215e+003,3.0606411133e+003,3.0756411133e+003,
1.8125000000e+000,2.9606411133e+003,2.8391025391e+003,2.9194870605e+003,3.0010256348e+003,2.8721794434e+003,2.9285898438e+003,2.9570512695e+003,2.9448718262e+003,2.9783332520e+003,2.8616667480e+003,2.8494870605e+003,2.9214101563e+003,2.8989743652e+003,2.9242307129e+003,
1.8203125000e+000,2.9750000000e+003,2.8473076172e+003,2.9260256348e+003,3.0126923828e+003,2.8796154785e+003,2.9362819824e+003,2.9651281738e+003,2.9526923828e+003,2.9889743652e+003,2.8719230957e+003,2.8593588867e+003,2.9298718262e+003,2.9107692871e+003,2.9343588867e+003,
1.8281250000e+000,2.8573076172e+003,2.7144870605e+003,2.7960256348e+003,2.8778205566e+003,2.7458974609e+003,2.8100000000e+003,2.8356411133e+003,2.8189743652e+003,2.8646154785e+003,2.7505129395e+003,2.7261538086e+003,2.8069230957e+003,2.7773076172e+003,2.8055129395e+003,
1.8359375000e+000,2.8147436523e+003,2.6662819824e+003,2.7483332520e+003,2.8335898438e+003,2.6947436523e+003,2.7606411133e+003,2.7858974609e+003,2.7653845215e+003,2.8128205566e+003,2.6989743652e+003,2.6765385742e+003,2.7579487305e+003,2.7278205566e+003,2.7583332520e+003,
1.8437500000e+000,2.6393588867e+003,2.4651281738e+003,2.5539743652e+003,2.6673076172e+003,2.4834614258e+003,2.5658974609e+003,2.5896154785e+003,2.5594870605e+003,2.6075642090e+003,2.4944870605e+003,2.4848718262e+003,2.5652563477e+003,2.5361538086e+003,2.5734614258e+003,
1.8515625000e+000,2.5261538086e+003,2.3394870605e+003,2.4379487305e+003,2.5525642090e+003,2.3607692871e+003,2.4506411133e+003,2.4758974609e+003,2.4374357910e+003,2.4861538086e+003,2.3707692871e+003,2.3619230957e+003,2.4498718262e+003,2.4148718262e+003,2.4571794434e+003,
1.8593750000e+000,2.3908974609e+003,2.1839743652e+003,2.2896154785e+003,2.4011538086e+003,2.2197436523e+003,2.3033332520e+003,2.3358974609e+003,2.2791025391e+003,2.3320512695e+003,2.2100000000e+003,2.2029487305e+003,2.2988461914e+003,2.2610256348e+003,2.3070512695e+003,
1.8671875000e+000,2.3984614258e+003,2.1829487305e+003,2.2855129395e+003,2.3976923828e+003,2.2260256348e+003,2.2980769043e+003,2.3339743652e+003,2.2734614258e+003,2.3278205566e+003,2.2048718262e+003,2.1994870605e+003,2.2929487305e+003,2.2589743652e+003,2.3032050781e+003,
1.8750000000e+000,2.4203845215e+003,2.1948718262e+003,2.2965385742e+003,2.4089743652e+003,2.2426923828e+003,2.3062819824e+003,2.3435898438e+003,2.2833332520e+003,2.3378205566e+003,2.2157692871e+003,2.2111538086e+003,2.3016667480e+003,2.2701281738e+003,2.3138461914e+003,
1.8828125000e+000,2.3224357910e+003,2.0612819824e+003,2.1694870605e+003,2.2812819824e+003,2.1041025391e+003,2.1914101563e+003,2.2334614258e+003,2.1692307129e+003,2.2291025391e+003,2.0884614258e+003,2.0710256348e+003,2.1689743652e+003,2.1289743652e+003,2.1779487305e+003,
1.8906250000e+000,2.3820512695e+003,2.1171794434e+003,2.2171794434e+003,2.3358974609e+003,2.1617949219e+003,2.2441025391e+003,2.2905129395e+003,2.2273076172e+003,2.2855129395e+003,2.1424357910e+003,2.1229487305e+003,2.2206411133e+003,2.1835898438e+003,2.2298718262e+003,
1.8984375000e+000,2.6196154785e+003,2.3591025391e+003,2.4351281738e+003,2.5585898438e+003,2.3943588867e+003,2.4656411133e+003,2.5073076172e+003,2.4752563477e+003,2.5165385742e+003,2.3929487305e+003,2.3588461914e+003,2.4434614258e+003,2.4175642090e+003,2.4534614258e+003,
1.9062500000e+000,2.6300000000e+003,2.3707692871e+003,2.4451281738e+003,2.5706411133e+003,2.4024357910e+003,2.4735898438e+003,2.5129487305e+003,2.4876923828e+003,2.5266667480e+003,2.4075642090e+003,2.3689743652e+003,2.4528205566e+003,2.4261538086e+003,2.4612819824e+003,
1.9140625000e+000,2.6262819824e+003,2.3516667480e+003,2.4367949219e+003,2.5728205566e+003,2.3858974609e+003,2.4567949219e+003,2.5007692871e+003,2.4692307129e+003,2.5120512695e+003,2.3908974609e+003,2.3503845215e+003,2.4383332520e+003,2.4084614258e+003,2.4434614258e+003,
1.9218750000e+000,2.6564101563e+003,2.3732050781e+003,2.4562819824e+003,2.5978205566e+003,2.4051281738e+003,2.4765385742e+003,2.5235898438e+003,2.4939743652e+003,2.5370512695e+003,2.4187180176e+003,2.3765385742e+003,2.4688461914e+003,2.4273076172e+003,2.4630769043e+003,
1.9296875000e+000,2.7116667480e+003,2.4369230957e+003,2.5070512695e+003,2.6464101563e+003,2.4710256348e+003,2.5296154785e+003,2.5761538086e+003,2.5428205566e+003,2.5844870605e+003,2.4687180176e+003,2.4319230957e+003,2.5234614258e+003,2.4841025391e+003,2.5182050781e+003,
1.9375000000e+000,3.0539743652e+003,2.7862819824e+003,2.8352563477e+003,2.9639743652e+003,2.8292307129e+003,2.8530769043e+003,2.8989743652e+003,2.8576923828e+003,2.8969230957e+003,2.8062819824e+003,2.7741025391e+003,2.8525642090e+003,2.8294870605e+003,2.8508974609e+003,
1.9453125000e+000,3.2392307129e+003,2.9735898438e+003,3.0197436523e+003,3.1402563477e+003,3.0175642090e+003,3.0320512695e+003,3.0746154785e+003,3.0373076172e+003,3.0730769043e+003,3.0016667480e+003,2.9661538086e+003,3.0388461914e+003,3.0185898438e+003,3.0339743652e+003,
1.9531250000e+000,3.4919230957e+003,3.2601281738e+003,3.2884614258e+003,3.4010256348e+003,3.2871794434e+003,3.3005129395e+003,3.3308974609e+003,3.2976923828e+003,3.3237180176e+003,3.2891025391e+003,3.2514101563e+003,3.3185898438e+003,3.2896154785e+003,3.3010256348e+003,
1.9609375000e+000,3.6280769043e+003,3.4097436523e+003,3.4256411133e+003,3.5365385742e+003,3.4312819824e+003,3.4391025391e+003,3.4682050781e+003,3.4273076172e+003,3.4523076172e+003,3.4292307129e+003,3.3932050781e+003,3.4546154785e+003,3.4307692871e+003,3.4371794434e+003,
1.9687500000e+000,4.2050000000e+003,4.0166667480e+003,4.0182050781e+003,4.0953845215e+003,4.0328205566e+003,4.0125642090e+003,4.0350000000e+003,3.9998718262e+003,4.0182050781e+003,4.0423076172e+003,3.9991025391e+003,4.0362819824e+003,4.0262819824e+003,4.0101281738e+003,
1.9765625000e+000,4.2885898438e+003,4.1175639648e+003,4.1115385742e+003,4.1846152344e+003,4.1350000000e+003,4.1055126953e+003,4.1244873047e+003,4.0989741211e+003,4.1153847656e+003,4.1479487305e+003,4.1003847656e+003,4.1326923828e+003,4.1220512695e+003,4.1008974609e+003,
1.9843750000e+000,4.3401284180e+003,4.2138461914e+003,4.1820512695e+003,4.2712822266e+003,4.2334614258e+003,4.1906411133e+003,4.2035898438e+003,4.1894873047e+003,4.2039741211e+003,4.2388461914e+003,4.1869228516e+003,4.2139741211e+003,4.2048715820e+003,4.1761538086e+003,
1.9921875000e+000,4.3748715820e+003,4.2674360352e+003,4.2271796875e+003,4.3226923828e+003,4.2848715820e+003,4.2402563477e+003,4.2516665039e+003,4.2421796875e+003,4.2539741211e+003,4.2898715820e+003,4.2364101563e+003,4.2611538086e+003,4.2546152344e+003,4.2229487305e+003,
2.0000000000e+000,4.3961538086e+003,4.3007690430e+003,4.2603847656e+003,4.3534614258e+003,4.3152563477e+003,4.2729487305e+003,4.2832050781e+003,4.2821796875e+003,4.2893588867e+003,4.3282050781e+003,4.2711538086e+003,4.2943588867e+003,4.2885898438e+003,4.2550000000e+003,
2.0078125000e+000,4.3506411133e+003,4.2608974609e+003,4.2279487305e+003,4.3126923828e+003,4.2752563477e+003,4.2385898438e+003,4.2475639648e+003,4.2582050781e+003,4.2603847656e+003,4.3007690430e+003,4.2384614258e+003,4.2626923828e+003,4.2533334961e+003,4.2198715820e+003,
2.0156250000e+000,3.5528205566e+003,3.4617949219e+003,3.4650000000e+003,3.5502563477e+003,3.4848718262e+003,3.4979487305e+003,3.5087180176e+003,3.5171794434e+003,3.5239743652e+003,3.5146154785e+003,3.4557692871e+003,3.5032050781e+003,3.4758974609e+003,3.4657692871e+003,
2.0234375000e+000,3.3644870605e+003,3.2583332520e+003,3.2853845215e+003,3.3730769043e+003,3.2714101563e+003,3.2952563477e+003,3.3248718262e+003,3.3230769043e+003,3.3353845215e+003,3.3080769043e+003,3.2471794434e+003,3.3012819824e+003,3.2788461914e+003,3.2698718262e+003,
2.0312500000e+000,3.2856411133e+003,3.1742307129e+003,3.2046154785e+003,3.3029487305e+003,3.2038461914e+003,3.2169230957e+003,3.2489743652e+003,3.2447436523e+003,3.2602563477e+003,3.2288461914e+003,3.1697436523e+003,3.2261538086e+003,3.1985898438e+003,3.1947436523e+003,
2.0390625000e+000,3.1735898438e+003,3.0542307129e+003,3.0785898438e+003,3.1914101563e+003,3.0917949219e+003,3.1039743652e+003,3.1351281738e+003,3.1165385742e+003,3.1433332520e+003,3.1042307129e+003,3.0566667480e+003,3.1105129395e+003,3.0848718262e+003,3.0883332520e+003,
2.0468750000e+000,3.3520512695e+003,3.2198718262e+003,3.2464101563e+003,3.3291025391e+003,3.2270512695e+003,3.2494870605e+003,3.2771794434e+003,3.2496154785e+003,3.2779487305e+003,3.2542307129e+003,3.2137180176e+003,3.2773076172e+003,3.2458974609e+003,3.2564101563e+003,
2.0546875000e+000,3.3507692871e+003,3.2146154785e+003,3.2438461914e+003,3.3258974609e+003,3.2343588867e+003,3.2415385742e+003,3.2692307129e+003,3.2417949219e+003,3.2700000000e+003,3.2505129395e+003,3.2110256348e+003,3.2743588867e+003,3.2426923828e+003,3.2529487305e+003,
2.0625000000e+000,3.2851281738e+003,3.1492307129e+003,3.1761538086e+003,3.2628205566e+003,3.1798718262e+003,3.1710256348e+003,3.1993588867e+003,3.1664101563e+003,3.1980769043e+003,3.1838461914e+003,3.1479487305e+003,3.2070512695e+003,3.1806411133e+003,3.1861538086e+003,
2.0703125000e+000,3.2598718262e+003,3.1260256348e+003,3.1508974609e+003,3.2406411133e+003,3.1517949219e+003,3.1467949219e+003,3.1744870605e+003,3.1373076172e+003,3.1717949219e+003,3.1592307129e+003,3.1229487305e+003,3.1815385742e+003,3.1561538086e+003,3.1596154785e+003,
2.0781250000e+000,3.2392307129e+003,3.1057692871e+003,3.1283332520e+003,3.2202563477e+003,3.1210256348e+003,3.1352563477e+003,3.1573076172e+003,3.1167949219e+003,3.1583332520e+003,3.1398718262e+003,3.0960256348e+003,3.1552563477e+003,3.1279487305e+003,3.1319230957e+003,
2.0859375000e+000,3.2355129395e+003,3.0979487305e+003,3.1232050781e+003,3.2084614258e+003,3.1160256348e+003,3.1320512695e+003,3.1555129395e+003,3.1164101563e+003,3.1578205566e+003,3.1342307129e+003,3.0878205566e+003,3.1474357910e+003,3.1202563477e+003,3.1252563477e+003,
2.0937500000e+000,3.4797436523e+003,3.3394870605e+003,3.3597436523e+003,3.4398718262e+003,3.3621794434e+003,3.3760256348e+003,3.4073076172e+003,3.3760256348e+003,3.4057692871e+003,3.3834614258e+003,3.3283332520e+003,3.3779487305e+003,3.3570512695e+003,3.3539743652e+003,
2.1015625000e+000,3.6584614258e+003,3.5280769043e+003,3.5366667480e+003,3.6233332520e+003,3.5455129395e+003,3.5562819824e+003,3.5880769043e+003,3.5651281738e+003,3.5883332520e+003,3.5742307129e+003,3.5153845215e+003,3.5589743652e+003,3.5383332520e+003,3.5298718262e+003,
2.1093750000e+000,3.9211538086e+003,3.8184614258e+003,3.8056411133e+003,3.8953845215e+003,3.8261538086e+003,3.8230769043e+003,3.8530769043e+003,3.8510256348e+003,3.8648718262e+003,3.8687180176e+003,3.8016667480e+003,3.8389743652e+003,3.8138461914e+003,3.7982050781e+003,
2.1171875000e+000,3.9497436523e+003,3.8591025391e+003,3.8398718262e+003,3.9264101563e+003,3.8666667480e+003,3.8546154785e+003,3.8819230957e+003,3.8873076172e+003,3.9002563477e+003,3.9105129395e+003,3.8392307129e+003,3.8751281738e+003,3.8493588867e+003,3.8323076172e+003,
2.1250000000e+000,3.9206411133e+003,3.8392307129e+003,3.8160256348e+003,3.9003845215e+003,3.8485898438e+003,3.8298718262e+003,3.8537180176e+003,3.8632050781e+003,3.8769230957e+003,3.8908974609e+003,3.8161538086e+003,3.8508974609e+003,3.8258974609e+003,3.8087180176e+003,
2.1328125000e+000,3.8562819824e+003,3.7811538086e+003,3.7569230957e+003,3.8410256348e+003,3.7924357910e+003,3.7715385742e+003,3.7929487305e+003,3.8030769043e+003,3.8176923828e+003,3.8330769043e+003,3.7565385742e+003,3.7910256348e+003,3.7660256348e+003,3.7502563477e+003,
2.1406250000e+000,3.4678205566e+003,3.3853845215e+003,3.3903845215e+003,3.4703845215e+003,3.3992307129e+003,3.3903845215e+003,3.4243588867e+003,3.4244870605e+003,3.4369230957e+003,3.4339743652e+003,3.3742307129e+003,3.4169230957e+003,3.3866667480e+003,3.3807692871e+003,
2.1484375000e+000,3.4041025391e+003,3.3165385742e+003,3.3251281738e+003,3.4103845215e+003,3.3328205566e+003,3.3247436523e+003,3.3612819824e+003,3.3541025391e+003,3.3696154785e+003,3.3616667480e+003,3.3053845215e+003,3.3492307129e+003,3.3212819824e+003,3.3155129395e+003,
2.1562500000e+000,3.5229487305e+003,3.4350000000e+003,3.4325642090e+003,3.5287180176e+003,3.4415385742e+003,3.4365385742e+003,3.4714101563e+003,3.4367949219e+003,3.4610256348e+003,3.4623076172e+003,3.4117949219e+003,3.4539743652e+003,3.4308974609e+003,3.4292307129e+003,
2.1640625000e+000,3.5219230957e+003,3.4352563477e+003,3.4305129395e+003,3.5246154785e+003,3.4383332520e+003,3.4257692871e+003,3.4478205566e+003,3.4330769043e+003,3.4539743652e+003,3.4643588867e+003,3.4194870605e+003,3.4583332520e+003,3.4332050781e+003,3.4317949219e+003,
2.1718750000e+000,3.4912819824e+003,3.4039743652e+003,3.4006411133e+003,3.4907692871e+003,3.4119230957e+003,3.3974357910e+003,3.4179487305e+003,3.3982050781e+003,3.4200000000e+003,3.4287180176e+003,3.3866667480e+003,3.4266667480e+003,3.4010256348e+003,3.4005129395e+003,
2.1796875000e+000,4.1283334961e+003,4.0723076172e+003,4.0319230957e+003,4.1080771484e+003,4.0528205566e+003,4.0297436523e+003,4.0565385742e+003,4.0043588867e+003,4.0305129395e+003,4.0682050781e+003,4.0312819824e+003,4.0474357910e+003,4.0465385742e+003,4.0270512695e+003,
2.1875000000e+000,4.7694873047e+003,4.7678203125e+003,4.6917949219e+003,4.7679487305e+003,4.7476923828e+003,4.6837177734e+003,4.6892309570e+003,4.6882050781e+003,4.7025639648e+003,4.7883334961e+003,4.7298715820e+003,4.7250000000e+003,4.7224360352e+003,4.6807690430e+003,
2.1953125000e+000,4.6779487305e+003,4.6900000000e+003,4.6135898438e+003,4.6851284180e+003,4.6852563477e+003,4.6084614258e+003,4.6084614258e+003,4.6221796875e+003,4.6350000000e+003,4.7217949219e+003,4.6546152344e+003,4.6515385742e+003,4.6417949219e+003,4.6000000000e+003,
2.2031250000e+000,4.4732050781e+003,4.4950000000e+003,4.4238461914e+003,4.4874360352e+003,4.5020512695e+003,4.4224360352e+003,4.4217949219e+003,4.4407690430e+003,4.4529487305e+003,4.5326923828e+003,4.4611538086e+003,4.4626923828e+003,4.4465385742e+003,4.4085898438e+003,
2.2109375000e+000,4.0500000000e+003,4.0739743652e+003,4.0248718262e+003,4.0746154785e+003,4.0787180176e+003,4.0258974609e+003,4.0337180176e+003,4.0419230957e+003,4.0506411133e+003,4.1041025391e+003,4.0408974609e+003,4.0561538086e+003,4.0302563477e+003,4.0079487305e+003,
2.2187500000e+000,3.9538461914e+003,3.9725642090e+003,3.9324357910e+003,3.9817949219e+003,3.9700000000e+003,3.9333332520e+003,3.9451281738e+003,3.9470512695e+003,3.9532050781e+003,3.9947436523e+003,3.9389743652e+003,3.9588461914e+003,3.9311538086e+003,3.9153845215e+003,
2.2265625000e+000,3.9150000000e+003,3.9244870605e+003,3.8885898438e+003,3.9503845215e+003,3.9253845215e+003,3.8933332520e+003,3.9078205566e+003,3.9111538086e+003,3.9235898438e+003,3.9483332520e+003,3.8925642090e+003,3.9120512695e+003,3.8876923828e+003,3.8723076172e+003,
2.2343750000e+000,3.8305129395e+003,3.8397436523e+003,3.8067949219e+003,3.8687180176e+003,3.8417949219e+003,3.8110256348e+003,3.8273076172e+003,3.8328205566e+003,3.8478205566e+003,3.8685898438e+003,3.8093588867e+003,3.8317949219e+003,3.8057692871e+003,3.7907692871e+003,
2.2421875000e+000,3.5684614258e+003,3.5750000000e+003,3.5521794434e+003,3.6116667480e+003,3.5679487305e+003,3.5571794434e+003,3.5787180176e+003,3.5826923828e+003,3.5973076172e+003,3.6084614258e+003,3.5479487305e+003,3.5821794434e+003,3.5478205566e+003,3.5415385742e+003,
2.2500000000e+000,3.4511538086e+003,3.4519230957e+003,3.4350000000e+003,3.4950000000e+003,3.4420512695e+003,3.4421794434e+003,3.4660256348e+003,3.4655129395e+003,3.4803845215e+003,3.4874357910e+003,3.4285898438e+003,3.4666667480e+003,3.4292307129e+003,3.4280769043e+003,
2.2578125000e+000,3.3628205566e+003,3.3534614258e+003,3.3441025391e+003,3.4066667480e+003,3.3452563477e+003,3.3515385742e+003,3.3782050781e+003,3.3703845215e+003,3.3875642090e+003,3.3908974609e+003,3.3355129395e+003,3.3747436523e+003,3.3361538086e+003,3.3392307129e+003,
2.2656250000e+000,3.4789743652e+003,3.4406411133e+003,3.4350000000e+003,3.5301281738e+003,3.4243588867e+003,3.4230769043e+003,3.4520512695e+003,3.4208974609e+003,3.4455129395e+003,3.4475642090e+003,3.4143588867e+003,3.4600000000e+003,3.4273076172e+003,3.4321794434e+003,
2.2734375000e+000,3.5325642090e+003,3.4944870605e+003,3.4842307129e+003,3.5778205566e+003,3.4783332520e+003,3.4735898438e+003,3.4984614258e+003,3.4733332520e+003,3.4962819824e+003,3.5062819824e+003,3.4664101563e+003,3.5137180176e+003,3.4792307129e+003,3.4850000000e+003,
2.2812500000e+000,3.3294870605e+003,3.2832050781e+003,3.2830769043e+003,3.3961538086e+003,3.2801281738e+003,3.2720512695e+003,3.2946154785e+003,3.2748718262e+003,3.3030769043e+003,3.3084614258e+003,3.2569230957e+003,3.3023076172e+003,3.2687180176e+003,3.2756411133e+003,
2.2890625000e+000,3.4030769043e+003,3.3503845215e+003,3.3470512695e+003,3.4762819824e+003,3.3321794434e+003,3.3423076172e+003,3.3671794434e+003,3.3260256348e+003,3.3602563477e+003,3.3580769043e+003,3.3153845215e+003,3.3673076172e+003,3.3353845215e+003,3.3391025391e+003,
2.2968750000e+000,3.5347436523e+003,3.4853845215e+003,3.4719230957e+003,3.5879487305e+003,3.4670512695e+003,3.4714101563e+003,3.4942307129e+003,3.4555129395e+003,3.4910256348e+003,3.4933332520e+003,3.4485898438e+003,3.4971794434e+003,3.4688461914e+003,3.4697436523e+003,
2.3046875000e+000,3.8861538086e+003,3.8619230957e+003,3.8193588867e+003,3.9060256348e+003,3.8601281738e+003,3.8237180176e+003,3.8467949219e+003,3.8166667480e+003,3.8419230957e+003,3.8561538086e+003,3.8125642090e+003,3.8397436523e+003,3.8296154785e+003,3.8138461914e+003,
2.3125000000e+000,4.5901284180e+003,4.5965385742e+003,4.5214101563e+003,4.6108974609e+003,4.5715385742e+003,4.5165385742e+003,4.5325639648e+003,4.5278203125e+003,4.5365385742e+003,4.5988461914e+003,4.5438461914e+003,4.5582050781e+003,4.5578203125e+003,4.5155126953e+003,
2.3203125000e+000,4.7250000000e+003,4.7428203125e+003,4.6619228516e+003,4.7403847656e+003,4.7147436523e+003,4.6516665039e+003,4.6623076172e+003,4.6752563477e+003,4.6823076172e+003,4.7578203125e+003,4.6951284180e+003,4.7050000000e+003,4.7035898438e+003,4.6557690430e+003,
2.3281250000e+000,4.7553847656e+003,4.7848715820e+003,4.7042309570e+003,4.7658974609e+003,4.7608974609e+003,4.6897436523e+003,4.6961538086e+003,4.7193588867e+003,4.7255126953e+003,4.8057690430e+003,4.7410258789e+003,4.7473076172e+003,4.7432050781e+003,4.6926923828e+003,
2.3359375000e+000,4.7519228516e+003,4.8067949219e+003,4.7287177734e+003,4.7639741211e+003,4.7943588867e+003,4.7146152344e+003,4.7180771484e+003,4.7353847656e+003,4.7357690430e+003,4.8198715820e+003,4.7633334961e+003,4.7648715820e+003,4.7592309570e+003,4.7021796875e+003,
2.3437500000e+000,4.7903847656e+003,4.8592309570e+003,4.7760258789e+003,4.8101284180e+003,4.8443588867e+003,4.7657690430e+003,4.7684614258e+003,4.7835898438e+003,4.7782050781e+003,4.8711538086e+003,4.8158974609e+003,4.8160258789e+003,4.8112822266e+003,4.7494873047e+003,
2.3515625000e+000,4.6125639648e+003,4.7067949219e+003,4.6174360352e+003,4.6650000000e+003,4.6764101563e+003,4.6056411133e+003,4.6107690430e+003,4.6355126953e+003,4.6223076172e+003,4.7257690430e+003,4.6675639648e+003,4.6783334961e+003,4.6602563477e+003,4.6071796875e+003,
2.3593750000e+000,4.3025639648e+003,4.3935898438e+003,4.3284614258e+003,4.3598715820e+003,4.3684614258e+003,4.3061538086e+003,4.3161538086e+003,4.3175639648e+003,4.3164101563e+003,4.4010258789e+003,4.3608974609e+003,4.3755126953e+003,4.3607690430e+003,4.3097436523e+003,
2.3671875000e+000,4.2124360352e+003,4.2984614258e+003,4.2447436523e+003,4.2651284180e+003,4.2687177734e+003,4.2207690430e+003,4.2291025391e+003,4.2326923828e+003,4.2338461914e+003,4.3162822266e+003,4.2755126953e+003,4.2941025391e+003,4.2758974609e+003,4.2262822266e+003,
2.3750000000e+000,4.0516667480e+003,4.1300000000e+003,4.0885898438e+003,4.1000000000e+003,4.0956411133e+003,4.0647436523e+003,4.0721794434e+003,4.0805129395e+003,4.0832050781e+003,4.1582050781e+003,4.1155126953e+003,4.1419228516e+003,4.1150000000e+003,4.0728205566e+003,
2.3828125000e+000,3.8441025391e+003,3.9130769043e+003,3.8823076172e+003,3.8901281738e+003,3.8793588867e+003,3.8614101563e+003,3.8698718262e+003,3.8773076172e+003,3.8820512695e+003,3.9425642090e+003,3.9005129395e+003,3.9361538086e+003,3.9000000000e+003,3.8688461914e+003,
2.3906250000e+000,3.7267949219e+003,3.7739743652e+003,3.7489743652e+003,3.7826923828e+003,3.7742307129e+003,3.7439743652e+003,3.7574357910e+003,3.7335898438e+003,3.7570512695e+003,3.7807692871e+003,3.7470512695e+003,3.7855129395e+003,3.7597436523e+003,3.7397436523e+003,
2.3984375000e+000,3.7516667480e+003,3.7989743652e+003,3.7719230957e+003,3.8103845215e+003,3.7965385742e+003,3.7675642090e+003,3.7792307129e+003,3.7635898438e+003,3.7905129395e+003,3.8158974609e+003,3.7766667480e+003,3.8124357910e+003,3.7884614258e+003,3.7658974609e+003,
2.4062500000e+000,3.4835898438e+003,3.5230769043e+003,3.4975642090e+003,3.5298718262e+003,3.5041025391e+003,3.5024357910e+003,3.5134614258e+003,3.5129487305e+003,3.5379487305e+003,3.5479487305e+003,3.5008974609e+003,3.5443588867e+003,3.5130769043e+003,3.4947436523e+003,
2.4140625000e+000,3.3435898438e+003,3.3580769043e+003,3.3458974609e+003,3.3897436523e+003,3.3525642090e+003,3.3534614258e+003,3.3729487305e+003,3.3600000000e+003,3.3848718262e+003,3.3810256348e+003,3.3339743652e+003,3.3858974609e+003,3.3587180176e+003,3.3462819824e+003,
2.4218750000e+000,3.3155129395e+003,3.3273076172e+003,3.3123076172e+003,3.3705129395e+003,3.3265385742e+003,3.3214101563e+003,3.3416667480e+003,3.3296154785e+003,3.3579487305e+003,3.3478205566e+003,3.3012819824e+003,3.3510256348e+003,3.3248718262e+003,3.3148718262e+003,
2.4296875000e+000,3.2116667480e+003,3.2058974609e+003,3.1997436523e+003,3.2703845215e+003,3.1975642090e+003,3.2020512695e+003,3.2275642090e+003,3.2147436523e+003,3.2521794434e+003,3.2247436523e+003,3.1770512695e+003,3.2297436523e+003,3.1955129395e+003,3.1988461914e+003,
2.4375000000e+000,3.2062819824e+003,3.1629487305e+003,3.1782050781e+003,3.2302563477e+003,3.1441025391e+003,3.1688461914e+003,3.2070512695e+003,3.1856411133e+003,3.2241025391e+003,3.1988461914e+003,3.1571794434e+003,3.2050000000e+003,3.1770512695e+003,3.1755129395e+003,
2.4453125000e+000,3.2067949219e+003,3.1621794434e+003,3.1757692871e+003,3.2283332520e+003,3.1524357910e+003,3.1651281738e+003,3.2062819824e+003,3.1837180176e+003,3.2194870605e+003,3.1966667480e+003,3.1566667480e+003,3.2064101563e+003,3.1755129395e+003,3.1735898438e+003,
2.4531250000e+000,3.1907692871e+003,3.1488461914e+003,3.1582050781e+003,3.2152563477e+003,3.1498718262e+003,3.1466667480e+003,3.1885898438e+003,3.1655129395e+003,3.1987180176e+003,3.1782050781e+003,3.1374357910e+003,3.1925642090e+003,3.1558974609e+003,3.1564101563e+003,
2.4609375000e+000,3.0837180176e+003,3.0356411133e+003,3.0451281738e+003,3.1164101563e+003,3.0461538086e+003,3.0300000000e+003,3.0682050781e+003,3.0425642090e+003,3.0756411133e+003,3.0596154785e+003,3.0141025391e+003,3.0821794434e+003,3.0357692871e+003,3.0450000000e+003,
2.4687500000e+000,2.9907692871e+003,2.9297436523e+003,2.9476923828e+003,3.0250000000e+003,2.9356411133e+003,2.9302563477e+003,2.9667949219e+003,2.9365385742e+003,2.9710256348e+003,2.9555129395e+003,2.9116667480e+003,2.9828205566e+003,2.9346154785e+003,2.9479487305e+003,
2.4765625000e+000,2.7725642090e+003,2.6782050781e+003,2.7144870605e+003,2.7920512695e+003,2.6711538086e+003,2.7037180176e+003,2.7470512695e+003,2.6873076172e+003,2.7250000000e+003,2.6953845215e+003,2.6687180176e+003,2.7369230957e+003,2.6908974609e+003,2.7102563477e+003,
2.4843750000e+000,2.7757692871e+003,2.6671794434e+003,2.6970512695e+003,2.7857692871e+003,2.6815385742e+003,2.6975642090e+003,2.7398718262e+003,2.6860256348e+003,2.7226923828e+003,2.6835898438e+003,2.6487180176e+003,2.7237180176e+003,2.6715385742e+003,2.6992307129e+003,
2.4921875000e+000,2.7541025391e+003,2.6365385742e+003,2.6696154785e+003,2.7688461914e+003,2.6557692871e+003,2.6725642090e+003,2.7124357910e+003,2.6630769043e+003,2.7019230957e+003,2.6587180176e+003,2.6192307129e+003,2.6966667480e+003,2.6435898438e+003,2.6734614258e+003,
2.5000000000e+000,2.7288461914e+003,2.6024357910e+003,2.6388461914e+003,2.7498718262e+003,2.6241025391e+003,2.6467949219e+003,2.6852563477e+003,2.6370512695e+003,2.6797436523e+003,2.6302563477e+003,2.5874357910e+003,2.6646154785e+003,2.6133332520e+003,2.6428205566e+003,
2.5078125000e+000,2.7164101563e+003,2.5837180176e+003,2.6215385742e+003,2.7420512695e+003,2.6052563477e+003,2.6364101563e+003,2.6752563477e+003,2.6262819824e+003,2.6725642090e+003,2.6162819824e+003,2.5705129395e+003,2.6460256348e+003,2.5973076172e+003,2.6250000000e+003,
2.5156250000e+000,2.7679487305e+003,2.6247436523e+003,2.6567949219e+003,2.7653845215e+003,2.6253845215e+003,2.6729487305e+003,2.7156411133e+003,2.6833332520e+003,2.7274357910e+003,2.6723076172e+003,2.6143588867e+003,2.6896154785e+003,2.6411538086e+003,2.6678205566e+003,
2.5234375000e+000,2.7747436523e+003,2.6302563477e+003,2.6589743652e+003,2.7683332520e+003,2.6302563477e+003,2.6707692871e+003,2.7139743652e+003,2.6852563477e+003,2.7292307129e+003,2.6775642090e+003,2.6200000000e+003,2.6923076172e+003,2.6479487305e+003,2.6732050781e+003,
2.5312500000e+000,2.8239743652e+003,2.6673076172e+003,2.6958974609e+003,2.8184614258e+003,2.6812819824e+003,2.7019230957e+003,2.7524357910e+003,2.7191025391e+003,2.7729487305e+003,2.7167949219e+003,2.6646154785e+003,2.7362819824e+003,2.6951281738e+003,2.7126923828e+003,
2.5390625000e+000,2.7671794434e+003,2.5907692871e+003,2.6323076172e+003,2.7411538086e+003,2.6046154785e+003,2.6239743652e+003,2.6752563477e+003,2.6529487305e+003,2.7123076172e+003,2.6594870605e+003,2.6008974609e+003,2.6726923828e+003,2.6301281738e+003,2.6473076172e+003,
2.5468750000e+000,2.7098718262e+003,2.5305129395e+003,2.5730769043e+003,2.6810256348e+003,2.5371794434e+003,2.5615385742e+003,2.6138461914e+003,2.5888461914e+003,2.6471794434e+003,2.5943588867e+003,2.5369230957e+003,2.6106411133e+003,2.5669230957e+003,2.5880769043e+003,
2.5546875000e+000,2.7679487305e+003,2.5914101563e+003,2.6182050781e+003,2.7346154785e+003,2.5821794434e+003,2.6064101563e+003,2.6616667480e+003,2.6216667480e+003,2.6750000000e+003,2.6266667480e+003,2.5814101563e+003,2.6570512695e+003,2.6103845215e+003,2.6357692871e+003,
2.5625000000e+000,2.8048718262e+003,2.6297436523e+003,2.6528205566e+003,2.7670512695e+003,2.6162819824e+003,2.6392307129e+003,2.6939743652e+003,2.6566667480e+003,2.7080769043e+003,2.6661538086e+003,2.6192307129e+003,2.6952563477e+003,2.6480769043e+003,2.6712819824e+003,
2.5703125000e+000,2.7242307129e+003,2.5433332520e+003,2.5730769043e+003,2.6792307129e+003,2.5283332520e+003,2.5547436523e+003,2.6116667480e+003,2.5720512695e+003,2.6200000000e+003,2.5878205566e+003,2.5357692871e+003,2.6173076172e+003,2.5691025391e+003,2.5916667480e+003,
2.5781250000e+000,2.6580769043e+003,2.4708974609e+003,2.5057692871e+003,2.6119230957e+003,2.4610256348e+003,2.4892307129e+003,2.5479487305e+003,2.4997436523e+003,2.5460256348e+003,2.5157692871e+003,2.4647436523e+003,2.5478205566e+003,2.5005129395e+003,2.5244870605e+003,
2.5859375000e+000,2.7041025391e+003,2.5056411133e+003,2.5371794434e+003,2.6444870605e+003,2.5143588867e+003,2.5385898438e+003,2.5930769043e+003,2.5302563477e+003,2.5684614258e+003,2.5446154785e+003,2.5003845215e+003,2.5815385742e+003,2.5344870605e+003,2.5584614258e+003,
2.5937500000e+000,2.7614101563e+003,2.5639743652e+003,2.5901281738e+003,2.6935898438e+003,2.5720512695e+003,2.5941025391e+003,2.6465385742e+003,2.5878205566e+003,2.6247436523e+003,2.6011538086e+003,2.5562819824e+003,2.6378205566e+003,2.5887180176e+003,2.6108974609e+003,
2.6015625000e+000,2.8382050781e+003,2.6432050781e+003,2.6607692871e+003,2.7584614258e+003,2.6408974609e+003,2.6714101563e+003,2.7182050781e+003,2.6739743652e+003,2.7223076172e+003,2.6892307129e+003,2.6317949219e+003,2.7071794434e+003,2.6623076172e+003,2.6776923828e+003,
2.6093750000e+000,2.8701281738e+003,2.6760256348e+003,2.6925642090e+003,2.7948718262e+003,2.6744870605e+003,2.7069230957e+003,2.7500000000e+003,2.7055129395e+003,2.7584614258e+003,2.7235898438e+003,2.6630769043e+003,2.7361538086e+003,2.6946154785e+003,2.7084614258e+003,
2.6171875000e+000,2.9451281738e+003,2.7535898438e+003,2.7670512695e+003,2.8755129395e+003,2.7552563477e+003,2.7829487305e+003,2.8228205566e+003,2.7770512695e+003,2.8316667480e+003,2.7994870605e+003,2.7379487305e+003,2.8087180176e+003,2.7706411133e+003,2.7819230957e+003,
2.6250000000e+000,3.0656411133e+003,2.8791025391e+003,2.8865385742e+003,2.9988461914e+003,2.8846154785e+003,2.9014101563e+003,2.9391025391e+003,2.8943588867e+003,2.9470512695e+003,2.9229487305e+003,2.8610256348e+003,2.9285898438e+003,2.8932050781e+003,2.9007692871e+003,
2.6328125000e+000,3.5847436523e+003,3.4328205566e+003,3.4155129395e+003,3.5012819824e+003,3.4430769043e+003,3.4170512695e+003,3.4506411133e+003,3.4202563477e+003,3.4639743652e+003,3.4787180176e+003,3.4133332520e+003,3.4721794434e+003,3.4253845215e+003,3.4252563477e+003,
2.6406250000e+000,3.8632050781e+003,3.7443588867e+003,3.7058974609e+003,3.7797436523e+003,3.7333332520e+003,3.6785898438e+003,3.7138461914e+003,3.6991025391e+003,3.7389743652e+003,3.7880769043e+003,3.7153845215e+003,3.7600000000e+003,3.7219230957e+003,3.7085898438e+003,
2.6484375000e+000,3.8187180176e+003,3.7060256348e+003,3.6729487305e+003,3.7466667480e+003,3.6896154785e+003,3.6357692871e+003,3.6725642090e+003,3.6667949219e+003,3.7034614258e+003,3.7574357910e+003,3.6835898438e+003,3.7270512695e+003,3.6870512695e+003,3.6717949219e+003,
2.6562500000e+000,3.4270512695e+003,3.3092307129e+003,3.3070512695e+003,3.3898718262e+003,3.2928205566e+003,3.2714101563e+003,3.3088461914e+003,3.2969230957e+003,3.3346154785e+003,3.3665385742e+003,3.3007692871e+003,3.3542307129e+003,3.3058974609e+003,3.3001281738e+003,
2.6640625000e+000,3.3576923828e+003,3.2492307129e+003,3.2308974609e+003,3.3002563477e+003,3.2423076172e+003,3.2188461914e+003,3.2646154785e+003,3.2346154785e+003,3.2712819824e+003,3.2953845215e+003,3.2316667480e+003,3.2907692871e+003,3.2416667480e+003,3.2437180176e+003,
2.6718750000e+000,3.3661538086e+003,3.2617949219e+003,3.2406411133e+003,3.3093588867e+003,3.2557692871e+003,3.2344870605e+003,3.2805129395e+003,3.2498718262e+003,3.2833332520e+003,3.3100000000e+003,3.2480769043e+003,3.3073076172e+003,3.2535898438e+003,3.2584614258e+003,
2.6796875000e+000,3.3920512695e+003,3.2841025391e+003,3.2756411133e+003,3.3551281738e+003,3.2598718262e+003,3.2752563477e+003,3.3142307129e+003,3.2773076172e+003,3.3023076172e+003,3.3385898438e+003,3.2826923828e+003,3.3391025391e+003,3.2867949219e+003,3.2870512695e+003,
2.6875000000e+000,3.4114101563e+003,3.2996154785e+003,3.2984614258e+003,3.3712819824e+003,3.2792307129e+003,3.2937180176e+003,3.3325642090e+003,3.2915385742e+003,3.3138461914e+003,3.3526923828e+003,3.2971794434e+003,3.3539743652e+003,3.3065385742e+003,3.3029487305e+003,
2.6953125000e+000,3.4869230957e+003,3.3794870605e+003,3.3751281738e+003,3.4370512695e+003,3.3908974609e+003,3.3679487305e+003,3.4069230957e+003,3.3638461914e+003,3.3880769043e+003,3.4283332520e+003,3.3696154785e+003,3.4228205566e+003,3.3848718262e+003,3.3761538086e+003,
2.7031250000e+000,3.5347436523e+003,3.4370512695e+003,3.4205129395e+003,3.4876923828e+003,3.4610256348e+003,3.4189743652e+003,3.4560256348e+003,3.4182050781e+003,3.4480769043e+003,3.4874357910e+003,3.4235898438e+003,3.4732050781e+003,3.4371794434e+003,3.4271794434e+003,
2.7109375000e+000,3.4588461914e+003,3.3757692871e+003,3.3500000000e+003,3.4273076172e+003,3.3879487305e+003,3.3634614258e+003,3.3905129395e+003,3.3737180176e+003,3.4219230957e+003,3.4475642090e+003,3.3648718262e+003,3.4167949219e+003,3.3714101563e+003,3.3646154785e+003,
2.7187500000e+000,3.3598718262e+003,3.2712819824e+003,3.2571794434e+003,3.3319230957e+003,3.2810256348e+003,3.2691025391e+003,3.2958974609e+003,3.2783332520e+003,3.3296154785e+003,3.3476923828e+003,3.2630769043e+003,3.3180769043e+003,3.2719230957e+003,3.2651281738e+003,
2.7265625000e+000,3.2762819824e+003,3.1816667480e+003,3.1784614258e+003,3.2537180176e+003,3.1934614258e+003,3.1869230957e+003,3.2153845215e+003,3.1938461914e+003,3.2469230957e+003,3.2592307129e+003,3.1747436523e+003,3.2316667480e+003,3.1865385742e+003,3.1787180176e+003,
2.7343750000e+000,3.2251281738e+003,3.1262819824e+003,3.1293588867e+003,3.2076923828e+003,3.1394870605e+003,3.1334614258e+003,3.1641025391e+003,3.1394870605e+003,3.1932050781e+003,3.2028205566e+003,3.1189743652e+003,3.1773076172e+003,3.1324357910e+003,3.1247436523e+003,
2.7421875000e+000,3.0026923828e+003,2.8889743652e+003,2.9020512695e+003,2.9648718262e+003,2.8901281738e+003,2.8934614258e+003,2.9310256348e+003,2.9008974609e+003,2.9535898438e+003,2.9503845215e+003,2.8747436523e+003,2.9417949219e+003,2.8882050781e+003,2.9002563477e+003,
2.7500000000e+000,2.9950000000e+003,2.8746154785e+003,2.8901281738e+003,2.9538461914e+003,2.8788461914e+003,2.8785898438e+003,2.9225642090e+003,2.8817949219e+003,2.9317949219e+003,2.9258974609e+003,2.8546154785e+003,2.9261538086e+003,2.8748718262e+003,2.8856411133e+003,
2.7578125000e+000,3.3889743652e+003,3.2667949219e+003,3.2700000000e+003,3.3439743652e+003,3.2596154785e+003,3.2433332520e+003,3.3006411133e+003,3.2520512695e+003,3.2841025391e+003,3.3064101563e+003,3.2430769043e+003,3.3135898438e+003,3.2543588867e+003,3.2646154785e+003,
2.7656250000e+000,3.5511538086e+003,3.4458974609e+003,3.4416667480e+003,3.4933332520e+003,3.4521794434e+003,3.4102563477e+003,3.4588461914e+003,3.4311538086e+003,3.4498718262e+003,3.4951281738e+003,3.4306411133e+003,3.4892307129e+003,3.4300000000e+003,3.4339743652e+003,
2.7734375000e+000,3.5330769043e+003,3.4323076172e+003,3.4276923828e+003,3.4770512695e+003,3.4439743652e+003,3.3951281738e+003,3.4430769043e+003,3.4147436523e+003,3.4317949219e+003,3.4778205566e+003,3.4107692871e+003,3.4697436523e+003,3.4169230957e+003,3.4152563477e+003,
2.7812500000e+000,3.5398718262e+003,3.4503845215e+003,3.4353845215e+003,3.4898718262e+003,3.4516667480e+003,3.4132050781e+003,3.4548718262e+003,3.4247436523e+003,3.4400000000e+003,3.4923076172e+003,3.4182050781e+003,3.4798718262e+003,3.4234614258e+003,3.4197436523e+003,
2.7890625000e+000,3.3842307129e+003,3.2920512695e+003,3.2925642090e+003,3.3398718262e+003,3.2917949219e+003,3.2757692871e+003,3.3169230957e+003,3.2801281738e+003,3.3014101563e+003,3.3484614258e+003,3.2819230957e+003,3.3392307129e+003,3.2782050781e+003,3.2784614258e+003,
2.7968750000e+000,3.3673076172e+003,3.2774357910e+003,3.2747436523e+003,3.3255129395e+003,3.2770512695e+003,3.2623076172e+003,3.3039743652e+003,3.2667949219e+003,3.2929487305e+003,3.3353845215e+003,3.2667949219e+003,3.3208974609e+003,3.2664101563e+003,3.2611538086e+003,
2.8046875000e+000,3.3794870605e+003,3.2942307129e+003,3.2843588867e+003,3.3396154785e+003,3.2937180176e+003,3.2783332520e+003,3.3180769043e+003,3.2839743652e+003,3.3146154785e+003,3.3534614258e+003,3.2805129395e+003,3.3323076172e+003,3.2806411133e+003,3.2723076172e+003,
2.8125000000e+000,3.3897436523e+003,3.3103845215e+003,3.2934614258e+003,3.3510256348e+003,3.3217949219e+003,3.2974357910e+003,3.3292307129e+003,3.3046154785e+003,3.3393588867e+003,3.3756411133e+003,3.2957692871e+003,3.3471794434e+003,3.2867949219e+003,3.2848718262e+003,
2.8203125000e+000,3.2189743652e+003,3.1353845215e+003,3.1266667480e+003,3.1802563477e+003,3.1546154785e+003,3.1326923828e+003,3.1673076172e+003,3.1405129395e+003,3.1842307129e+003,3.2069230957e+003,3.1267949219e+003,3.1792307129e+003,3.1230769043e+003,3.1160256348e+003,
2.8281250000e+000,3.1325642090e+003,3.0479487305e+003,3.0416667480e+003,3.0984614258e+003,3.0551281738e+003,3.0503845215e+003,3.0870512695e+003,3.0561538086e+003,3.1038461914e+003,3.1196154785e+003,3.0385898438e+003,3.0935898438e+003,3.0403845215e+003,3.0320512695e+003,
2.8359375000e+000,3.0496154785e+003,2.9641025391e+003,2.9598718262e+003,3.0223076172e+003,2.9607692871e+003,2.9711538086e+003,3.0085898438e+003,2.9741025391e+003,3.0242307129e+003,3.0348718262e+003,2.9524357910e+003,3.0112819824e+003,2.9583332520e+003,2.9525642090e+003,
2.8437500000e+000,2.9285898438e+003,2.8364101563e+003,2.8383332520e+003,2.9089743652e+003,2.8378205566e+003,2.8434614258e+003,2.8830769043e+003,2.8491025391e+003,2.8992307129e+003,2.9046154785e+003,2.8215385742e+003,2.8867949219e+003,2.8298718262e+003,2.8330769043e+003,
2.8515625000e+000,2.8837180176e+003,2.7830769043e+003,2.7912819824e+003,2.8617949219e+003,2.7955129395e+003,2.7866667480e+003,2.8311538086e+003,2.8000000000e+003,2.8489743652e+003,2.8515385742e+003,2.7711538086e+003,2.8392307129e+003,2.7771794434e+003,2.7852563477e+003,
2.8593750000e+000,2.8421794434e+003,2.7300000000e+003,2.7460256348e+003,2.8157692871e+003,2.7497436523e+003,2.7306411133e+003,2.7828205566e+003,2.7523076172e+003,2.8003845215e+003,2.7989743652e+003,2.7230769043e+003,2.7946154785e+003,2.7258974609e+003,2.7387180176e+003,
2.8671875000e+000,2.9965385742e+003,2.8619230957e+003,2.8780769043e+003,2.9602563477e+003,2.8534614258e+003,2.8510256348e+003,2.9129487305e+003,2.8665385742e+003,2.9041025391e+003,2.9178205566e+003,2.8508974609e+003,2.9264101563e+003,2.8612819824e+003,2.8739743652e+003,
2.8750000000e+000,3.1351281738e+003,3.0030769043e+003,3.0137180176e+003,3.0930769043e+003,2.9979487305e+003,2.9842307129e+003,3.0443588867e+003,2.9965385742e+003,3.0298718262e+003,3.0524357910e+003,2.9902563477e+003,3.0600000000e+003,3.0011538086e+003,3.0101281738e+003,
2.8828125000e+000,3.6396154785e+003,3.5314101563e+003,3.5102563477e+003,3.5761538086e+003,3.5325642090e+003,3.4864101563e+003,3.5338461914e+003,3.4888461914e+003,3.5137180176e+003,3.5757692871e+003,3.5138461914e+003,3.5701281738e+003,3.5124357910e+003,3.5112819824e+003,
2.8906250000e+000,3.6900000000e+003,3.6041025391e+003,3.5800000000e+003,3.6239743652e+003,3.5898718262e+003,3.5620512695e+003,3.5920512695e+003,3.5682050781e+003,3.5814101563e+003,3.6608974609e+003,3.5865385742e+003,3.6433332520e+003,3.5744870605e+003,3.5696154785e+003,
2.8984375000e+000,3.6362819824e+003,3.5558974609e+003,3.5343588867e+003,3.5783332520e+003,3.5417949219e+003,3.5184614258e+003,3.5465385742e+003,3.5242307129e+003,3.5405129395e+003,3.6157692871e+003,3.5378205566e+003,3.5903845215e+003,3.5292307129e+003,3.5192307129e+003,
2.9062500000e+000,3.5516667480e+003,3.4941025391e+003,3.4578205566e+003,3.5166667480e+003,3.5034614258e+003,3.4579487305e+003,3.4846154785e+003,3.4646154785e+003,3.4961538086e+003,3.5570512695e+003,3.4725642090e+003,3.5178205566e+003,3.4766667480e+003,3.4483332520e+003,
2.9140625000e+000,3.5514101563e+003,3.4997436523e+003,3.4633332520e+003,3.4973076172e+003,3.4932050781e+003,3.4692307129e+003,3.4973076172e+003,3.4801281738e+003,3.5180769043e+003,3.5684614258e+003,3.4814101563e+003,3.5244870605e+003,3.4862819824e+003,3.4524357910e+003,
2.9218750000e+000,3.5435898438e+003,3.4903845215e+003,3.4594870605e+003,3.4882050781e+003,3.4832050781e+003,3.4651281738e+003,3.4925642090e+003,3.4738461914e+003,3.5141025391e+003,3.5629487305e+003,3.4708974609e+003,3.5167949219e+003,3.4775642090e+003,3.4443588867e+003,
2.9296875000e+000,3.5324357910e+003,3.4784614258e+003,3.4516667480e+003,3.4785898438e+003,3.4776923828e+003,3.4548718262e+003,3.4825642090e+003,3.4615385742e+003,3.5037180176e+003,3.5514101563e+003,3.4553845215e+003,3.5058974609e+003,3.4648718262e+003,3.4324357910e+003,
2.9375000000e+000,3.5258974609e+003,3.4714101563e+003,3.4458974609e+003,3.4742307129e+003,3.4853845215e+003,3.4405129395e+003,3.4729487305e+003,3.4491025391e+003,3.4910256348e+003,3.5373076172e+003,3.4467949219e+003,3.4994870605e+003,3.4567949219e+003,3.4246154785e+003,
2.9453125000e+000,3.5521794434e+003,3.4964101563e+003,3.4721794434e+003,3.5143588867e+003,3.4980769043e+003,3.4612819824e+003,3.5017949219e+003,3.4789743652e+003,3.5098718262e+003,3.5633332520e+003,3.4867949219e+003,3.5351281738e+003,3.4885898438e+003,3.4632050781e+003,
2.9531250000e+000,3.5611538086e+003,3.5084614258e+003,3.4829487305e+003,3.5315385742e+003,3.5041025391e+003,3.4693588867e+003,3.5128205566e+003,3.4910256348e+003,3.5173076172e+003,3.5758974609e+003,3.4960256348e+003,3.5483332520e+003,3.4998718262e+003,3.4758974609e+003,
2.9609375000e+000,3.4891025391e+003,3.4432050781e+003,3.4192307129e+003,3.4662819824e+003,3.4275642090e+003,3.3956411133e+003,3.4487180176e+003,3.4296154785e+003,3.4434614258e+003,3.5038461914e+003,3.4219230957e+003,3.4861538086e+003,3.4339743652e+003,3.4039743652e+003,
2.9687500000e+000,3.4412819824e+003,3.3915385742e+003,3.3765385742e+003,3.4188461914e+003,3.3793588867e+003,3.3533332520e+003,3.4065385742e+003,3.3842307129e+003,3.3964101563e+003,3.4529487305e+003,3.3756411133e+003,3.4416667480e+003,3.3879487305e+003,3.3588461914e+003,
2.9765625000e+000,3.4105129395e+003,3.3578205566e+003,3.3488461914e+003,3.3907692871e+003,3.3530769043e+003,3.3296154785e+003,3.3798718262e+003,3.3544870605e+003,3.3664101563e+003,3.4210256348e+003,3.3466667480e+003,3.4121794434e+003,3.3583332520e+003,3.3317949219e+003,
2.9843750000e+000,3.4021794434e+003,3.3502563477e+003,3.3393588867e+003,3.3851281738e+003,3.3537180176e+003,3.3262819824e+003,3.3712819824e+003,3.3457692871e+003,3.3580769043e+003,3.4139743652e+003,3.3391025391e+003,3.4021794434e+003,3.3497436523e+003,3.3256411133e+003,
2.9921875000e+000,3.2248718262e+003,3.1701281738e+003,3.1539743652e+003,3.2039743652e+003,3.1746154785e+003,3.1532050781e+003,3.1838461914e+003,3.1582050781e+003,3.1824357910e+003,3.2303845215e+003,3.1491025391e+003,3.2197436523e+003,3.1603845215e+003,3.1397436523e+003,
3.0000000000e+000,3.1523076172e+003,3.0906411133e+003,3.0798718262e+003,3.1369230957e+003,3.0923076172e+003,3.0848718262e+003,3.1146154785e+003,3.0844870605e+003,3.1120512695e+003,3.1512819824e+003,3.0729487305e+003,3.1446154785e+003,3.0861538086e+003,3.0658974609e+003,
3.0078125000e+000,3.1032050781e+003,3.0397436523e+003,3.0219230957e+003,3.1034614258e+003,3.0469230957e+003,3.0471794434e+003,3.0735898438e+003,3.0428205566e+003,3.0791025391e+003,3.1065385742e+003,3.0242307129e+003,3.0865385742e+003,3.0365385742e+003,3.0197436523e+003,
3.0156250000e+000,3.0684614258e+003,2.9992307129e+003,2.9828205566e+003,3.0505129395e+003,3.0185898438e+003,3.0083332520e+003,3.0361538086e+003,3.0030769043e+003,3.0506411133e+003,3.0721794434e+003,2.9833332520e+003,3.0464101563e+003,3.0011538086e+003,2.9801281738e+003,
3.0234375000e+000,3.0721794434e+003,2.9987180176e+003,2.9847436523e+003,3.0562819824e+003,3.0193588867e+003,3.0110256348e+003,3.0397436523e+003,3.0041025391e+003,3.0526923828e+003,3.0714101563e+003,2.9832050781e+003,3.0487180176e+003,3.0051281738e+003,2.9816667480e+003,
3.0312500000e+000,3.1106411133e+003,3.0348718262e+003,3.0179487305e+003,3.1161538086e+003,3.0574357910e+003,3.0406411133e+003,3.0715385742e+003,3.0378205566e+003,3.0824357910e+003,3.1043588867e+003,3.0146154785e+003,3.0824357910e+003,3.0271794434e+003,3.0158974609e+003,
3.0390625000e+000,3.0487180176e+003,2.9612819824e+003,2.9553845215e+003,3.0466667480e+003,2.9814101563e+003,2.9574357910e+003,3.0002563477e+003,2.9701281738e+003,3.0132050781e+003,3.0321794434e+003,2.9450000000e+003,3.0162819824e+003,2.9533332520e+003,2.9467949219e+003,
3.0468750000e+000,3.0185898438e+003,2.9261538086e+003,2.9270512695e+003,3.0111538086e+003,2.9403845215e+003,2.9232050781e+003,2.9702563477e+003,2.9405129395e+003,2.9801281738e+003,2.9960256348e+003,2.9102563477e+003,2.9878205566e+003,2.9221794434e+003,2.9180769043e+003,
3.0546875000e+000,2.9489743652e+003,2.8484614258e+003,2.8503845215e+003,2.9269230957e+003,2.8548718262e+003,2.8438461914e+003,2.9000000000e+003,2.8678205566e+003,2.8920512695e+003,2.9142307129e+003,2.8320512695e+003,2.9202563477e+003,2.8457692871e+003,2.8471794434e+003,
3.0625000000e+000,2.9110256348e+003,2.8075642090e+003,2.8083332520e+003,2.8894870605e+003,2.8169230957e+003,2.8021794434e+003,2.8616667480e+003,2.8255129395e+003,2.8474357910e+003,2.8720512695e+003,2.7932050781e+003,2.8819230957e+003,2.8053845215e+003,2.8069230957e+003,
3.0703125000e+000,2.8179487305e+003,2.7064101563e+003,2.7110256348e+003,2.8043588867e+003,2.7165385742e+003,2.7105129395e+003,2.7696154785e+003,2.7267949219e+003,2.7500000000e+003,2.7703845215e+003,2.6985898438e+003,2.7866667480e+003,2.7094870605e+003,2.7115385742e+003,
3.0781250000e+000,2.7873076172e+003,2.6705129395e+003,2.6808974609e+003,2.7756411133e+003,2.6775642090e+003,2.6844870605e+003,2.7403845215e+003,2.6964101563e+003,2.7196154785e+003,2.7373076172e+003,2.6665385742e+003,2.7544870605e+003,2.6779487305e+003,2.6801281738e+003,
3.0859375000e+000,2.8352563477e+003,2.6996154785e+003,2.7237180176e+003,2.8080769043e+003,2.7201281738e+003,2.7288461914e+003,2.7811538086e+003,2.7267949219e+003,2.7460256348e+003,2.7676923828e+003,2.6971794434e+003,2.7891025391e+003,2.7133332520e+003,2.7173076172e+003,
3.0937500000e+000,2.9083332520e+003,2.7730769043e+003,2.7892307129e+003,2.8767949219e+003,2.8030769043e+003,2.7956411133e+003,2.8476923828e+003,2.7873076172e+003,2.8111538086e+003,2.8342307129e+003,2.7660256348e+003,2.8547436523e+003,2.7810256348e+003,2.7858974609e+003,
3.1015625000e+000,2.9953845215e+003,2.8662819824e+003,2.8685898438e+003,2.9623076172e+003,2.9006411133e+003,2.8789743652e+003,2.9291025391e+003,2.8667949219e+003,2.8978205566e+003,2.9217949219e+003,2.8547436523e+003,2.9366667480e+003,2.8652563477e+003,2.8705129395e+003,
3.1093750000e+000,3.0676923828e+003,2.9473076172e+003,2.9366667480e+003,3.0342307129e+003,2.9788461914e+003,2.9515385742e+003,2.9983332520e+003,2.9401281738e+003,2.9767949219e+003,3.0025642090e+003,2.9334614258e+003,3.0084614258e+003,2.9370512695e+003,2.9430769043e+003,
3.1171875000e+000,3.1043588867e+003,2.9871794434e+003,2.9803845215e+003,3.0612819824e+003,3.0012819824e+003,2.9906411133e+003,3.0234614258e+003,2.9932050781e+003,3.0278205566e+003,3.0606411133e+003,2.9662819824e+003,3.0439743652e+003,2.9751281738e+003,2.9698718262e+003,
3.1250000000e+000,3.1114101563e+003,2.9942307129e+003,2.9858974609e+003,3.0666667480e+003,3.0098718262e+003,2.9957692871e+003,3.0260256348e+003,2.9982050781e+003,3.0356411133e+003,3.0669230957e+003,2.9707692871e+003,3.0473076172e+003,2.9811538086e+003,2.9744870605e+003,
3.1328125000e+000,3.0208974609e+003,2.9098718262e+003,2.8994870605e+003,2.9783332520e+003,2.9111538086e+003,2.9129487305e+003,2.9460256348e+003,2.9176923828e+003,2.9621794434e+003,2.9876923828e+003,2.8941025391e+003,2.9669230957e+003,2.8984614258e+003,2.8946154785e+003,
3.1406250000e+000,3.1815385742e+003,3.0726923828e+003,3.0557692871e+003,3.1419230957e+003,3.0820512695e+003,3.0629487305e+003,3.1105129395e+003,3.0685898438e+003,3.1148718262e+003,3.1461538086e+003,3.0535898438e+003,3.1264101563e+003,3.0628205566e+003,3.0521794434e+003,
3.1484375000e+000,3.3321794434e+003,3.2264101563e+003,3.2043588867e+003,3.2884614258e+003,3.2414101563e+003,3.2057692871e+003,3.2556411133e+003,3.2119230957e+003,3.2579487305e+003,3.2956411133e+003,3.2070512695e+003,3.2753845215e+003,3.2091025391e+003,3.2020512695e+003,
3.1562500000e+000,3.5133332520e+003,3.4208974609e+003,3.3938461914e+003,3.4728205566e+003,3.4362819824e+003,3.3864101563e+003,3.4332050781e+003,3.4089743652e+003,3.4383332520e+003,3.5021794434e+003,3.4173076172e+003,3.4723076172e+003,3.4075642090e+003,3.3946154785e+003,
3.1640625000e+000,3.1501281738e+003,3.0638461914e+003,3.0529487305e+003,3.1333332520e+003,3.0701281738e+003,3.0442307129e+003,3.0974357910e+003,3.0643588867e+003,3.0833332520e+003,3.1397436523e+003,3.0503845215e+003,3.1293588867e+003,3.0573076172e+003,3.0439743652e+003,
3.1718750000e+000,3.1600000000e+003,3.0728205566e+003,3.0619230957e+003,3.1356411133e+003,3.0720512695e+003,3.0537180176e+003,3.1108974609e+003,3.0648718262e+003,3.0816667480e+003,3.1355129395e+003,3.0502563477e+003,3.1320512695e+003,3.0596154785e+003,3.0483332520e+003,
3.1796875000e+000,3.3120512695e+003,3.2246154785e+003,3.2078205566e+003,3.2742307129e+003,3.2188461914e+003,3.2019230957e+003,3.2596154785e+003,3.2046154785e+003,3.2173076172e+003,3.2766667480e+003,3.1971794434e+003,3.2748718262e+003,3.2046154785e+003,3.1926923828e+003,
3.1875000000e+000,3.8397436523e+003,3.7643588867e+003,3.7244870605e+003,3.7803845215e+003,3.7665385742e+003,3.7219230957e+003,3.7691025391e+003,3.7217949219e+003,3.7262819824e+003,3.8192307129e+003,3.7457692871e+003,3.8042307129e+003,3.7355129395e+003,3.7169230957e+003,
3.1953125000e+000,4.0178205566e+003,3.9562819824e+003,3.9058974609e+003,3.9597436523e+003,3.9692307129e+003,3.9025642090e+003,3.9416667480e+003,3.9096154785e+003,3.9134614258e+003,4.0238461914e+003,3.9461538086e+003,3.9962819824e+003,3.9255129395e+003,3.9025642090e+003,
3.2031250000e+000,3.9094870605e+003,3.8755129395e+003,3.8217949219e+003,3.8783332520e+003,3.9007692871e+003,3.8188461914e+003,3.8455129395e+003,3.8374357910e+003,3.8485898438e+003,3.9660256348e+003,3.8715385742e+003,3.9165385742e+003,3.8462819824e+003,3.8133332520e+003,
3.2109375000e+000,3.7375642090e+003,3.7110256348e+003,3.6625642090e+003,3.7216667480e+003,3.7335898438e+003,3.6632050781e+003,3.6885898438e+003,3.6776923828e+003,3.6941025391e+003,3.8011538086e+003,3.7026923828e+003,3.7488461914e+003,3.6851281738e+003,3.6469230957e+003,
3.2187500000e+000,3.8473076172e+003,3.8335898438e+003,3.7823076172e+003,3.8297436523e+003,3.8334614258e+003,3.7858974609e+003,3.8112819824e+003,3.7833332520e+003,3.8114101563e+003,3.9033332520e+003,3.8087180176e+003,3.8528205566e+003,3.8002563477e+003,3.7566667480e+003,
3.2265625000e+000,3.9667949219e+003,3.9598718262e+003,3.9048718262e+003,3.9461538086e+003,3.9551281738e+003,3.9026923828e+003,3.9233332520e+003,3.9079487305e+003,3.9380769043e+003,4.0366667480e+003,3.9371794434e+003,3.9814101563e+003,3.9202563477e+003,3.8800000000e+003,
3.2343750000e+000,3.9480769043e+003,3.9462819824e+003,3.8937180176e+003,3.9337180176e+003,3.9410256348e+003,3.8858974609e+003,3.9014101563e+003,3.9007692871e+003,3.9323076172e+003,4.0343588867e+003,3.9294870605e+003,3.9767949219e+003,3.9053845215e+003,3.8694870605e+003,
3.2421875000e+000,3.0688461914e+003,3.0426923828e+003,3.0294870605e+003,3.0934614258e+003,3.0530769043e+003,3.0324357910e+003,3.0624357910e+003,3.0291025391e+003,3.0752563477e+003,3.1207692871e+003,3.0380769043e+003,3.1024357910e+003,3.0244870605e+003,3.0144870605e+003,
3.2500000000e+000,3.0069230957e+003,2.9720512695e+003,2.9646154785e+003,3.0311538086e+003,2.9824357910e+003,2.9653845215e+003,3.0019230957e+003,2.9647436523e+003,3.0092307129e+003,3.0511538086e+003,2.9660256348e+003,3.0406411133e+003,2.9521794434e+003,2.9529487305e+003,
3.2578125000e+000,2.7679487305e+003,2.7021794434e+003,2.7160256348e+003,2.7792307129e+003,2.7175642090e+003,2.7078205566e+003,2.7580769043e+003,2.7173076172e+003,2.7569230957e+003,2.7775642090e+003,2.6987180176e+003,2.7865385742e+003,2.6916667480e+003,2.7003845215e+003,
3.2656250000e+000,2.5407692871e+003,2.4508974609e+003,2.4760256348e+003,2.5497436523e+003,2.4476923828e+003,2.4771794434e+003,2.5361538086e+003,2.4825642090e+003,2.5237180176e+003,2.5202563477e+003,2.4558974609e+003,2.5417949219e+003,2.4507692871e+003,2.4620512695e+003,
3.2734375000e+000,2.5485898438e+003,2.4525642090e+003,2.4755129395e+003,2.5666667480e+003,2.4558974609e+003,2.4773076172e+003,2.5397436523e+003,2.4817949219e+003,2.5219230957e+003,2.5221794434e+003,2.4553845215e+003,2.5455129395e+003,2.4483332520e+003,2.4674357910e+003,
3.2812500000e+000,2.6848718262e+003,2.5773076172e+003,2.5944870605e+003,2.7046154785e+003,2.6169230957e+003,2.5893588867e+003,2.6498718262e+003,2.5970512695e+003,2.6358974609e+003,2.6555129395e+003,2.5864101563e+003,2.6735898438e+003,2.5811538086e+003,2.5989743652e+003,
3.2890625000e+000,2.7060256348e+003,2.5962819824e+003,2.6137180176e+003,2.7158974609e+003,2.6326923828e+003,2.6070512695e+003,2.6660256348e+003,2.6143588867e+003,2.6530769043e+003,2.6733332520e+003,2.6064101563e+003,2.6903845215e+003,2.6050000000e+003,2.6157692871e+003,
3.2968750000e+000,2.8597436523e+003,2.7519230957e+003,2.7579487305e+003,2.8565385742e+003,2.7682050781e+003,2.7528205566e+003,2.8108974609e+003,2.7512819824e+003,2.7908974609e+003,2.8165385742e+003,2.7482050781e+003,2.8270512695e+003,2.7487180176e+003,2.7539743652e+003,
3.3046875000e+000,3.0519230957e+003,2.9500000000e+003,2.9435898438e+003,3.0461538086e+003,2.9594870605e+003,2.9384614258e+003,2.9948718262e+003,2.9321794434e+003,2.9716667480e+003,3.0080769043e+003,2.9378205566e+003,3.0121794434e+003,2.9328205566e+003,2.9391025391e+003,
3.3125000000e+000,3.6544870605e+003,3.5867949219e+003,3.5438461914e+003,3.6387180176e+003,3.5942307129e+003,3.5296154785e+003,3.5671794434e+003,3.5338461914e+003,3.5683332520e+003,3.6506411133e+003,3.5755129395e+003,3.6215385742e+003,3.5548718262e+003,3.5406411133e+003,
3.3203125000e+000,3.6966667480e+003,3.6416667480e+003,3.5916667480e+003,3.6794870605e+003,3.6474357910e+003,3.5770512695e+003,3.6092307129e+003,3.5844870605e+003,3.6187180176e+003,3.7085898438e+003,3.6288461914e+003,3.6710256348e+003,3.6102563477e+003,3.5858974609e+003,
3.3281250000e+000,3.7030769043e+003,3.6587180176e+003,3.6041025391e+003,3.6855129395e+003,3.6621794434e+003,3.5912819824e+003,3.6215385742e+003,3.5950000000e+003,3.6297436523e+003,3.7217949219e+003,3.6362819824e+003,3.6824357910e+003,3.6214101563e+003,3.5932050781e+003,
3.3359375000e+000,3.7594870605e+003,3.7246154785e+003,3.6652563477e+003,3.7420512695e+003,3.7267949219e+003,3.6550000000e+003,3.6856411133e+003,3.6500000000e+003,3.6850000000e+003,3.7778205566e+003,3.6871794434e+003,3.7402563477e+003,3.6748718262e+003,3.6483332520e+003,
3.3437500000e+000,4.4500000000e+003,4.4711538086e+003,4.3798715820e+003,4.4473076172e+003,4.4655126953e+003,4.3698715820e+003,4.3893588867e+003,4.3742309570e+003,4.3997436523e+003,4.5342309570e+003,4.4407690430e+003,4.4555126953e+003,4.4000000000e+003,4.3524360352e+003,
3.3515625000e+000,4.4597436523e+003,4.4935898438e+003,4.4039741211e+003,4.4679487305e+003,4.4819228516e+003,4.3920512695e+003,4.4103847656e+003,4.4055126953e+003,4.4276923828e+003,4.5670512695e+003,4.4730771484e+003,4.4815385742e+003,4.4255126953e+003,4.3737177734e+003,
3.3593750000e+000,4.3080771484e+003,4.3717949219e+003,4.2834614258e+003,4.3406411133e+003,4.3605126953e+003,4.2744873047e+003,4.3015385742e+003,4.2932050781e+003,4.3067949219e+003,4.4402563477e+003,4.3341025391e+003,4.3634614258e+003,4.2962822266e+003,4.2557690430e+003,
3.3671875000e+000,4.3392309570e+003,4.4326923828e+003,4.3332050781e+003,4.3930771484e+003,4.4392309570e+003,4.3223076172e+003,4.3571796875e+003,4.3428203125e+003,4.3469228516e+003,4.4975639648e+003,4.4043588867e+003,4.4194873047e+003,4.3610258789e+003,4.3151284180e+003,
3.3750000000e+000,4.3970512695e+003,4.4952563477e+003,4.3971796875e+003,4.4544873047e+003,4.4958974609e+003,4.3830771484e+003,4.4196152344e+003,4.4011538086e+003,4.4038461914e+003,4.5579487305e+003,4.4757690430e+003,4.4805126953e+003,4.4270512695e+003,4.3788461914e+003,
3.3828125000e+000,4.6448715820e+003,4.7650000000e+003,4.6615385742e+003,4.6966665039e+003,4.7392309570e+003,4.6361538086e+003,4.6664101563e+003,4.6588461914e+003,4.6539741211e+003,4.8175639648e+003,4.7378203125e+003,4.7429487305e+003,4.6942309570e+003,4.6388461914e+003,
3.3906250000e+000,4.8442309570e+003,4.9960258789e+003,4.8802563477e+003,4.9102563477e+003,4.9758974609e+003,4.8533334961e+003,4.8716665039e+003,4.8520512695e+003,4.8376923828e+003,5.0201284180e+003,4.9515385742e+003,4.9524360352e+003,4.9114101563e+003,4.8498715820e+003,
3.3984375000e+000,5.1311538086e+003,5.3020512695e+003,5.1680771484e+003,5.2026923828e+003,5.2816665039e+003,5.1424360352e+003,5.1588461914e+003,5.1317949219e+003,5.1148715820e+003,5.3117949219e+003,5.2500000000e+003,5.2370512695e+003,5.2070512695e+003,5.1380771484e+003,
3.4062500000e+000,5.5051284180e+003,5.7024360352e+003,5.5451284180e+003,5.5788461914e+003,5.6785898438e+003,5.5165385742e+003,5.5293588867e+003,5.5071796875e+003,5.4882050781e+003,5.7055126953e+003,5.6419228516e+003,5.6147436523e+003,5.5950000000e+003,5.5162822266e+003,
3.4140625000e+000,6.0032050781e+003,6.2606411133e+003,6.0687177734e+003,6.0783334961e+003,6.2270512695e+003,6.0270512695e+003,6.0234614258e+003,6.0475639648e+003,6.0265385742e+003,6.2833334961e+003,6.1952563477e+003,6.1480771484e+003,6.1317949219e+003,6.0384614258e+003,
3.4218750000e+000,5.4703847656e+003,5.7696152344e+003,5.5988461914e+003,5.5970512695e+003,5.7238461914e+003,5.5683334961e+003,5.5456411133e+003,5.5955126953e+003,5.5807690430e+003,5.8211538086e+003,5.7158974609e+003,5.6812822266e+003,5.6476923828e+003,5.5596152344e+003,
3.4296875000e+000,5.2792309570e+003,5.5792309570e+003,5.4208974609e+003,5.4266665039e+003,5.5324360352e+003,5.3948715820e+003,5.3761538086e+003,5.4098715820e+003,5.3984614258e+003,5.6221796875e+003,5.5214101563e+003,5.4978203125e+003,5.4635898438e+003,5.3794873047e+003,
