Time (s),AF3,F7,F3,FC5,T7,P7,O1,O2,P8,T8,FC6,F4,F8,AF4,Sampling Rate
0.0000000000e+000,4.5819228516e+003,4.6721796875e+003,4.6410258789e+003,4.5601284180e+003,4.6584614258e+003,4.6275639648e+003,4.6012822266e+003,4.5960258789e+003,4.5937177734e+003,4.6716665039e+003,4.6533334961e+003,4.6341025391e+003,4.6242309570e+003,4.6105126953e+003,128
7.8125000000e-003,4.4091025391e+003,4.4929487305e+003,4.4712822266e+003,4.3985898438e+003,4.5098715820e+003,4.4493588867e+003,4.4294873047e+003,4.4323076172e+003,4.4338461914e+003,4.4997436523e+003,4.4714101563e+003,4.4691025391e+003,4.4728203125e+003,4.4524360352e+003,
1.5625000000e-002,4.3850000000e+003,4.4667949219e+003,4.4429487305e+003,4.3730771484e+003,4.4865385742e+003,4.4230771484e+003,4.4064101563e+003,4.4092309570e+003,4.4129487305e+003,4.4761538086e+003,4.4516665039e+003,4.4447436523e+003,4.4471796875e+003,4.4300000000e+003,
2.3437500000e-002,4.4778203125e+003,4.5685898438e+003,4.5332050781e+003,4.4662822266e+003,4.5551284180e+003,4.5205126953e+003,4.5069228516e+003,4.5126923828e+003,4.5202563477e+003,4.5803847656e+003,4.5601284180e+003,4.5430771484e+003,4.5492309570e+003,4.5237177734e+003,
3.1250000000e-002,4.5326923828e+003,4.6280771484e+003,4.5874360352e+003,4.5217949219e+003,4.6092309570e+003,4.5770512695e+003,4.5610258789e+003,4.5744873047e+003,4.5800000000e+003,4.6393588867e+003,4.6165385742e+003,4.5985898438e+003,4.6129487305e+003,4.5773076172e+003,
3.9062500000e-002,4.5635898438e+003,4.6612822266e+003,4.6171796875e+003,4.5525639648e+003,4.6451284180e+003,4.6098715820e+003,4.5906411133e+003,4.6128203125e+003,4.6151284180e+003,4.6732050781e+003,4.6487177734e+003,4.6301284180e+003,4.6503847656e+003,4.6071796875e+003,
4.6875000000e-002,4.5585898438e+003,4.6558974609e+003,4.6116665039e+003,4.5478203125e+003,4.6487177734e+003,4.6082050781e+003,4.5865385742e+003,4.6148715820e+003,4.6130771484e+003,4.6688461914e+003,4.6446152344e+003,4.6265385742e+003,4.6467949219e+003,4.6017949219e+003,
5.4687500000e-002,4.5020512695e+003,4.6091025391e+003,4.5685898438e+003,4.5108974609e+003,4.6291025391e+003,4.5878203125e+003,4.5694873047e+003,4.5903847656e+003,4.5723076172e+003,4.6157690430e+003,4.5944873047e+003,4.5821796875e+003,4.5915385742e+003,4.5517949219e+003,
6.2500000000e-002,4.6365385742e+003,4.7538461914e+003,4.7032050781e+003,4.6475639648e+003,4.7485898438e+003,4.7315385742e+003,4.7161538086e+003,4.7287177734e+003,4.7051284180e+003,4.7519228516e+003,4.7326923828e+003,4.7088461914e+003,4.7294873047e+003,4.6762822266e+003,
7.0312500000e-002,4.6596152344e+003,4.7808974609e+003,4.7251284180e+003,4.6646152344e+003,4.7830771484e+003,4.7574360352e+003,4.7392309570e+003,4.7503847656e+003,4.7271796875e+003,4.7778203125e+003,4.7580771484e+003,4.7325639648e+003,4.7528203125e+003,4.6983334961e+003,
7.8125000000e-002,4.6469228516e+003,4.7775639648e+003,4.7189741211e+003,4.6489741211e+003,4.7875639648e+003,4.7529487305e+003,4.7325639648e+003,4.7370512695e+003,4.7151284180e+003,4.7742309570e+003,4.7492309570e+003,4.7282050781e+003,4.7448715820e+003,4.6926923828e+003,
8.5937500000e-002,4.6416665039e+003,4.7756411133e+003,4.7170512695e+003,4.6476923828e+003,4.7837177734e+003,4.7470512695e+003,4.7287177734e+003,4.7285898438e+003,4.7080771484e+003,4.7698715820e+003,4.7415385742e+003,4.7255126953e+003,4.7417949219e+003,4.6905126953e+003,
9.3750000000e-002,4.7192309570e+003,4.8537177734e+003,4.7952563477e+003,4.7373076172e+003,4.8578203125e+003,4.8084614258e+003,4.7941025391e+003,4.7957690430e+003,4.7805126953e+003,4.8366665039e+003,4.8117949219e+003,4.7993588867e+003,4.8158974609e+003,4.7616665039e+003,
1.0156250000e-001,4.7702563477e+003,4.9066665039e+003,4.8524360352e+003,4.7787177734e+003,4.9102563477e+003,4.8642309570e+003,4.8403847656e+003,4.8417949219e+003,4.8274360352e+003,4.8903847656e+003,4.8794873047e+003,4.8539741211e+003,4.8682050781e+003,4.8178203125e+003,
1.0937500000e-001,4.7610258789e+003,4.9002563477e+003,4.8483334961e+003,4.7711538086e+003,4.9012822266e+003,4.8589741211e+003,4.8323076172e+003,4.8355126953e+003,4.8208974609e+003,4.8869228516e+003,4.8753847656e+003,4.8507690430e+003,4.8674360352e+003,4.8166665039e+003,
1.1718750000e-001,4.6921796875e+003,4.8328203125e+003,4.7933334961e+003,4.7160258789e+003,4.8252563477e+003,4.7976923828e+003,4.7700000000e+003,4.7739741211e+003,4.7630771484e+003,4.8193588867e+003,4.8189741211e+003,4.8010258789e+003,4.8096152344e+003,4.7623076172e+003,
1.2500000000e-001,4.7010258789e+003,4.8396152344e+003,4.8011538086e+003,4.7208974609e+003,4.8360258789e+003,4.8034614258e+003,4.7766665039e+003,4.7808974609e+003,4.7705126953e+003,4.8276923828e+003,4.8292309570e+003,4.8115385742e+003,4.8147436523e+003,4.7693588867e+003,
1.3281250000e-001,4.6769228516e+003,4.8133334961e+003,4.7782050781e+003,4.6866665039e+003,4.8180771484e+003,4.7703847656e+003,4.7482050781e+003,4.7643588867e+003,4.7479487305e+003,4.8107690430e+003,4.8017949219e+003,4.7929487305e+003,4.7885898438e+003,4.7485898438e+003,
1.4062500000e-001,4.5970512695e+003,4.7302563477e+003,4.7033334961e+003,4.6066665039e+003,4.7326923828e+003,4.6893588867e+003,4.6707690430e+003,4.6942309570e+003,4.6748715820e+003,4.7321796875e+003,4.7194873047e+003,4.7175639648e+003,4.7101284180e+003,4.6751284180e+003,
1.4843750000e-001,4.3498715820e+003,4.4671796875e+003,4.4557690430e+003,4.3657690430e+003,4.4619228516e+003,4.4508974609e+003,4.4402563477e+003,4.4651284180e+003,4.4521796875e+003,4.4707690430e+003,4.4770512695e+003,4.4653847656e+003,4.4584614258e+003,4.4370512695e+003,
1.5625000000e-001,4.3570512695e+003,4.4739741211e+003,4.4570512695e+003,4.3725639648e+003,4.4791025391e+003,4.4589741211e+003,4.4510258789e+003,4.4724360352e+003,4.4598715820e+003,4.4758974609e+003,4.4839741211e+003,4.4678203125e+003,4.4643588867e+003,4.4416665039e+003,
1.6406250000e-001,4.3865385742e+003,4.5042309570e+003,4.4823076172e+003,4.4026923828e+003,4.5233334961e+003,4.4866665039e+003,4.4824360352e+003,4.5023076172e+003,4.4865385742e+003,4.5058974609e+003,4.5076923828e+003,4.4944873047e+003,4.4930771484e+003,4.4679487305e+003,
1.7187500000e-001,4.3973076172e+003,4.5147436523e+003,4.4914101563e+003,4.4165385742e+003,4.5439741211e+003,4.4947436523e+003,4.4944873047e+003,4.5150000000e+003,4.4950000000e+003,4.5183334961e+003,4.5100000000e+003,4.5044873047e+003,4.5023076172e+003,4.4760258789e+003,
1.7968750000e-001,4.1447436523e+003,4.2400000000e+003,4.2387177734e+003,4.1728203125e+003,4.2580771484e+003,4.2557690430e+003,4.2596152344e+003,4.2666665039e+003,4.2526923828e+003,4.2566665039e+003,4.2505126953e+003,4.2496152344e+003,4.2366665039e+003,4.2250000000e+003,
1.8750000000e-001,4.1344873047e+003,4.2217949219e+003,4.2255126953e+003,4.1574360352e+003,4.2428203125e+003,4.2441025391e+003,4.2480771484e+003,4.2496152344e+003,4.2355126953e+003,4.2357690430e+003,4.2296152344e+003,4.2346152344e+003,4.2208974609e+003,4.2125639648e+003,
1.9531250000e-001,4.2456411133e+003,4.3207690430e+003,4.3253847656e+003,4.2530771484e+003,4.3376923828e+003,4.3342309570e+003,4.3374360352e+003,4.3307690430e+003,4.3185898438e+003,4.3237177734e+003,4.3143588867e+003,4.3288461914e+003,4.3151284180e+003,4.3067949219e+003,
2.0312500000e-001,4.2367949219e+003,4.3137177734e+003,4.3144873047e+003,4.2562822266e+003,4.3294873047e+003,4.3194873047e+003,4.3143588867e+003,4.3065385742e+003,4.3039741211e+003,4.3137177734e+003,4.3214101563e+003,4.3167949219e+003,4.3034614258e+003,4.3010258789e+003,
2.1093750000e-001,4.0273076172e+003,4.0914101563e+003,4.1005126953e+003,4.0361538086e+003,4.0789743652e+003,4.0973076172e+003,4.0879487305e+003,4.0819230957e+003,4.0969228516e+003,4.0991025391e+003,4.0910256348e+003,4.1014101563e+003,4.0875642090e+003,4.0857692871e+003,
2.1875000000e-001,3.9355129395e+003,3.9889743652e+003,4.0093588867e+003,3.9407692871e+003,3.9846154785e+003,4.0016667480e+003,3.9944870605e+003,3.9884614258e+003,4.0079487305e+003,4.0039743652e+003,3.9989743652e+003,4.0073076172e+003,3.9919230957e+003,3.9917949219e+003,
2.2656250000e-001,3.7848718262e+003,3.8201281738e+003,3.8514101563e+003,3.7867949219e+003,3.8458974609e+003,3.8438461914e+003,3.8414101563e+003,3.8426923828e+003,3.8650000000e+003,3.8405129395e+003,3.8380769043e+003,3.8520512695e+003,3.8339743652e+003,3.8398718262e+003,
2.3437500000e-001,3.7334614258e+003,3.7596154785e+003,3.7932050781e+003,3.7302563477e+003,3.7891025391e+003,3.7871794434e+003,3.7876923828e+003,3.7933332520e+003,3.8152563477e+003,3.7803845215e+003,3.7757692871e+003,3.7983332520e+003,3.7779487305e+003,3.7882050781e+003,
2.4218750000e-001,3.6638461914e+003,3.6592307129e+003,3.7102563477e+003,3.6393588867e+003,3.6733332520e+003,3.6996154785e+003,3.7087180176e+003,3.7189743652e+003,3.7388461914e+003,3.6970512695e+003,3.6946154785e+003,3.7141025391e+003,3.6957692871e+003,3.7115385742e+003,
2.5000000000e-001,3.6626923828e+003,3.6532050781e+003,3.7043588867e+003,3.6373076172e+003,3.6762819824e+003,3.6948718262e+003,3.7065385742e+003,3.7187180176e+003,3.7355129395e+003,3.6942307129e+003,3.6953845215e+003,3.7075642090e+003,3.6916667480e+003,3.7067949219e+003,
2.5781250000e-001,3.6382050781e+003,3.6275642090e+003,3.6655129395e+003,3.6132050781e+003,3.6705129395e+003,3.6647436523e+003,3.6841025391e+003,3.6950000000e+003,3.7064101563e+003,3.6574357910e+003,3.6569230957e+003,3.6737180176e+003,3.6588461914e+003,3.6746154785e+003,
2.6562500000e-001,3.6124357910e+003,3.5982050781e+003,3.6337180176e+003,3.5864101563e+003,3.6393588867e+003,3.6369230957e+003,3.6593588867e+003,3.6648718262e+003,3.6762819824e+003,3.6229487305e+003,3.6165385742e+003,3.6412819824e+003,3.6283332520e+003,3.6439743652e+003,
2.7343750000e-001,3.5770512695e+003,3.5332050781e+003,3.5923076172e+003,3.5542307129e+003,3.5637180176e+003,3.6000000000e+003,3.6226923828e+003,3.6148718262e+003,3.6256411133e+003,3.5733332520e+003,3.5611538086e+003,3.5914101563e+003,3.5751281738e+003,3.5948718262e+003,
2.8125000000e-001,3.5805129395e+003,3.5328205566e+003,3.5926923828e+003,3.5574357910e+003,3.5678205566e+003,3.6026923828e+003,3.6257692871e+003,3.6155129395e+003,3.6255129395e+003,3.5734614258e+003,3.5657692871e+003,3.5967949219e+003,3.5724357910e+003,3.5952563477e+003,
2.8906250000e-001,3.5837180176e+003,3.5376923828e+003,3.5907692871e+003,3.5566667480e+003,3.5751281738e+003,3.6042307129e+003,3.6280769043e+003,3.6141025391e+003,3.6251281738e+003,3.5719230957e+003,3.5674357910e+003,3.6012819824e+003,3.5719230957e+003,3.5947436523e+003,
2.9687500000e-001,3.5824357910e+003,3.5389743652e+003,3.5839743652e+003,3.5491025391e+003,3.5752563477e+003,3.6002563477e+003,3.6246154785e+003,3.6057692871e+003,3.6194870605e+003,3.5650000000e+003,3.5602563477e+003,3.5974357910e+003,3.5692307129e+003,3.5889743652e+003,
3.0468750000e-001,3.5479487305e+003,3.4832050781e+003,3.5396154785e+003,3.5028205566e+003,3.5041025391e+003,3.5425642090e+003,3.5646154785e+003,3.5350000000e+003,3.5556411133e+003,3.5053845215e+003,3.5051281738e+003,3.5412819824e+003,3.5258974609e+003,3.5441025391e+003,
3.1250000000e-001,3.5133332520e+003,3.4352563477e+003,3.4893588867e+003,3.4544870605e+003,3.4676923828e+003,3.4876923828e+003,3.5008974609e+003,3.4780769043e+003,3.5150000000e+003,3.4634614258e+003,3.4675642090e+003,3.5038461914e+003,3.4829487305e+003,3.4998718262e+003,
3.2031250000e-001,3.4996154785e+003,3.4174357910e+003,3.4739743652e+003,3.4384614258e+003,3.4642307129e+003,3.4715385742e+003,3.4817949219e+003,3.4632050781e+003,3.4991025391e+003,3.4473076172e+003,3.4473076172e+003,3.4851281738e+003,3.4664101563e+003,3.4843588867e+003,
3.2812500000e-001,3.5465385742e+003,3.4624357910e+003,3.5098718262e+003,3.4803845215e+003,3.5147436523e+003,3.5094870605e+003,3.5192307129e+003,3.5092307129e+003,3.5396154785e+003,3.4898718262e+003,3.4870512695e+003,3.5248718262e+003,3.5074357910e+003,3.5274357910e+003,
3.3593750000e-001,3.5488461914e+003,3.4571794434e+003,3.5035898438e+003,3.4723076172e+003,3.4864101563e+003,3.5001281738e+003,3.5110256348e+003,3.5202563477e+003,3.5405129395e+003,3.4928205566e+003,3.4819230957e+003,3.5216667480e+003,3.5044870605e+003,3.5239743652e+003,
3.4375000000e-001,3.5017949219e+003,3.4021794434e+003,3.4560256348e+003,3.4296154785e+003,3.4400000000e+003,3.4541025391e+003,3.4634614258e+003,3.4755129395e+003,3.4965385742e+003,3.4446154785e+003,3.4352563477e+003,3.4688461914e+003,3.4558974609e+003,3.4733332520e+003,
3.5156250000e-001,3.4416667480e+003,3.3323076172e+003,3.3870512695e+003,3.3780769043e+003,3.3744870605e+003,3.3957692871e+003,3.4082050781e+003,3.4124357910e+003,3.4376923828e+003,3.3785898438e+003,3.3714101563e+003,3.4010256348e+003,3.3894870605e+003,3.4048718262e+003,
3.5937500000e-001,3.4453845215e+003,3.3353845215e+003,3.3850000000e+003,3.3778205566e+003,3.3707692871e+003,3.3984614258e+003,3.4146154785e+003,3.4117949219e+003,3.4378205566e+003,3.3788461914e+003,3.3692307129e+003,3.4005129395e+003,3.3878205566e+003,3.4038461914e+003,
3.6718750000e-001,3.4835898438e+003,3.3714101563e+003,3.4169230957e+003,3.3939743652e+003,3.4050000000e+003,3.4303845215e+003,3.4510256348e+003,3.4420512695e+003,3.4641025391e+003,3.4116667480e+003,3.3971794434e+003,3.4243588867e+003,3.4105129395e+003,3.4276923828e+003,
3.7500000000e-001,3.4779487305e+003,3.3620512695e+003,3.4116667480e+003,3.3885898438e+003,3.4026923828e+003,3.4234614258e+003,3.4429487305e+003,3.4341025391e+003,3.4546154785e+003,3.4006411133e+003,3.3880769043e+003,3.4179487305e+003,3.4010256348e+003,3.4192307129e+003,
3.8281250000e-001,3.4717949219e+003,3.3534614258e+003,3.4024357910e+003,3.3824357910e+003,3.3884614258e+003,3.4155129395e+003,3.4326923828e+003,3.4215385742e+003,3.4412819824e+003,3.3842307129e+003,3.3694870605e+003,3.4132050781e+003,3.3917949219e+003,3.4112819824e+003,
3.9062500000e-001,3.4715385742e+003,3.3557692871e+003,3.3984614258e+003,3.3778205566e+003,3.3770512695e+003,3.4144870605e+003,3.4308974609e+003,3.4171794434e+003,3.4380769043e+003,3.3829487305e+003,3.3643588867e+003,3.4121794434e+003,3.3925642090e+003,3.4105129395e+003,
3.9843750000e-001,3.4878205566e+003,3.3717949219e+003,3.4075642090e+003,3.3814101563e+003,3.3957692871e+003,3.4217949219e+003,3.4365385742e+003,3.4089743652e+003,3.4352563477e+003,3.3928205566e+003,3.3806411133e+003,3.4179487305e+003,3.4057692871e+003,3.4184614258e+003,
4.0625000000e-001,3.5274357910e+003,3.4073076172e+003,3.4444870605e+003,3.4180769043e+003,3.4487180176e+003,3.4547436523e+003,3.4671794434e+003,3.4392307129e+003,3.4661538086e+003,3.4282050781e+003,3.4205129395e+003,3.4551281738e+003,3.4412819824e+003,3.4548718262e+003,
4.1406250000e-001,3.5714101563e+003,3.4485898438e+003,3.4861538086e+003,3.4587180176e+003,3.5015385742e+003,3.4930769043e+003,3.5017949219e+003,3.4787180176e+003,3.5053845215e+003,3.4714101563e+003,3.4646154785e+003,3.5007692871e+003,3.4824357910e+003,3.4989743652e+003,
4.2187500000e-001,3.5941025391e+003,3.4701281738e+003,3.5083332520e+003,3.4783332520e+003,3.5248718262e+003,3.5134614258e+003,3.5179487305e+003,3.5023076172e+003,3.5291025391e+003,3.4975642090e+003,3.4888461914e+003,3.5288461914e+003,3.5046154785e+003,3.5257692871e+003,
4.2968750000e-001,3.5184614258e+003,3.3948718262e+003,3.4315385742e+003,3.4176923828e+003,3.4412819824e+003,3.4464101563e+003,3.4543588867e+003,3.4443588867e+003,3.4812819824e+003,3.4406411133e+003,3.4214101563e+003,3.4573076172e+003,3.4382050781e+003,3.4547436523e+003,
4.3750000000e-001,3.5475642090e+003,3.4233332520e+003,3.4602563477e+003,3.4478205566e+003,3.4684614258e+003,3.4760256348e+003,3.4856411133e+003,3.4773076172e+003,3.5132050781e+003,3.4698718262e+003,3.4469230957e+003,3.4858974609e+003,3.4634614258e+003,3.4798718262e+003,
4.4531250000e-001,3.6198718262e+003,3.4855129395e+003,3.5433332520e+003,3.5110256348e+003,3.5320512695e+003,3.5444870605e+003,3.5529487305e+003,3.5593588867e+003,3.5914101563e+003,3.5455129395e+003,3.5211538086e+003,3.5662819824e+003,3.5308974609e+003,3.5485898438e+003,
4.5312500000e-001,3.6288461914e+003,3.5076923828e+003,3.5475642090e+003,3.5344870605e+003,3.5576923828e+003,3.5544870605e+003,3.5674357910e+003,3.5720512695e+003,3.5987180176e+003,3.5623076172e+003,3.5438461914e+003,3.5653845215e+003,3.5561538086e+003,3.5612819824e+003,
4.6093750000e-001,3.6953845215e+003,3.5846154785e+003,3.6115385742e+003,3.6037180176e+003,3.6143588867e+003,3.6206411133e+003,3.6352563477e+003,3.6387180176e+003,3.6594870605e+003,3.6283332520e+003,3.6078205566e+003,3.6296154785e+003,3.6215385742e+003,3.6292307129e+003,
4.6875000000e-001,3.9310256348e+003,3.8364101563e+003,3.8508974609e+003,3.8398718262e+003,3.8501281738e+003,3.8566667480e+003,3.8693588867e+003,3.8801281738e+003,3.8880769043e+003,3.8732050781e+003,3.8429487305e+003,3.8717949219e+003,3.8539743652e+003,3.8625642090e+003,
4.7656250000e-001,3.9892307129e+003,3.9121794434e+003,3.9216667480e+003,3.9374357910e+003,3.9661538086e+003,3.9384614258e+003,3.9470512695e+003,3.9473076172e+003,3.9526923828e+003,3.9510256348e+003,3.9230769043e+003,3.9380769043e+003,3.9275642090e+003,3.9223076172e+003,
4.8437500000e-001,4.0307692871e+003,3.9650000000e+003,3.9648718262e+003,3.9880769043e+003,4.0038461914e+003,3.9878205566e+003,3.9928205566e+003,3.9879487305e+003,3.9930769043e+003,3.9961538086e+003,3.9662819824e+003,3.9798718262e+003,3.9714101563e+003,3.9653845215e+003,
4.9218750000e-001,4.0825642090e+003,4.0253845215e+003,4.0188461914e+003,4.0423076172e+003,4.0469230957e+003,4.0456411133e+003,4.0462819824e+003,4.0380769043e+003,4.0425642090e+003,4.0494870605e+003,4.0192307129e+003,4.0330769043e+003,4.0243588867e+003,4.0187180176e+003,
5.0000000000e-001,4.2005126953e+003,4.1489741211e+003,4.1411538086e+003,4.1566665039e+003,4.1712822266e+003,4.1674360352e+003,4.1610258789e+003,4.1510258789e+003,4.1547436523e+003,4.1675639648e+003,4.1484614258e+003,4.1578203125e+003,4.1466665039e+003,4.1397436523e+003,
5.0781250000e-001,4.2956411133e+003,4.2621796875e+003,4.2402563477e+003,4.2620512695e+003,4.3102563477e+003,4.2579487305e+003,4.2416665039e+003,4.2426923828e+003,4.2514101563e+003,4.2848715820e+003,4.2684614258e+003,4.2676923828e+003,4.2567949219e+003,4.2462822266e+003,
5.1562500000e-001,4.2057690430e+003,4.1764101563e+003,4.1591025391e+003,4.1789741211e+003,4.2160258789e+003,4.1703847656e+003,4.1523076172e+003,4.1551284180e+003,4.1666665039e+003,4.2029487305e+003,4.1797436523e+003,4.1846152344e+003,4.1715385742e+003,4.1643588867e+003,
5.2343750000e-001,4.0597436523e+003,4.0270512695e+003,4.0237180176e+003,4.0392307129e+003,4.0557692871e+003,4.0289743652e+003,4.0107692871e+003,4.0111538086e+003,4.0266667480e+003,4.0578205566e+003,4.0317949219e+003,4.0435898438e+003,4.0287180176e+003,4.0261538086e+003,
5.3125000000e-001,3.8197436523e+003,3.7670512695e+003,3.7926923828e+003,3.8082050781e+003,3.7858974609e+003,3.7956411133e+003,3.7806411133e+003,3.7700000000e+003,3.7980769043e+003,3.8042307129e+003,3.7858974609e+003,3.8021794434e+003,3.7892307129e+003,3.7925642090e+003,
5.3906250000e-001,3.7997436523e+003,3.7410256348e+003,3.7689743652e+003,3.7892307129e+003,3.7616667480e+003,3.7750000000e+003,3.7621794434e+003,3.7489743652e+003,3.7826923828e+003,3.7792307129e+003,3.7624357910e+003,3.7797436523e+003,3.7667949219e+003,3.7711538086e+003,
5.4687500000e-001,3.8297436523e+003,3.7711538086e+003,3.7943588867e+003,3.8180769043e+003,3.7962819824e+003,3.8025642090e+003,3.7920512695e+003,3.7797436523e+003,3.8161538086e+003,3.8097436523e+003,3.7883332520e+003,3.8105129395e+003,3.7933332520e+003,3.8000000000e+003,
5.5468750000e-001,3.8056411133e+003,3.7517949219e+003,3.7716667480e+003,3.8130769043e+003,3.7939743652e+003,3.7856411133e+003,3.7838461914e+003,3.7961538086e+003,3.8162819824e+003,3.8015385742e+003,3.7770512695e+003,3.7871794434e+003,3.7742307129e+003,3.7739743652e+003,
5.6250000000e-001,3.8153845215e+003,3.7610256348e+003,3.7793588867e+003,3.8188461914e+003,3.7928205566e+003,3.7947436523e+003,3.7973076172e+003,3.8084614258e+003,3.8279487305e+003,3.8092307129e+003,3.7867949219e+003,3.7934614258e+003,3.7810256348e+003,3.7783332520e+003,
5.7031250000e-001,3.9055129395e+003,3.8587180176e+003,3.8679487305e+003,3.8966667480e+003,3.8771794434e+003,3.8887180176e+003,3.8935898438e+003,3.9014101563e+003,3.9103845215e+003,3.9034614258e+003,3.8656411133e+003,3.8842307129e+003,3.8673076172e+003,3.8634614258e+003,
5.7812500000e-001,3.8032050781e+003,3.7576923828e+003,3.7680769043e+003,3.8111538086e+003,3.8096154785e+003,3.8008974609e+003,3.8044870605e+003,3.8047436523e+003,3.8114101563e+003,3.7998718262e+003,3.7615385742e+003,3.7860256348e+003,3.7741025391e+003,3.7660256348e+003,
5.8593750000e-001,3.7641025391e+003,3.7188461914e+003,3.7291025391e+003,3.7682050781e+003,3.7750000000e+003,3.7650000000e+003,3.7675642090e+003,3.7637180176e+003,3.7747436523e+003,3.7606411133e+003,3.7233332520e+003,3.7476923828e+003,3.7319230957e+003,3.7276923828e+003,
5.9375000000e-001,3.7091025391e+003,3.6555129395e+003,3.6689743652e+003,3.7025642090e+003,3.7093588867e+003,3.7108974609e+003,3.7064101563e+003,3.6952563477e+003,3.7093588867e+003,3.6950000000e+003,3.6647436523e+003,3.6842307129e+003,3.6696154785e+003,3.6765385742e+003,
6.0156250000e-001,3.7467949219e+003,3.6887180176e+003,3.6989743652e+003,3.7417949219e+003,3.7183332520e+003,3.7338461914e+003,3.7314101563e+003,3.7071794434e+003,3.7285898438e+003,3.7200000000e+003,3.6944870605e+003,3.7079487305e+003,3.7148718262e+003,3.7097436523e+003,
6.0937500000e-001,3.7291025391e+003,3.6737180176e+003,3.6833332520e+003,3.7197436523e+003,3.6942307129e+003,3.7132050781e+003,3.7102563477e+003,3.6864101563e+003,3.7139743652e+003,3.7082050781e+003,3.6791025391e+003,3.6955129395e+003,3.6980769043e+003,3.6921794434e+003,
6.1718750000e-001,3.6776923828e+003,3.6233332520e+003,3.6360256348e+003,3.6652563477e+003,3.6442307129e+003,3.6610256348e+003,3.6567949219e+003,3.6355129395e+003,3.6682050781e+003,3.6616667480e+003,3.6288461914e+003,3.6512819824e+003,3.6470512695e+003,3.6425642090e+003,
6.2500000000e-001,3.5789743652e+003,3.5230769043e+003,3.5391025391e+003,3.5708974609e+003,3.5702563477e+003,3.5620512695e+003,3.5562819824e+003,3.5384614258e+003,3.5782050781e+003,3.5588461914e+003,3.5238461914e+003,3.5573076172e+003,3.5505129395e+003,3.5456411133e+003,
6.3281250000e-001,3.7576923828e+003,3.7082050781e+003,3.7062819824e+003,3.7546154785e+003,3.7393588867e+003,3.7337180176e+003,3.7326923828e+003,3.7143588867e+003,3.7521794434e+003,3.7325642090e+003,3.7044870605e+003,3.7316667480e+003,3.7311538086e+003,3.7201281738e+003,
6.4062500000e-001,3.8407692871e+003,3.7912819824e+003,3.7888461914e+003,3.8320512695e+003,3.8051281738e+003,3.8103845215e+003,3.8119230957e+003,3.7998718262e+003,3.8320512695e+003,3.8185898438e+003,3.7916667480e+003,3.8134614258e+003,3.8128205566e+003,3.7989743652e+003,
6.4843750000e-001,3.8816667480e+003,3.8293588867e+003,3.8307692871e+003,3.8670512695e+003,3.8380769043e+003,3.8452563477e+003,3.8487180176e+003,3.8460256348e+003,3.8724357910e+003,3.8619230957e+003,3.8352563477e+003,3.8524357910e+003,3.8525642090e+003,3.8343588867e+003,
6.5625000000e-001,3.8330769043e+003,3.7724357910e+003,3.7867949219e+003,3.8182050781e+003,3.8088461914e+003,3.7962819824e+003,3.8030769043e+003,3.8106411133e+003,3.8317949219e+003,3.8129487305e+003,3.7847436523e+003,3.8041025391e+003,3.8039743652e+003,3.7782050781e+003,
6.6406250000e-001,3.7942307129e+003,3.7320512695e+003,3.7494870605e+003,3.7841025391e+003,3.7829487305e+003,3.7632050781e+003,3.7723076172e+003,3.7758974609e+003,3.7975642090e+003,3.7728205566e+003,3.7432050781e+003,3.7685898438e+003,3.7655129395e+003,3.7396154785e+003,
6.7187500000e-001,3.7787180176e+003,3.7184614258e+003,3.7332050781e+003,3.7723076172e+003,3.7744870605e+003,3.7551281738e+003,3.7657692871e+003,3.7628205566e+003,3.7857692871e+003,3.7585898438e+003,3.7269230957e+003,3.7566667480e+003,3.7506411133e+003,3.7260256348e+003,
6.7968750000e-001,3.6905129395e+003,3.6353845215e+003,3.6378205566e+003,3.6792307129e+003,3.6660256348e+003,3.6873076172e+003,3.6883332520e+003,3.6889743652e+003,3.7085898438e+003,3.6862819824e+003,3.6507692871e+003,3.6779487305e+003,3.6737180176e+003,3.6444870605e+003,
6.8750000000e-001,3.6573076172e+003,3.6005129395e+003,3.6087180176e+003,3.6456411133e+003,3.6326923828e+003,3.6533332520e+003,3.6535898438e+003,3.6512819824e+003,3.6714101563e+003,3.6489743652e+003,3.6162819824e+003,3.6425642090e+003,3.6424357910e+003,3.6114101563e+003,
6.9531250000e-001,3.5526923828e+003,3.4962819824e+003,3.5023076172e+003,3.5456411133e+003,3.5465385742e+003,3.5444870605e+003,3.5437180176e+003,3.5306411133e+003,3.5489743652e+003,3.5292307129e+003,3.5057692871e+003,3.5350000000e+003,3.5364101563e+003,3.5070512695e+003,
7.0312500000e-001,3.5274357910e+003,3.4683332520e+003,3.4726923828e+003,3.5192307129e+003,3.5189743652e+003,3.5130769043e+003,3.5133332520e+003,3.4967949219e+003,3.5166667480e+003,3.4952563477e+003,3.4743588867e+003,3.5075642090e+003,3.5057692871e+003,3.4815385742e+003,
7.1093750000e-001,3.6134614258e+003,3.5443588867e+003,3.5503845215e+003,3.5921794434e+003,3.5858974609e+003,3.5778205566e+003,3.5814101563e+003,3.5608974609e+003,3.5887180176e+003,3.5682050781e+003,3.5442307129e+003,3.5839743652e+003,3.5806411133e+003,3.5619230957e+003,
7.1875000000e-001,3.7651281738e+003,3.6993588867e+003,3.7037180176e+003,3.7510256348e+003,3.7194870605e+003,3.7173076172e+003,3.7182050781e+003,3.7225642090e+003,3.7505129395e+003,3.7433332520e+003,3.7166667480e+003,3.7446154785e+003,3.7320512695e+003,3.7147436523e+003,
7.2656250000e-001,3.7012819824e+003,3.6367949219e+003,3.6402563477e+003,3.6917949219e+003,3.6473076172e+003,3.6537180176e+003,3.6562819824e+003,3.6635898438e+003,3.6937180176e+003,3.6808974609e+003,3.6589743652e+003,3.6819230957e+003,3.6683332520e+003,3.6535898438e+003,
7.3437500000e-001,3.6110256348e+003,3.5411538086e+003,3.5515385742e+003,3.6051281738e+003,3.5506411133e+003,3.5557692871e+003,3.5701281738e+003,3.5711538086e+003,3.6076923828e+003,3.5812819824e+003,3.5589743652e+003,3.5864101563e+003,3.5762819824e+003,3.5628205566e+003,
7.4218750000e-001,3.6053845215e+003,3.5315385742e+003,3.5467949219e+003,3.5976923828e+003,3.5551281738e+003,3.5469230957e+003,3.5665385742e+003,3.5638461914e+003,3.5997436523e+003,3.5711538086e+003,3.5437180176e+003,3.5783332520e+003,3.5691025391e+003,3.5552563477e+003,
7.5000000000e-001,3.5133332520e+003,3.4316667480e+003,3.4548718262e+003,3.5026923828e+003,3.4793588867e+003,3.4687180176e+003,3.4879487305e+003,3.4848718262e+003,3.5092307129e+003,3.4778205566e+003,3.4442307129e+003,3.4860256348e+003,3.4743588867e+003,3.4646154785e+003,
7.5781250000e-001,3.4358974609e+003,3.3498718262e+003,3.3767949219e+003,3.4296154785e+003,3.3842307129e+003,3.3967949219e+003,3.4164101563e+003,3.4078205566e+003,3.4337180176e+003,3.3948718262e+003,3.3644870605e+003,3.4075642090e+003,3.3938461914e+003,3.3871794434e+003,
7.6562500000e-001,3.3746154785e+003,3.2844870605e+003,3.3138461914e+003,3.3726923828e+003,3.3043588867e+003,3.3379487305e+003,3.3591025391e+003,3.3412819824e+003,3.3716667480e+003,3.3250000000e+003,3.2976923828e+003,3.3438461914e+003,3.3276923828e+003,3.3230769043e+003,
7.7343750000e-001,3.3476923828e+003,3.2561538086e+003,3.2837180176e+003,3.3471794434e+003,3.2692307129e+003,3.3117949219e+003,3.3337180176e+003,3.3080769043e+003,3.3426923828e+003,3.2916667480e+003,3.2655129395e+003,3.3141025391e+003,3.2962819824e+003,3.2921794434e+003,
7.8125000000e-001,3.3134614258e+003,3.2092307129e+003,3.2428205566e+003,3.2861538086e+003,3.2703845215e+003,3.2852563477e+003,3.2933332520e+003,3.2742307129e+003,3.3073076172e+003,3.2558974609e+003,3.2358974609e+003,3.2694870605e+003,3.2587180176e+003,3.2506411133e+003,
7.8906250000e-001,3.3352563477e+003,3.2226923828e+003,3.2606411133e+003,3.3064101563e+003,3.2869230957e+003,3.3011538086e+003,3.3088461914e+003,3.2882050781e+003,3.3225642090e+003,3.2693588867e+003,3.2511538086e+003,3.2830769043e+003,3.2775642090e+003,3.2647436523e+003,
7.9687500000e-001,3.5512819824e+003,3.4497436523e+003,3.4611538086e+003,3.5212819824e+003,3.4853845215e+003,3.4984614258e+003,3.5087180176e+003,3.4976923828e+003,3.5288461914e+003,3.4926923828e+003,3.4541025391e+003,3.4958974609e+003,3.4907692871e+003,3.4723076172e+003,
8.0468750000e-001,3.5492307129e+003,3.4483332520e+003,3.4607692871e+003,3.5050000000e+003,3.4835898438e+003,3.4853845215e+003,3.4985898438e+003,3.5017949219e+003,3.5294870605e+003,3.4996154785e+003,3.4596154785e+003,3.4978205566e+003,3.4817949219e+003,3.4734614258e+003,
8.1250000000e-001,3.5561538086e+003,3.4515385742e+003,3.4653845215e+003,3.5167949219e+003,3.4864101563e+003,3.4838461914e+003,3.5003845215e+003,3.5000000000e+003,3.5305129395e+003,3.5019230957e+003,3.4641025391e+003,3.4988461914e+003,3.4861538086e+003,3.4755129395e+003,
8.2031250000e-001,3.6405129395e+003,3.5385898438e+003,3.5517949219e+003,3.6021794434e+003,3.5544870605e+003,3.5565385742e+003,3.5753845215e+003,3.5693588867e+003,3.5993588867e+003,3.5846154785e+003,3.5505129395e+003,3.5856411133e+003,3.5693588867e+003,3.5641025391e+003,
8.2812500000e-001,3.6197436523e+003,3.5117949219e+003,3.5314101563e+003,3.5711538086e+003,3.5438461914e+003,3.5316667480e+003,3.5548718262e+003,3.5484614258e+003,3.5803845215e+003,3.5596154785e+003,3.5346154785e+003,3.5642307129e+003,3.5500000000e+003,3.5417949219e+003,
8.3593750000e-001,3.6220512695e+003,3.5119230957e+003,3.5323076172e+003,3.5738461914e+003,3.5538461914e+003,3.5328205566e+003,3.5605129395e+003,3.5471794434e+003,3.5797436523e+003,3.5582050781e+003,3.5303845215e+003,3.5633332520e+003,3.5488461914e+003,3.5384614258e+003,
8.4375000000e-001,3.7183332520e+003,3.6126923828e+003,3.6266667480e+003,3.6551281738e+003,3.6462819824e+003,3.6401281738e+003,3.6673076172e+003,3.6465385742e+003,3.6705129395e+003,3.6550000000e+003,3.6187180176e+003,3.6578205566e+003,3.6344870605e+003,3.6251281738e+003,
8.5156250000e-001,3.7257692871e+003,3.6205129395e+003,3.6351281738e+003,3.6600000000e+003,3.6417949219e+003,3.6523076172e+003,3.6765385742e+003,3.6587180176e+003,3.6814101563e+003,3.6647436523e+003,3.6280769043e+003,3.6674357910e+003,3.6428205566e+003,3.6320512695e+003,
8.5937500000e-001,3.6925642090e+003,3.5889743652e+003,3.6046154785e+003,3.6321794434e+003,3.6046154785e+003,3.6251281738e+003,3.6471794434e+003,3.6301281738e+003,3.6562819824e+003,3.6342307129e+003,3.5952563477e+003,3.6346154785e+003,3.6165385742e+003,3.5979487305e+003,
8.6718750000e-001,3.6864101563e+003,3.5853845215e+003,3.5994870605e+003,3.6284614258e+003,3.6116667480e+003,3.6233332520e+003,3.6432050781e+003,3.6251281738e+003,3.6529487305e+003,3.6302563477e+003,3.5916667480e+003,3.6280769043e+003,3.6130769043e+003,3.5916667480e+003,
8.7500000000e-001,3.7185898438e+003,3.6203845215e+003,3.6364101563e+003,3.6562819824e+003,3.6737180176e+003,3.6706411133e+003,3.6773076172e+003,3.6647436523e+003,3.6847436523e+003,3.6694870605e+003,3.6394870605e+003,3.6705129395e+003,3.6407692871e+003,3.6253845215e+003,
8.8281250000e-001,3.7189743652e+003,3.6203845215e+003,3.6360256348e+003,3.6542307129e+003,3.6666667480e+003,3.6684614258e+003,3.6750000000e+003,3.6642307129e+003,3.6829487305e+003,3.6693588867e+003,3.6375642090e+003,3.6720512695e+003,3.6392307129e+003,3.6246154785e+003,
8.9062500000e-001,3.7119230957e+003,3.6156411133e+003,3.6271794434e+003,3.6462819824e+003,3.6508974609e+003,3.6566667480e+003,3.6652563477e+003,3.6558974609e+003,3.6753845215e+003,3.6629487305e+003,3.6258974609e+003,3.6637180176e+003,3.6339743652e+003,3.6167949219e+003,
8.9843750000e-001,3.6998718262e+003,3.6093588867e+003,3.6141025391e+003,3.6358974609e+003,3.6373076172e+003,3.6415385742e+003,3.6526923828e+003,3.6444870605e+003,3.6652563477e+003,3.6535898438e+003,3.6116667480e+003,3.6506411133e+003,3.6275642090e+003,3.6065385742e+003,
9.0625000000e-001,3.7166667480e+003,3.6303845215e+003,3.6339743652e+003,3.6707692871e+003,3.6719230957e+003,3.6594870605e+003,3.6702563477e+003,3.6648718262e+003,3.6842307129e+003,3.6741025391e+003,3.6391025391e+003,3.6706411133e+003,3.6557692871e+003,3.6342307129e+003,
9.1406250000e-001,3.7479487305e+003,3.6578205566e+003,3.6630769043e+003,3.7034614258e+003,3.6897436523e+003,3.6843588867e+003,3.6969230957e+003,3.6914101563e+003,3.7114101563e+003,3.7053845215e+003,3.6697436523e+003,3.6991025391e+003,3.6847436523e+003,3.6616667480e+003,
9.2187500000e-001,3.7752563477e+003,3.6900000000e+003,3.6916667480e+003,3.7303845215e+003,3.7083332520e+003,3.6937180176e+003,3.7152563477e+003,3.7051281738e+003,3.7255129395e+003,3.7314101563e+003,3.6955129395e+003,3.7252563477e+003,3.7092307129e+003,3.6838461914e+003,
9.2968750000e-001,3.7484614258e+003,3.6697436523e+003,3.6729487305e+003,3.7056411133e+003,3.6950000000e+003,3.6650000000e+003,3.6853845215e+003,3.6878205566e+003,3.7076923828e+003,3.7088461914e+003,3.6776923828e+003,3.7134614258e+003,3.6870512695e+003,3.6682050781e+003,
9.3750000000e-001,3.7215385742e+003,3.6412819824e+003,3.6479487305e+003,3.6785898438e+003,3.6651281738e+003,3.6369230957e+003,3.6587180176e+003,3.6620512695e+003,3.6832050781e+003,3.6841025391e+003,3.6496154785e+003,3.6888461914e+003,3.6605129395e+003,3.6425642090e+003,
9.4531250000e-001,3.5987180176e+003,3.5120512695e+003,3.5244870605e+003,3.5606411133e+003,3.5262819824e+003,3.5260256348e+003,3.5479487305e+003,3.5352563477e+003,3.5612819824e+003,3.5591025391e+003,3.5115385742e+003,3.5584614258e+003,3.5357692871e+003,3.5152563477e+003,
9.5312500000e-001,3.4955129395e+003,3.4050000000e+003,3.4248718262e+003,3.4673076172e+003,3.4152563477e+003,3.4484614258e+003,3.4669230957e+003,3.4428205566e+003,3.4621794434e+003,3.4451281738e+003,3.4070512695e+003,3.4564101563e+003,3.4230769043e+003,3.4153845215e+003,
9.6093750000e-001,3.4975642090e+003,3.4034614258e+003,3.4244870605e+003,3.4707692871e+003,3.4293588867e+003,3.4500000000e+003,3.4692307129e+003,3.4419230957e+003,3.4617949219e+003,3.4417949219e+003,3.4074357910e+003,3.4551281738e+003,3.4193588867e+003,3.4156411133e+003,
9.6875000000e-001,3.5546154785e+003,3.4503845215e+003,3.4642307129e+003,3.5165385742e+003,3.5102563477e+003,3.4919230957e+003,3.5100000000e+003,3.4861538086e+003,3.5110256348e+003,3.4879487305e+003,3.4480769043e+003,3.5019230957e+003,3.4702563477e+003,3.4643588867e+003,
9.7656250000e-001,3.5702563477e+003,3.4648718262e+003,3.4783332520e+003,3.5265385742e+003,3.5147436523e+003,3.5034614258e+003,3.5210256348e+003,3.5020512695e+003,3.5258974609e+003,3.5024357910e+003,3.4589743652e+003,3.5178205566e+003,3.4869230957e+003,3.4796154785e+003,
9.8437500000e-001,3.5842307129e+003,3.4806411133e+003,3.4933332520e+003,3.5375642090e+003,3.5097436523e+003,3.5114101563e+003,3.5285898438e+003,3.5188461914e+003,3.5430769043e+003,3.5211538086e+003,3.4773076172e+003,3.5296154785e+003,3.5026923828e+003,3.4935898438e+003,
9.9218750000e-001,3.5712819824e+003,3.4682050781e+003,3.4806411133e+003,3.5269230957e+003,3.4988461914e+003,3.4978205566e+003,3.5143588867e+003,3.5056411133e+003,3.5329487305e+003,3.5119230957e+003,3.4715385742e+003,3.5141025391e+003,3.4912819824e+003,3.4805129395e+003,
1.0000000000e+000,3.5491025391e+003,3.4456411133e+003,3.4585898438e+003,3.5080769043e+003,3.4819230957e+003,3.4764101563e+003,3.4920512695e+003,3.4820512695e+003,3.5123076172e+003,3.4917949219e+003,3.4553845215e+003,3.4902563477e+003,3.4715385742e+003,3.4585898438e+003,
1.0078125000e+000,3.5271794434e+003,3.4243588867e+003,3.4379487305e+003,3.4924357910e+003,3.4553845215e+003,3.4520512695e+003,3.4673076172e+003,3.4567949219e+003,3.4867949219e+003,3.4700000000e+003,3.4355129395e+003,3.4700000000e+003,3.4539743652e+003,3.4384614258e+003,
1.0156250000e+000,3.5289743652e+003,3.4284614258e+003,3.4405129395e+003,3.4964101563e+003,3.4473076172e+003,3.4484614258e+003,3.4650000000e+003,3.4576923828e+003,3.4851281738e+003,3.4720512695e+003,3.4343588867e+003,3.4737180176e+003,3.4542307129e+003,3.4407692871e+003,
1.0234375000e+000,3.5225642090e+003,3.4246154785e+003,3.4347436523e+003,3.4903845215e+003,3.4335898438e+003,3.4362819824e+003,3.4546154785e+003,3.4501281738e+003,3.4752563477e+003,3.4658974609e+003,3.4246154785e+003,3.4687180176e+003,3.4441025391e+003,3.4344870605e+003,
1.0312500000e+000,3.6115385742e+003,3.5046154785e+003,3.5235898438e+003,3.5657692871e+003,3.5330769043e+003,3.5183332520e+003,3.5328205566e+003,3.5187180176e+003,3.5483332520e+003,3.5512819824e+003,3.5130769043e+003,3.5565385742e+003,3.5394870605e+003,3.5276923828e+003,
1.0390625000e+000,3.7015385742e+003,3.5980769043e+003,3.6151281738e+003,3.6606411133e+003,3.6197436523e+003,3.6084614258e+003,3.6247436523e+003,3.6114101563e+003,3.6406411133e+003,3.6473076172e+003,3.6085898438e+003,3.6508974609e+003,3.6303845215e+003,3.6200000000e+003,
1.0468750000e+000,3.8937180176e+003,3.8115385742e+003,3.8084614258e+003,3.8647436523e+003,3.8366667480e+003,3.8124357910e+003,3.8330769043e+003,3.8182050781e+003,3.8470512695e+003,3.8653845215e+003,3.8247436523e+003,3.8488461914e+003,3.8324357910e+003,3.8170512695e+003,
1.0546875000e+000,3.8123076172e+003,3.7430769043e+003,3.7426923828e+003,3.8093588867e+003,3.7907692871e+003,3.7641025391e+003,3.7735898438e+003,3.7580769043e+003,3.7858974609e+003,3.8011538086e+003,3.7642307129e+003,3.7844870605e+003,3.7600000000e+003,3.7493588867e+003,
1.0625000000e+000,3.7850000000e+003,3.7197436523e+003,3.7192307129e+003,3.7810256348e+003,3.7611538086e+003,3.7444870605e+003,3.7511538086e+003,3.7319230957e+003,3.7597436523e+003,3.7724357910e+003,3.7361538086e+003,3.7571794434e+003,3.7339743652e+003,3.7232050781e+003,
1.0703125000e+000,3.9024357910e+003,3.8478205566e+003,3.8356411133e+003,3.8725642090e+003,3.8756411133e+003,3.8706411133e+003,3.8733332520e+003,3.8524357910e+003,3.8729487305e+003,3.8896154785e+003,3.8423076172e+003,3.8641025391e+003,3.8594870605e+003,3.8367949219e+003,
1.0781250000e+000,3.9646154785e+003,3.9139743652e+003,3.9000000000e+003,3.9367949219e+003,3.9433332520e+003,3.9329487305e+003,3.9361538086e+003,3.9215385742e+003,3.9371794434e+003,3.9573076172e+003,3.9064101563e+003,3.9317949219e+003,3.9221794434e+003,3.9025642090e+003,
1.0859375000e+000,4.0275642090e+003,3.9876923828e+003,3.9685898438e+003,4.0178205566e+003,4.0194870605e+003,3.9987180176e+003,4.0005129395e+003,3.9987180176e+003,4.0075642090e+003,4.0365385742e+003,3.9855129395e+003,4.0115385742e+003,3.9905129395e+003,3.9755129395e+003,
1.0937500000e+000,4.0197436523e+003,3.9858974609e+003,3.9632050781e+003,4.0165385742e+003,4.0150000000e+003,3.9955129395e+003,3.9942307129e+003,3.9952563477e+003,4.0034614258e+003,4.0371794434e+003,3.9871794434e+003,4.0093588867e+003,3.9897436523e+003,3.9707692871e+003,
1.1015625000e+000,3.9774357910e+003,3.9557692871e+003,3.9326923828e+003,3.9694870605e+003,3.9621794434e+003,3.9591025391e+003,3.9512819824e+003,3.9515385742e+003,3.9639743652e+003,4.0020512695e+003,3.9535898438e+003,3.9705129395e+003,3.9555129395e+003,3.9315385742e+003,
1.1093750000e+000,3.9956411133e+003,3.9776923828e+003,3.9538461914e+003,3.9861538086e+003,3.9791025391e+003,3.9733332520e+003,3.9662819824e+003,3.9670512695e+003,3.9812819824e+003,4.0206411133e+003,3.9738461914e+003,3.9889743652e+003,3.9729487305e+003,3.9512819824e+003,
1.1171875000e+000,4.0207692871e+003,4.0092307129e+003,3.9806411133e+003,4.0157692871e+003,4.0185898438e+003,3.9906411133e+003,3.9856411133e+003,3.9858974609e+003,4.0032050781e+003,4.0507692871e+003,4.0056411133e+003,4.0162819824e+003,4.0062819824e+003,3.9821794434e+003,
1.1250000000e+000,4.0065385742e+003,3.9958974609e+003,3.9679487305e+003,4.0028205566e+003,4.0152563477e+003,3.9734614258e+003,3.9689743652e+003,3.9670512695e+003,3.9855129395e+003,4.0366667480e+003,3.9917949219e+003,4.0039743652e+003,3.9978205566e+003,3.9715385742e+003,
1.1328125000e+000,3.9617949219e+003,3.9491025391e+003,3.9285898438e+003,3.9511538086e+003,3.9806411133e+003,3.9155129395e+003,3.9151281738e+003,3.9144870605e+003,3.9323076172e+003,3.9841025391e+003,3.9494870605e+003,3.9697436523e+003,3.9533332520e+003,3.9341025391e+003,
1.1406250000e+000,3.9715385742e+003,3.9587180176e+003,3.9379487305e+003,3.9635898438e+003,3.9873076172e+003,3.9211538086e+003,3.9246154785e+003,3.9265385742e+003,3.9443588867e+003,3.9950000000e+003,3.9656411133e+003,3.9839743652e+003,3.9623076172e+003,3.9455129395e+003,
1.1484375000e+000,3.9967949219e+003,3.9848718262e+003,3.9626923828e+003,3.9938461914e+003,4.0093588867e+003,3.9444870605e+003,3.9516667480e+003,3.9543588867e+003,3.9735898438e+003,4.0228205566e+003,3.9967949219e+003,4.0115385742e+003,3.9887180176e+003,3.9720512695e+003,
1.1562500000e+000,4.2726923828e+003,4.2843588867e+003,4.2517949219e+003,4.2706411133e+003,4.2902563477e+003,4.2478203125e+003,4.2510258789e+003,4.2507690430e+003,4.2628203125e+003,4.3180771484e+003,4.2665385742e+003,4.2866665039e+003,4.2698715820e+003,4.2450000000e+003,
1.1640625000e+000,4.3232050781e+003,4.3412822266e+003,4.3034614258e+003,4.3307690430e+003,4.3546152344e+003,4.3119228516e+003,4.3138461914e+003,4.3129487305e+003,4.3193588867e+003,4.3764101563e+003,4.3246152344e+003,4.3448715820e+003,4.3233334961e+003,4.2975639648e+003,
1.1718750000e+000,4.4301284180e+003,4.4782050781e+003,4.4223076172e+003,4.4475639648e+003,4.4879487305e+003,4.4598715820e+003,4.4523076172e+003,4.4475639648e+003,4.4526923828e+003,4.5147436523e+003,4.4643588867e+003,4.4629487305e+003,4.4521796875e+003,4.4110258789e+003,
1.1796875000e+000,4.3376923828e+003,4.3991025391e+003,4.3503847656e+003,4.3685898438e+003,4.4179487305e+003,4.3943588867e+003,4.3817949219e+003,4.3810258789e+003,4.3873076172e+003,4.4442309570e+003,4.3870512695e+003,4.3850000000e+003,4.3751284180e+003,4.3311538086e+003,
1.1875000000e+000,4.3151284180e+003,4.3806411133e+003,4.3289741211e+003,4.3587177734e+003,4.4062822266e+003,4.3784614258e+003,4.3639741211e+003,4.3665385742e+003,4.3728203125e+003,4.4255126953e+003,4.3678203125e+003,4.3656411133e+003,4.3562822266e+003,4.3117949219e+003,
1.1953125000e+000,4.3685898438e+003,4.4494873047e+003,4.3892309570e+003,4.4083334961e+003,4.4771796875e+003,4.4366665039e+003,4.4137177734e+003,4.4188461914e+003,4.4232050781e+003,4.4797436523e+003,4.4296152344e+003,4.4201284180e+003,4.4243588867e+003,4.3755126953e+003,
1.2031250000e+000,4.4130771484e+003,4.5008974609e+003,4.4360258789e+003,4.4476923828e+003,4.5284614258e+003,4.4762822266e+003,4.4519228516e+003,4.4591025391e+003,4.4620512695e+003,4.5267949219e+003,4.4756411133e+003,4.4676923828e+003,4.4748715820e+003,4.4252563477e+003,
1.2109375000e+000,4.4202563477e+003,4.5220512695e+003,4.4473076172e+003,4.4687177734e+003,4.5476923828e+003,4.4761538086e+003,4.4506411133e+003,4.4658974609e+003,4.4683334961e+003,4.5429487305e+003,4.4892309570e+003,4.4908974609e+003,4.4929487305e+003,4.4450000000e+003,
1.2187500000e+000,4.3526923828e+003,4.4558974609e+003,4.3850000000e+003,4.4110258789e+003,4.4765385742e+003,4.4084614258e+003,4.3821796875e+003,4.3980771484e+003,4.4010258789e+003,4.4746152344e+003,4.4252563477e+003,4.4320512695e+003,4.4279487305e+003,4.3824360352e+003,
1.2265625000e+000,4.1652563477e+003,4.2574360352e+003,4.2161538086e+003,4.2262822266e+003,4.2651284180e+003,4.2170512695e+003,4.1941025391e+003,4.1924360352e+003,4.1930771484e+003,4.2647436523e+003,4.2416665039e+003,4.2520512695e+003,4.2450000000e+003,4.2041025391e+003,
1.2343750000e+000,4.1747436523e+003,4.2664101563e+003,4.2283334961e+003,4.2406411133e+003,4.2751284180e+003,4.2207690430e+003,4.2041025391e+003,4.1984614258e+003,4.1976923828e+003,4.2725639648e+003,4.2547436523e+003,4.2652563477e+003,4.2592309570e+003,4.2185898438e+003,
1.2421875000e+000,4.1839741211e+003,4.2783334961e+003,4.2411538086e+003,4.2679487305e+003,4.2801284180e+003,4.2246152344e+003,4.2193588867e+003,4.2138461914e+003,4.2167949219e+003,4.2875639648e+003,4.2705126953e+003,4.2907690430e+003,4.2765385742e+003,4.2379487305e+003,
1.2500000000e+000,4.1429487305e+003,4.2382050781e+003,4.2016665039e+003,4.2319228516e+003,4.2339741211e+003,4.1892309570e+003,4.1850000000e+003,4.1815385742e+003,4.1892309570e+003,4.2514101563e+003,4.2294873047e+003,4.2575639648e+003,4.2373076172e+003,4.2000000000e+003,
1.2578125000e+000,3.9782050781e+003,4.0769230957e+003,4.0439743652e+003,4.0714101563e+003,4.0834614258e+003,4.0551281738e+003,4.0523076172e+003,4.0464101563e+003,4.0641025391e+003,4.1011538086e+003,4.0643588867e+003,4.0985898438e+003,4.0785898438e+003,4.0421794434e+003,
1.2656250000e+000,3.9920512695e+003,4.0932050781e+003,4.0596154785e+003,4.0889743652e+003,4.0975639648e+003,4.0729487305e+003,4.0746154785e+003,4.0639743652e+003,4.0823076172e+003,4.1157690430e+003,4.0819230957e+003,4.1089741211e+003,4.0962822266e+003,4.0564101563e+003,
1.2734375000e+000,4.0478205566e+003,4.1521796875e+003,4.1150000000e+003,4.1476923828e+003,4.1457690430e+003,4.1294873047e+003,4.1343588867e+003,4.1219228516e+003,4.1396152344e+003,4.1716665039e+003,4.1426923828e+003,4.1603847656e+003,4.1560258789e+003,4.1103847656e+003,
1.2812500000e+000,4.1144873047e+003,4.2215385742e+003,4.1794873047e+003,4.2146152344e+003,4.2041025391e+003,4.1965385742e+003,4.2008974609e+003,4.1916665039e+003,4.2073076172e+003,4.2396152344e+003,4.2134614258e+003,4.2241025391e+003,4.2246152344e+003,4.1737177734e+003,
1.2890625000e+000,3.9996154785e+003,4.1073076172e+003,4.0743588867e+003,4.1111538086e+003,4.1405126953e+003,4.1056411133e+003,4.0916667480e+003,4.0939743652e+003,4.1034614258e+003,4.1334614258e+003,4.0974360352e+003,4.1153847656e+003,4.1067949219e+003,4.0597436523e+003,
1.2968750000e+000,3.9910256348e+003,4.1093588867e+003,4.0574357910e+003,4.1266665039e+003,4.1226923828e+003,4.1032050781e+003,4.0896154785e+003,4.0800000000e+003,4.0964101563e+003,4.1176923828e+003,4.0700000000e+003,4.0984614258e+003,4.0982050781e+003,4.0533332520e+003,
1.3046875000e+000,4.0279487305e+003,4.1514101563e+003,4.0930769043e+003,4.1579487305e+003,4.1541025391e+003,4.1266665039e+003,4.1102563477e+003,4.1183334961e+003,4.1280771484e+003,4.1619228516e+003,4.1184614258e+003,4.1369228516e+003,4.1342309570e+003,4.0907692871e+003,
1.3125000000e+000,3.9992307129e+003,4.1187177734e+003,4.0658974609e+003,4.1278203125e+003,4.1192309570e+003,4.0939743652e+003,4.0798718262e+003,4.0855129395e+003,4.0944870605e+003,4.1294873047e+003,4.0929487305e+003,4.1075639648e+003,4.1097436523e+003,4.0646154785e+003,
1.3203125000e+000,4.0696154785e+003,4.1848715820e+003,4.1321796875e+003,4.1976923828e+003,4.1819228516e+003,4.1485898438e+003,4.1373076172e+003,4.1321796875e+003,4.1415385742e+003,4.1875639648e+003,4.1573076172e+003,4.1741025391e+003,4.1820512695e+003,4.1392309570e+003,
1.3281250000e+000,4.0875642090e+003,4.2057690430e+003,4.1511538086e+003,4.2129487305e+003,4.2003847656e+003,4.1614101563e+003,4.1482050781e+003,4.1469228516e+003,4.1564101563e+003,4.2075639648e+003,4.1787177734e+003,4.1950000000e+003,4.1993588867e+003,4.1592309570e+003,
1.3359375000e+000,4.0960258789e+003,4.2157690430e+003,4.1674360352e+003,4.2161538086e+003,4.1857690430e+003,4.1623076172e+003,4.1505126953e+003,4.1517949219e+003,4.1603847656e+003,4.2120512695e+003,4.1941025391e+003,4.2129487305e+003,4.2046152344e+003,4.1732050781e+003,
1.3437500000e+000,4.1638461914e+003,4.2829487305e+003,4.2362822266e+003,4.2846152344e+003,4.2411538086e+003,4.2258974609e+003,4.2178203125e+003,4.2164101563e+003,4.2237177734e+003,4.2755126953e+003,4.2612822266e+003,4.2821796875e+003,4.2712822266e+003,4.2415385742e+003,
1.3515625000e+000,4.5070512695e+003,4.6367949219e+003,4.5811538086e+003,4.6374360352e+003,4.6335898438e+003,4.5741025391e+003,4.5652563477e+003,4.5732050781e+003,4.5760258789e+003,4.6447436523e+003,4.6224360352e+003,4.6356411133e+003,4.6292309570e+003,4.5884614258e+003,
1.3593750000e+000,4.4919228516e+003,4.6276923828e+003,4.5734614258e+003,4.6246152344e+003,4.6441025391e+003,4.5702563477e+003,4.5587177734e+003,4.5725639648e+003,4.5738461914e+003,4.6450000000e+003,4.6223076172e+003,4.6301284180e+003,4.6210258789e+003,4.5802563477e+003,
1.3671875000e+000,4.3970512695e+003,4.5374360352e+003,4.4861538086e+003,4.5314101563e+003,4.5603847656e+003,4.4883334961e+003,4.4770512695e+003,4.4921796875e+003,4.4926923828e+003,4.5602563477e+003,4.5393588867e+003,4.5430771484e+003,4.5312822266e+003,4.4926923828e+003,
1.3750000000e+000,4.2801284180e+003,4.4230771484e+003,4.3744873047e+003,4.4160258789e+003,4.4392309570e+003,4.3842309570e+003,4.3762822266e+003,4.3874360352e+003,4.3882050781e+003,4.4478203125e+003,4.4275639648e+003,4.4305126953e+003,4.4188461914e+003,4.3810258789e+003,
1.3828125000e+000,4.2702563477e+003,4.4189741211e+003,4.3757690430e+003,4.4070512695e+003,4.4324360352e+003,4.4037177734e+003,4.4000000000e+003,4.4114101563e+003,4.4124360352e+003,4.4557690430e+003,4.4133334961e+003,4.4260258789e+003,4.4264101563e+003,4.3746152344e+003,
1.3906250000e+000,4.3221796875e+003,4.4778203125e+003,4.4267949219e+003,4.4517949219e+003,4.4892309570e+003,4.4653847656e+003,4.4515385742e+003,4.4617949219e+003,4.4676923828e+003,4.5035898438e+003,4.4641025391e+003,4.4761538086e+003,4.4688461914e+003,4.4230771484e+003,
1.3984375000e+000,4.3843588867e+003,4.5441025391e+003,4.4884614258e+003,4.5060258789e+003,4.5483334961e+003,4.5264101563e+003,4.5144873047e+003,4.5192309570e+003,4.5224360352e+003,4.5614101563e+003,4.5275639648e+003,4.5356411133e+003,4.5305126953e+003,4.4832050781e+003,
1.4062500000e+000,4.6485898438e+003,4.8229487305e+003,4.7576923828e+003,4.7602563477e+003,4.8189741211e+003,4.7798715820e+003,4.7632050781e+003,4.7896152344e+003,4.7812822266e+003,4.8469228516e+003,4.8167949219e+003,4.8023076172e+003,4.8079487305e+003,4.7550000000e+003,
1.4140625000e+000,4.6130771484e+003,4.7912822266e+003,4.7271796875e+003,4.7298715820e+003,4.7821796875e+003,4.7469228516e+003,4.7253847656e+003,4.7596152344e+003,4.7519228516e+003,4.8192309570e+003,4.7862822266e+003,4.7744873047e+003,4.7761538086e+003,4.7267949219e+003,
1.4218750000e+000,4.3058974609e+003,4.4843588867e+003,4.4343588867e+003,4.4311538086e+003,4.4751284180e+003,4.4420512695e+003,4.4217949219e+003,4.4387177734e+003,4.4385898438e+003,4.4935898438e+003,4.4682050781e+003,4.4765385742e+003,4.4675639648e+003,4.4274360352e+003,
1.4296875000e+000,4.2597436523e+003,4.4374360352e+003,4.3908974609e+003,4.3874360352e+003,4.4352563477e+003,4.3917949219e+003,4.3752563477e+003,4.3867949219e+003,4.3867949219e+003,4.4410258789e+003,4.4194873047e+003,4.4288461914e+003,4.4188461914e+003,4.3802563477e+003,
1.4375000000e+000,4.2053847656e+003,4.3819228516e+003,4.3406411133e+003,4.3398715820e+003,4.3858974609e+003,4.3321796875e+003,4.3216665039e+003,4.3293588867e+003,4.3306411133e+003,4.3810258789e+003,4.3594873047e+003,4.3762822266e+003,4.3593588867e+003,4.3280771484e+003,
1.4453125000e+000,4.1714101563e+003,4.3441025391e+003,4.3064101563e+003,4.3044873047e+003,4.3458974609e+003,4.2960258789e+003,4.2870512695e+003,4.2915385742e+003,4.2955126953e+003,4.3408974609e+003,4.3208974609e+003,4.3420512695e+003,4.3230771484e+003,4.2955126953e+003,
1.4531250000e+000,4.1503847656e+003,4.3002563477e+003,4.2769228516e+003,4.2738461914e+003,4.2947436523e+003,4.2608974609e+003,4.2532050781e+003,4.2521796875e+003,4.2576923828e+003,4.3012822266e+003,4.3028203125e+003,4.3092309570e+003,4.2958974609e+003,4.2701284180e+003,
1.4609375000e+000,4.1526923828e+003,4.3008974609e+003,4.2797436523e+003,4.2825639648e+003,4.2933334961e+003,4.2643588867e+003,4.2580771484e+003,4.2596152344e+003,4.2620512695e+003,4.3085898438e+003,4.3110258789e+003,4.3137177734e+003,4.2996152344e+003,4.2728203125e+003,
1.4687500000e+000,4.1087177734e+003,4.2629487305e+003,4.2389741211e+003,4.2516665039e+003,4.2593588867e+003,4.2361538086e+003,4.2335898438e+003,4.2362822266e+003,4.2365385742e+003,4.2792309570e+003,4.2715385742e+003,4.2785898438e+003,4.2634614258e+003,4.2337177734e+003,
1.4765625000e+000,4.0828205566e+003,4.2379487305e+003,4.2121796875e+003,4.2242309570e+003,4.2382050781e+003,4.2161538086e+003,4.2150000000e+003,4.2153847656e+003,4.2176923828e+003,4.2542309570e+003,4.2428203125e+003,4.2525639648e+003,4.2394873047e+003,4.2094873047e+003,
1.4843750000e+000,4.0705129395e+003,4.2229487305e+003,4.1970512695e+003,4.2052563477e+003,4.2223076172e+003,4.2039741211e+003,4.2038461914e+003,4.2021796875e+003,4.2071796875e+003,4.2375639648e+003,4.2250000000e+003,4.2365385742e+003,4.2247436523e+003,4.1964101563e+003,
1.4921875000e+000,4.1253847656e+003,4.2657690430e+003,4.2410258789e+003,4.2478203125e+003,4.2814101563e+003,4.2588461914e+003,4.2574360352e+003,4.2616665039e+003,4.2684614258e+003,4.2902563477e+003,4.2619228516e+003,4.2785898438e+003,4.2674360352e+003,4.2317949219e+003,
1.5000000000e+000,4.0934614258e+003,4.2346152344e+003,4.2093588867e+003,4.2248715820e+003,4.2600000000e+003,4.2351284180e+003,4.2296152344e+003,4.2351284180e+003,4.2439741211e+003,4.2630771484e+003,4.2357690430e+003,4.2450000000e+003,4.2379487305e+003,4.1997436523e+003,
1.5078125000e+000,3.8989743652e+003,4.0412819824e+003,4.0064101563e+003,4.0398718262e+003,4.0524357910e+003,4.0556411133e+003,4.0397436523e+003,4.0403845215e+003,4.0596154785e+003,4.0643588867e+003,4.0374357910e+003,4.0410256348e+003,4.0366667480e+003,3.9992307129e+003,
1.5156250000e+000,3.8173076172e+003,3.9408974609e+003,3.9178205566e+003,3.9514101563e+003,3.9728205566e+003,3.9633332520e+003,3.9483332520e+003,3.9465385742e+003,3.9673076172e+003,3.9650000000e+003,3.9333332520e+003,3.9479487305e+003,3.9439743652e+003,3.9121794434e+003,
1.5234375000e+000,3.8060256348e+003,3.9211538086e+003,3.9037180176e+003,3.9383332520e+003,3.9566667480e+003,3.9426923828e+003,3.9282050781e+003,3.9271794434e+003,3.9480769043e+003,3.9461538086e+003,3.9156411133e+003,3.9316667480e+003,3.9242307129e+003,3.8982050781e+003,
1.5312500000e+000,3.7201281738e+003,3.8238461914e+003,3.8056411133e+003,3.8496154785e+003,3.8367949219e+003,3.8283332520e+003,3.8171794434e+003,3.8180769043e+003,3.8434614258e+003,3.8482050781e+003,3.8208974609e+003,3.8428205566e+003,3.8251281738e+003,3.8037180176e+003,
1.5390625000e+000,3.6808974609e+003,3.7789743652e+003,3.7657692871e+003,3.8101281738e+003,3.7866667480e+003,3.7820512695e+003,3.7732050781e+003,3.7730769043e+003,3.7982050781e+003,3.8041025391e+003,3.7803845215e+003,3.8043588867e+003,3.7884614258e+003,3.7660256348e+003,
1.5468750000e+000,3.6043588867e+003,3.6800000000e+003,3.6842307129e+003,3.7228205566e+003,3.6657692871e+003,3.6902563477e+003,3.6934614258e+003,3.6871794434e+003,3.7103845215e+003,3.7017949219e+003,3.6925642090e+003,3.7150000000e+003,3.7044870605e+003,3.6898718262e+003,
1.5546875000e+000,3.5910256348e+003,3.6594870605e+003,3.6664101563e+003,3.7023076172e+003,3.6469230957e+003,3.6721794434e+003,3.6819230957e+003,3.6726923828e+003,3.6944870605e+003,3.6803845215e+003,3.6705129395e+003,3.6946154785e+003,3.6816667480e+003,3.6707692871e+003,
1.5625000000e+000,3.6234614258e+003,3.6762819824e+003,3.6912819824e+003,3.7229487305e+003,3.6989743652e+003,3.6957692871e+003,3.7135898438e+003,3.7012819824e+003,3.7193588867e+003,3.7052563477e+003,3.6870512695e+003,3.7173076172e+003,3.7012819824e+003,3.6911538086e+003,
1.5703125000e+000,3.6611538086e+003,3.7105129395e+003,3.7269230957e+003,3.7594870605e+003,3.7488461914e+003,3.7333332520e+003,3.7498718262e+003,3.7397436523e+003,3.7567949219e+003,3.7465385742e+003,3.7235898438e+003,3.7557692871e+003,3.7391025391e+003,3.7276923828e+003,
1.5781250000e+000,3.6165385742e+003,3.6694870605e+003,3.6774357910e+003,3.7084614258e+003,3.6793588867e+003,3.6984614258e+003,3.7097436523e+003,3.7065385742e+003,3.7262819824e+003,3.7101281738e+003,3.6806411133e+003,3.7194870605e+003,3.6914101563e+003,3.6879487305e+003,
1.5859375000e+000,3.5614101563e+003,3.6092307129e+003,3.6193588867e+003,3.6429487305e+003,3.6103845215e+003,3.6408974609e+003,3.6543588867e+003,3.6496154785e+003,3.6714101563e+003,3.6482050781e+003,3.6201281738e+003,3.6571794434e+003,3.6302563477e+003,3.6278205566e+003,
1.5937500000e+000,3.5187180176e+003,3.5460256348e+003,3.5697436523e+003,3.5860256348e+003,3.5687180176e+003,3.5905129395e+003,3.6051281738e+003,3.5967949219e+003,3.6220512695e+003,3.5930769043e+003,3.5693588867e+003,3.5925642090e+003,3.5788461914e+003,3.5689743652e+003,
1.6015625000e+000,3.5241025391e+003,3.5435898438e+003,3.5720512695e+003,3.5946154785e+003,3.5816667480e+003,3.5961538086e+003,3.6073076172e+003,3.5976923828e+003,3.6253845215e+003,3.5971794434e+003,3.5739743652e+003,3.5926923828e+003,3.5815385742e+003,3.5696154785e+003,
1.6093750000e+000,3.5228205566e+003,3.5408974609e+003,3.5678205566e+003,3.6016667480e+003,3.5843588867e+003,3.5979487305e+003,3.6041025391e+003,3.5929487305e+003,3.6242307129e+003,3.5958974609e+003,3.5717949219e+003,3.5905129395e+003,3.5775642090e+003,3.5670512695e+003,
1.6171875000e+000,3.4156411133e+003,3.4364101563e+003,3.4371794434e+003,3.5047436523e+003,3.4494870605e+003,3.4808974609e+003,3.4746154785e+003,3.4598718262e+003,3.4921794434e+003,3.4610256348e+003,3.4265385742e+003,3.4628205566e+003,3.4500000000e+003,3.4516667480e+003,
1.6250000000e+000,3.3888461914e+003,3.4010256348e+003,3.4083332520e+003,3.4725642090e+003,3.4092307129e+003,3.4467949219e+003,3.4424357910e+003,3.4247436523e+003,3.4573076172e+003,3.4257692871e+003,3.3952563477e+003,3.4357692871e+003,3.4156411133e+003,3.4232050781e+003,
1.6328125000e+000,3.3621794434e+003,3.3507692871e+003,3.3739743652e+003,3.4428205566e+003,3.3720512695e+003,3.3923076172e+003,3.4024357910e+003,3.3784614258e+003,3.4135898438e+003,3.3853845215e+003,3.3661538086e+003,3.4015385742e+003,3.3832050781e+003,3.3883332520e+003,
1.6406250000e+000,3.3539743652e+003,3.3383332520e+003,3.3625642090e+003,3.4394870605e+003,3.3692307129e+003,3.3774357910e+003,3.3888461914e+003,3.3688461914e+003,3.4028205566e+003,3.3760256348e+003,3.3571794434e+003,3.3900000000e+003,3.3747436523e+003,3.3767949219e+003,
1.6484375000e+000,3.2785898438e+003,3.2582050781e+003,3.2826923828e+003,3.3643588867e+003,3.2908974609e+003,3.2946154785e+003,3.3039743652e+003,3.2910256348e+003,3.3247436523e+003,3.2962819824e+003,3.2746154785e+003,3.3089743652e+003,3.2905129395e+003,3.2944870605e+003,
1.6562500000e+000,3.1871794434e+003,3.1375642090e+003,3.1801281738e+003,3.2478205566e+003,3.1478205566e+003,3.1778205566e+003,3.2052563477e+003,3.1783332520e+003,3.2176923828e+003,3.1805129395e+003,3.1658974609e+003,3.2084614258e+003,3.1847436523e+003,3.1991025391e+003,
1.6640625000e+000,3.2002563477e+003,3.1441025391e+003,3.1843588867e+003,3.2587180176e+003,3.1507692871e+003,3.1852563477e+003,3.2143588867e+003,3.1875642090e+003,3.2276923828e+003,3.1880769043e+003,3.1742307129e+003,3.2178205566e+003,3.1935898438e+003,3.2092307129e+003,
1.6718750000e+000,3.2664101563e+003,3.2005129395e+003,3.2323076172e+003,3.3024357910e+003,3.2158974609e+003,3.2420512695e+003,3.2687180176e+003,3.2380769043e+003,3.2798718262e+003,3.2388461914e+003,3.2091025391e+003,3.2611538086e+003,3.2370512695e+003,3.2521794434e+003,
1.6796875000e+000,3.3312819824e+003,3.2641025391e+003,3.2946154785e+003,3.3580769043e+003,3.2896154785e+003,3.3012819824e+003,3.3292307129e+003,3.2971794434e+003,3.3371794434e+003,3.2998718262e+003,3.2683332520e+003,3.3194870605e+003,3.2973076172e+003,3.3101281738e+003,
1.6875000000e+000,3.4507692871e+003,3.3853845215e+003,3.4101281738e+003,3.4714101563e+003,3.4092307129e+003,3.4117949219e+003,3.4376923828e+003,3.4176923828e+003,3.4544870605e+003,3.4239743652e+003,3.4001281738e+003,3.4391025391e+003,3.4167949219e+003,3.4260256348e+003,
1.6953125000e+000,3.4462819824e+003,3.3824357910e+003,3.4062819824e+003,3.4697436523e+003,3.3935898438e+003,3.4098718262e+003,3.4320512695e+003,3.4187180176e+003,3.4560256348e+003,3.4255129395e+003,3.4074357910e+003,3.4396154785e+003,3.4137180176e+003,3.4246154785e+003,
1.7031250000e+000,3.4078205566e+003,3.3437180176e+003,3.3696154785e+003,3.4346154785e+003,3.3461538086e+003,3.3785898438e+003,3.3970512695e+003,3.3842307129e+003,3.4224357910e+003,3.3906411133e+003,3.3753845215e+003,3.4037180176e+003,3.3760256348e+003,3.3885898438e+003,
1.7109375000e+000,3.3798718262e+003,3.3141025391e+003,3.3417949219e+003,3.4078205566e+003,3.3202563477e+003,3.3588461914e+003,3.3747436523e+003,3.3564101563e+003,3.3952563477e+003,3.3629487305e+003,3.3448718262e+003,3.3725642090e+003,3.3483332520e+003,3.3592307129e+003,
1.7187500000e+000,3.5375642090e+003,3.4784614258e+003,3.4898718262e+003,3.5532050781e+003,3.5265385742e+003,3.5139743652e+003,3.5242307129e+003,3.5041025391e+003,3.5426923828e+003,3.5226923828e+003,3.4834614258e+003,3.5157692871e+003,3.5006411133e+003,3.5029487305e+003,
1.7265625000e+000,3.5333332520e+003,3.4726923828e+003,3.4869230957e+003,3.5447436523e+003,3.5126923828e+003,3.5039743652e+003,3.5123076172e+003,3.4960256348e+003,3.5339743652e+003,3.5167949219e+003,3.4823076172e+003,3.5143588867e+003,3.4933332520e+003,3.5010256348e+003,
1.7343750000e+000,3.4038461914e+003,3.3337180176e+003,3.3539743652e+003,3.4156411133e+003,3.3533332520e+003,3.3675642090e+003,3.3766667480e+003,3.3597436523e+003,3.3910256348e+003,3.3761538086e+003,3.3483332520e+003,3.3798718262e+003,3.3658974609e+003,3.3726923828e+003,
1.7421875000e+000,3.3670512695e+003,3.2964101563e+003,3.3139743652e+003,3.3825642090e+003,3.3143588867e+003,3.3182050781e+003,3.3379487305e+003,3.3057692871e+003,3.3279487305e+003,3.3157692871e+003,3.2883332520e+003,3.3321794434e+003,3.3115385742e+003,3.3253845215e+003,
1.7500000000e+000,3.4570512695e+003,3.3830769043e+003,3.3982050781e+003,3.4673076172e+003,3.3975642090e+003,3.3966667480e+003,3.4180769043e+003,3.3848718262e+003,3.4055129395e+003,3.3978205566e+003,3.3770512695e+003,3.4193588867e+003,3.3933332520e+003,3.4094870605e+003,
1.7578125000e+000,3.7476923828e+003,3.6687180176e+003,3.6816667480e+003,3.7375642090e+003,3.6658974609e+003,3.6642307129e+003,3.6897436523e+003,3.6632050781e+003,3.6841025391e+003,3.6888461914e+003,3.6735898438e+003,3.7091025391e+003,3.6810256348e+003,3.6906411133e+003,
1.7656250000e+000,3.8776923828e+003,3.8219230957e+003,3.8307692871e+003,3.8605129395e+003,3.8235898438e+003,3.8156411133e+003,3.8334614258e+003,3.8141025391e+003,3.8338461914e+003,3.8506411133e+003,3.8188461914e+003,3.8561538086e+003,3.8256411133e+003,3.8329487305e+003,
1.7734375000e+000,3.8610256348e+003,3.8096154785e+003,3.8192307129e+003,3.8528205566e+003,3.8130769043e+003,3.8085898438e+003,3.8219230957e+003,3.8073076172e+003,3.8262819824e+003,3.8438461914e+003,3.8129487305e+003,3.8502563477e+003,3.8148718262e+003,3.8226923828e+003,
1.7812500000e+000,3.8078205566e+003,3.7564101563e+003,3.7680769043e+003,3.8116667480e+003,3.7608974609e+003,3.7602563477e+003,3.7714101563e+003,3.7596154785e+003,3.7798718262e+003,3.7948718262e+003,3.7679487305e+003,3.8030769043e+003,3.7653845215e+003,3.7734614258e+003,
1.7890625000e+000,3.6779487305e+003,3.6207692871e+003,3.6347436523e+003,3.6953845215e+003,3.6339743652e+003,3.6276923828e+003,3.6391025391e+003,3.6256411133e+003,3.6529487305e+003,3.6571794434e+003,3.6380769043e+003,3.6664101563e+003,3.6337180176e+003,3.6419230957e+003,
1.7968750000e+000,3.6400000000e+003,3.5816667480e+003,3.5951281738e+003,3.6541025391e+003,3.6024357910e+003,3.5894870605e+003,3.6002563477e+003,3.5850000000e+003,3.6138461914e+003,3.6135898438e+003,3.5942307129e+003,3.6246154785e+003,3.5935898438e+003,3.6023076172e+003,
1.8046875000e+000,3.5956411133e+003,3.5364101563e+003,3.5560256348e+003,3.5988461914e+003,3.5669230957e+003,3.5605129395e+003,3.5675642090e+003,3.5539743652e+003,3.5787180176e+003,3.5750000000e+003,3.5438461914e+003,3.5906411133e+003,3.5567949219e+003,3.5630769043e+003,
1.8125000000e+000,3.4996154785e+003,3.4397436523e+003,3.4558974609e+003,3.5193588867e+003,3.4656411133e+003,3.4750000000e+003,3.4782050781e+003,3.4634614258e+003,3.4911538086e+003,3.4846154785e+003,3.4476923828e+003,3.4889743652e+003,3.4632050781e+003,3.4670512695e+003,
1.8203125000e+000,3.4689743652e+003,3.4089743652e+003,3.4242307129e+003,3.4871794434e+003,3.4373076172e+003,3.4469230957e+003,3.4498718262e+003,3.4311538086e+003,3.4587180176e+003,3.4479487305e+003,3.4130769043e+003,3.4578205566e+003,3.4325642090e+003,3.4353845215e+003,
1.8281250000e+000,3.4496154785e+003,3.3875642090e+003,3.4044870605e+003,3.4642307129e+003,3.4184614258e+003,3.4289743652e+003,3.4334614258e+003,3.4105129395e+003,3.4369230957e+003,3.4217949219e+003,3.3906411133e+003,3.4393588867e+003,3.4143588867e+003,3.4146154785e+003,
1.8359375000e+000,3.4466667480e+003,3.3811538086e+003,3.4005129395e+003,3.4593588867e+003,3.4124357910e+003,3.4248718262e+003,3.4328205566e+003,3.4061538086e+003,3.4307692871e+003,3.4135898438e+003,3.3862819824e+003,3.4367949219e+003,3.4125642090e+003,3.4096154785e+003,
1.8437500000e+000,3.5748718262e+003,3.5046154785e+003,3.5206411133e+003,3.5796154785e+003,3.5183332520e+003,3.5188461914e+003,3.5370512695e+003,3.5066667480e+003,3.5198718262e+003,3.5235898438e+003,3.4961538086e+003,3.5583332520e+003,3.5261538086e+003,3.5262819824e+003,
1.8515625000e+000,3.5850000000e+003,3.5142307129e+003,3.5306411133e+003,3.5803845215e+003,3.5230769043e+003,3.5202563477e+003,3.5383332520e+003,3.5112819824e+003,3.5238461914e+003,3.5310256348e+003,3.5051281738e+003,3.5694870605e+003,3.5366667480e+003,3.5351281738e+003,
1.8593750000e+000,3.5426923828e+003,3.4669230957e+003,3.4928205566e+003,3.5184614258e+003,3.4646154785e+003,3.4657692871e+003,3.4892307129e+003,3.4643588867e+003,3.4803845215e+003,3.4893588867e+003,3.4819230957e+003,3.5369230957e+003,3.5006411133e+003,3.4983332520e+003,
1.8671875000e+000,3.5915385742e+003,3.5192307129e+003,3.5393588867e+003,3.5684614258e+003,3.5048718262e+003,3.5164101563e+003,3.5314101563e+003,3.5067949219e+003,3.5332050781e+003,3.5517949219e+003,3.5300000000e+003,3.5850000000e+003,3.5484614258e+003,3.5464101563e+003,
1.8750000000e+000,3.5846154785e+003,3.5096154785e+003,3.5308974609e+003,3.5651281738e+003,3.5058974609e+003,3.5144870605e+003,3.5269230957e+003,3.5017949219e+003,3.5312819824e+003,3.5491025391e+003,3.5230769043e+003,3.5785898438e+003,3.5439743652e+003,3.5387180176e+003,
1.8828125000e+000,3.6193588867e+003,3.5388461914e+003,3.5606411133e+003,3.5848718262e+003,3.5688461914e+003,3.5511538086e+003,3.5682050781e+003,3.5362819824e+003,3.5697436523e+003,3.5752563477e+003,3.5580769043e+003,3.6052563477e+003,3.5785898438e+003,3.5650000000e+003,
1.8906250000e+000,3.6808974609e+003,3.6052563477e+003,3.6194870605e+003,3.6392307129e+003,3.6308974609e+003,3.6117949219e+003,3.6279487305e+003,3.5978205566e+003,3.6300000000e+003,3.6379487305e+003,3.6198718262e+003,3.6656411133e+003,3.6393588867e+003,3.6253845215e+003,
1.8984375000e+000,3.7707692871e+003,3.7008974609e+003,3.7073076172e+003,3.7346154785e+003,3.7169230957e+003,3.7061538086e+003,3.7165385742e+003,3.6938461914e+003,3.7250000000e+003,3.7382050781e+003,3.7119230957e+003,3.7620512695e+003,3.7294870605e+003,3.7202563477e+003,
1.9062500000e+000,3.7896154785e+003,3.7203845215e+003,3.7253845215e+003,3.7606411133e+003,3.7361538086e+003,3.7283332520e+003,3.7353845215e+003,3.7158974609e+003,3.7478205566e+003,3.7600000000e+003,3.7298718262e+003,3.7815385742e+003,3.7483332520e+003,3.7400000000e+003,
1.9140625000e+000,3.8658974609e+003,3.8074357910e+003,3.8006411133e+003,3.8294870605e+003,3.8187180176e+003,3.8142307129e+003,3.8115385742e+003,3.7982050781e+003,3.8269230957e+003,3.8406411133e+003,3.7984614258e+003,3.8467949219e+003,3.8251281738e+003,3.8050000000e+003,
1.9218750000e+000,3.8926923828e+003,3.8362819824e+003,3.8305129395e+003,3.8539743652e+003,3.8452563477e+003,3.8444870605e+003,3.8398718262e+003,3.8260256348e+003,3.8520512695e+003,3.8701281738e+003,3.8252563477e+003,3.8729487305e+003,3.8503845215e+003,3.8297436523e+003,
1.9296875000e+000,3.9134614258e+003,3.8583332520e+003,3.8542307129e+003,3.8779487305e+003,3.8665385742e+003,3.8673076172e+003,3.8626923828e+003,3.8470512695e+003,3.8711538086e+003,3.8930769043e+003,3.8475642090e+003,3.8943588867e+003,3.8685898438e+003,3.8505129395e+003,
1.9375000000e+000,3.9252563477e+003,3.8723076172e+003,3.8671794434e+003,3.8953845215e+003,3.8824357910e+003,3.8794870605e+003,3.8766667480e+003,3.8594870605e+003,3.8823076172e+003,3.9062819824e+003,3.8619230957e+003,3.9067949219e+003,3.8784614258e+003,3.8633332520e+003,
1.9453125000e+000,3.7732050781e+003,3.7288461914e+003,3.7297436523e+003,3.7528205566e+003,3.7334614258e+003,3.7296154785e+003,3.7408974609e+003,3.7271794434e+003,3.7380769043e+003,3.7605129395e+003,3.7296154785e+003,3.7703845215e+003,3.7406411133e+003,3.7296154785e+003,
1.9531250000e+000,3.7317949219e+003,3.6844870605e+003,3.6900000000e+003,3.7193588867e+003,3.6758974609e+003,3.6880769043e+003,3.7010256348e+003,3.6851281738e+003,3.6952563477e+003,3.7180769043e+003,3.6884614258e+003,3.7302563477e+003,3.7007692871e+003,3.6908974609e+003,
1.9609375000e+000,3.7029487305e+003,3.6516667480e+003,3.6570512695e+003,3.7087180176e+003,3.6461538086e+003,3.6478205566e+003,3.6652563477e+003,3.6466667480e+003,3.6614101563e+003,3.6825642090e+003,3.6520512695e+003,3.7000000000e+003,3.6698718262e+003,3.6591025391e+003,
1.9687500000e+000,3.4675642090e+003,3.4052563477e+003,3.4282050781e+003,3.4633332520e+003,3.4443588867e+003,3.4094870605e+003,3.4255129395e+003,3.4130769043e+003,3.4392307129e+003,3.4528205566e+003,3.4238461914e+003,3.4755129395e+003,3.4352563477e+003,3.4351281738e+003,
1.9765625000e+000,3.3696154785e+003,3.3008974609e+003,3.3315385742e+003,3.3683332520e+003,3.3369230957e+003,3.3137180176e+003,3.3285898438e+003,3.3115385742e+003,3.3451281738e+003,3.3502563477e+003,3.3230769043e+003,3.3775642090e+003,3.3353845215e+003,3.3402563477e+003,
1.9843750000e+000,3.3778205566e+003,3.3043588867e+003,3.3237180176e+003,3.3691025391e+003,3.3158974609e+003,3.3169230957e+003,3.3326923828e+003,3.2952563477e+003,3.3466667480e+003,3.3311538086e+003,3.3039743652e+003,3.3641025391e+003,3.3273076172e+003,3.3350000000e+003,
1.9921875000e+000,3.4034614258e+003,3.3296154785e+003,3.3371794434e+003,3.3756411133e+003,3.3455129395e+003,3.3429487305e+003,3.3537180176e+003,3.3238461914e+003,3.3708974609e+003,3.3676923828e+003,3.3306411133e+003,3.3851281738e+003,3.3532050781e+003,3.3567949219e+003,
2.0000000000e+000,3.3896154785e+003,3.3128205566e+003,3.3223076172e+003,3.3624357910e+003,3.3241025391e+003,3.3356411133e+003,3.3426923828e+003,3.3117949219e+003,3.3561538086e+003,3.3511538086e+003,3.3141025391e+003,3.3712819824e+003,3.3388461914e+003,3.3447436523e+003,
2.0078125000e+000,3.5364101563e+003,3.4580769043e+003,3.4603845215e+003,3.5064101563e+003,3.4733332520e+003,3.4889743652e+003,3.4937180176e+003,3.4633332520e+003,3.5028205566e+003,3.4903845215e+003,3.4526923828e+003,3.5015385742e+003,3.4726923828e+003,3.4807692871e+003,
2.0156250000e+000,3.5679487305e+003,3.4920512695e+003,3.4923076172e+003,3.5347436523e+003,3.5160256348e+003,3.5170512695e+003,3.5257692871e+003,3.5006411133e+003,3.5371794434e+003,3.5298718262e+003,3.4875642090e+003,3.5314101563e+003,3.5033332520e+003,3.5091025391e+003,
2.0234375000e+000,3.5365385742e+003,3.4629487305e+003,3.4628205566e+003,3.5000000000e+003,3.4846154785e+003,3.4821794434e+003,3.4958974609e+003,3.4771794434e+003,3.5103845215e+003,3.5111538086e+003,3.4593588867e+003,3.5015385742e+003,3.4753845215e+003,3.4783332520e+003,
2.0312500000e+000,3.5171794434e+003,3.4425642090e+003,3.4424357910e+003,3.4833332520e+003,3.4510256348e+003,3.4634614258e+003,3.4767949219e+003,3.4575642090e+003,3.4914101563e+003,3.4912819824e+003,3.4373076172e+003,3.4805129395e+003,3.4555129395e+003,3.4602563477e+003,
2.0390625000e+000,3.5374357910e+003,3.4550000000e+003,3.4543588867e+003,3.5129487305e+003,3.4560256348e+003,3.4733332520e+003,3.4926923828e+003,3.4658974609e+003,3.4958974609e+003,3.4952563477e+003,3.4465385742e+003,3.4896154785e+003,3.4652563477e+003,3.4734614258e+003,
2.0468750000e+000,3.5648718262e+003,3.4824357910e+003,3.4803845215e+003,3.5373076172e+003,3.5017949219e+003,3.4950000000e+003,3.5170512695e+003,3.4896154785e+003,3.5156411133e+003,3.5193588867e+003,3.4750000000e+003,3.5165385742e+003,3.4952563477e+003,3.4988461914e+003,
2.0546875000e+000,3.6108974609e+003,3.5306411133e+003,3.5260256348e+003,3.5793588867e+003,3.5671794434e+003,3.5373076172e+003,3.5594870605e+003,3.5328205566e+003,3.5555129395e+003,3.5652563477e+003,3.5248718262e+003,3.5642307129e+003,3.5470512695e+003,3.5458974609e+003,
2.0625000000e+000,3.6764101563e+003,3.5997436523e+003,3.5915385742e+003,3.6432050781e+003,3.6428205566e+003,3.6008974609e+003,3.6210256348e+003,3.5951281738e+003,3.6161538086e+003,3.6323076172e+003,3.5946154785e+003,3.6325642090e+003,3.6170512695e+003,3.6148718262e+003,
2.0703125000e+000,3.9298718262e+003,3.8717949219e+003,3.8475642090e+003,3.8969230957e+003,3.8697436523e+003,3.8315385742e+003,3.8494870605e+003,3.8282050781e+003,3.8508974609e+003,3.8928205566e+003,3.8541025391e+003,3.8864101563e+003,3.8684614258e+003,3.8661538086e+003,
2.0781250000e+000,3.9355129395e+003,3.8801281738e+003,3.8569230957e+003,3.8966667480e+003,3.8751281738e+003,3.8356411133e+003,3.8512819824e+003,3.8328205566e+003,3.8561538086e+003,3.9015385742e+003,3.8638461914e+003,3.8939743652e+003,3.8792307129e+003,3.8706411133e+003,
2.0859375000e+000,3.8737180176e+003,3.8115385742e+003,3.8038461914e+003,3.8215385742e+003,3.8144870605e+003,3.7861538086e+003,3.7897436523e+003,3.7676923828e+003,3.8033332520e+003,3.8439743652e+003,3.8051281738e+003,3.8420512695e+003,3.8221794434e+003,3.8166667480e+003,
2.0937500000e+000,3.9303845215e+003,3.8766667480e+003,3.8597436523e+003,3.8889743652e+003,3.8726923828e+003,3.8606411133e+003,3.8623076172e+003,3.8376923828e+003,3.8823076172e+003,3.9144870605e+003,3.8751281738e+003,3.9076923828e+003,3.8857692871e+003,3.8801281738e+003,
2.1015625000e+000,3.9538461914e+003,3.9041025391e+003,3.8838461914e+003,3.9107692871e+003,3.8951281738e+003,3.8917949219e+003,3.8933332520e+003,3.8700000000e+003,3.9101281738e+003,3.9423076172e+003,3.9039743652e+003,3.9357692871e+003,3.9130769043e+003,3.9062819824e+003,
2.1093750000e+000,3.9655129395e+003,3.9210256348e+003,3.8971794434e+003,3.9267949219e+003,3.9223076172e+003,3.9151281738e+003,3.9119230957e+003,3.9026923828e+003,3.9330769043e+003,3.9678205566e+003,3.9191025391e+003,3.9506411133e+003,3.9285898438e+003,3.9174357910e+003,
2.1171875000e+000,3.8784614258e+003,3.8396154785e+003,3.8147436523e+003,3.8620512695e+003,3.8578205566e+003,3.8388461914e+003,3.8342307129e+003,3.8276923828e+003,3.8594870605e+003,3.8884614258e+003,3.8350000000e+003,3.8674357910e+003,3.8492307129e+003,3.8396154785e+003,
2.1250000000e+000,3.8787180176e+003,3.8411538086e+003,3.8160256348e+003,3.8573076172e+003,3.8566667480e+003,3.8410256348e+003,3.8378205566e+003,3.8297436523e+003,3.8594870605e+003,3.8900000000e+003,3.8385898438e+003,3.8679487305e+003,3.8530769043e+003,3.8434614258e+003,
2.1328125000e+000,3.9203845215e+003,3.8847436523e+003,3.8611538086e+003,3.8776923828e+003,3.8969230957e+003,3.8843588867e+003,3.8848718262e+003,3.8766667480e+003,3.9012819824e+003,3.9352563477e+003,3.8850000000e+003,3.9098718262e+003,3.8952563477e+003,3.8844870605e+003,
2.1406250000e+000,3.9067949219e+003,3.8698718262e+003,3.8470512695e+003,3.8648718262e+003,3.8780769043e+003,3.8687180176e+003,3.8700000000e+003,3.8614101563e+003,3.8865385742e+003,3.9197436523e+003,3.8679487305e+003,3.8944870605e+003,3.8785898438e+003,3.8680769043e+003,
2.1484375000e+000,3.7987180176e+003,3.7550000000e+003,3.7370512695e+003,3.7585898438e+003,3.7447436523e+003,3.7501281738e+003,3.7561538086e+003,3.7437180176e+003,3.7705129395e+003,3.8019230957e+003,3.7502563477e+003,3.7810256348e+003,3.7651281738e+003,3.7557692871e+003,
2.1562500000e+000,3.7265385742e+003,3.6775642090e+003,3.6666667480e+003,3.6833332520e+003,3.6638461914e+003,3.6697436523e+003,3.6811538086e+003,3.6644870605e+003,3.6902563477e+003,3.7201281738e+003,3.6725642090e+003,3.7066667480e+003,3.6897436523e+003,3.6824357910e+003,
2.1640625000e+000,3.6808974609e+003,3.6271794434e+003,3.6238461914e+003,3.6344870605e+003,3.6187180176e+003,3.6147436523e+003,3.6324357910e+003,3.6102563477e+003,3.6338461914e+003,3.6624357910e+003,3.6217949219e+003,3.6585898438e+003,3.6402563477e+003,3.6362819824e+003,
2.1718750000e+000,3.7344870605e+003,3.6806411133e+003,3.6771794434e+003,3.6937180176e+003,3.6887180176e+003,3.6538461914e+003,3.6767949219e+003,3.6487180176e+003,3.6693588867e+003,3.7019230957e+003,3.6734614258e+003,3.7079487305e+003,3.6930769043e+003,3.6923076172e+003,
2.1796875000e+000,3.7953845215e+003,3.7438461914e+003,3.7355129395e+003,3.7620512695e+003,3.7514101563e+003,3.7124357910e+003,3.7325642090e+003,3.7065385742e+003,3.7287180176e+003,3.7662819824e+003,3.7388461914e+003,3.7703845215e+003,3.7576923828e+003,3.7565385742e+003,
2.1875000000e+000,3.8329487305e+003,3.7812819824e+003,3.7724357910e+003,3.8055129395e+003,3.7826923828e+003,3.7505129395e+003,3.7667949219e+003,3.7435898438e+003,3.7691025391e+003,3.8103845215e+003,3.7812819824e+003,3.8125642090e+003,3.7985898438e+003,3.7974357910e+003,
2.1953125000e+000,3.8369230957e+003,3.7764101563e+003,3.7641025391e+003,3.7974357910e+003,3.7952563477e+003,3.7570512695e+003,3.7615385742e+003,3.7376923828e+003,3.7751281738e+003,3.8117949219e+003,3.7789743652e+003,3.8080769043e+003,3.7900000000e+003,3.7837180176e+003,
2.2031250000e+000,3.8380769043e+003,3.7798718262e+003,3.7639743652e+003,3.8042307129e+003,3.7976923828e+003,3.7638461914e+003,3.7641025391e+003,3.7429487305e+003,3.7820512695e+003,3.8161538086e+003,3.7812819824e+003,3.8084614258e+003,3.7935898438e+003,3.7839743652e+003,
2.2109375000e+000,3.8426923828e+003,3.7835898438e+003,3.7774357910e+003,3.8119230957e+003,3.7961538086e+003,3.7885898438e+003,3.7846154785e+003,3.7669230957e+003,3.8106411133e+003,3.8315385742e+003,3.7948718262e+003,3.8156411133e+003,3.8084614258e+003,3.7925642090e+003,
2.2187500000e+000,3.9367949219e+003,3.8950000000e+003,3.8660256348e+003,3.9034614258e+003,3.9117949219e+003,3.8912819824e+003,3.8871794434e+003,3.8761538086e+003,3.9157692871e+003,3.9453845215e+003,3.8960256348e+003,3.9092307129e+003,3.9079487305e+003,3.8885898438e+003,
2.2265625000e+000,3.9696154785e+003,3.9357692871e+003,3.8980769043e+003,3.9396154785e+003,3.9505129395e+003,3.9269230957e+003,3.9207692871e+003,3.9134614258e+003,3.9515385742e+003,3.9851281738e+003,3.9319230957e+003,3.9417949219e+003,3.9456411133e+003,3.9232050781e+003,
2.2343750000e+000,4.0438461914e+003,4.0146154785e+003,3.9880769043e+003,4.0160256348e+003,4.0301281738e+003,4.0128205566e+003,4.0024357910e+003,3.9998718262e+003,4.0301281738e+003,4.0717949219e+003,4.0161538086e+003,4.0244870605e+003,4.0300000000e+003,4.0047436523e+003,
2.2421875000e+000,4.1457690430e+003,4.1134614258e+003,4.0874357910e+003,4.1303847656e+003,4.1262822266e+003,4.1114101563e+003,4.1023076172e+003,4.0919230957e+003,4.1171796875e+003,4.1728203125e+003,4.1291025391e+003,4.1329487305e+003,4.1362822266e+003,4.1148715820e+003,
2.2500000000e+000,4.1897436523e+003,4.1603847656e+003,4.1291025391e+003,4.1752563477e+003,4.1716665039e+003,4.1508974609e+003,4.1415385742e+003,4.1305126953e+003,4.1538461914e+003,4.2167949219e+003,4.1758974609e+003,4.1783334961e+003,4.1820512695e+003,4.1611538086e+003,
2.2578125000e+000,4.2782050781e+003,4.2582050781e+003,4.2305126953e+003,4.2494873047e+003,4.2619228516e+003,4.2124360352e+003,4.2066665039e+003,4.1982050781e+003,4.2043588867e+003,4.2915385742e+003,4.2588461914e+003,4.2691025391e+003,4.2619228516e+003,4.2438461914e+003,
2.2656250000e+000,4.2910258789e+003,4.2760258789e+003,4.2483334961e+003,4.2653847656e+003,4.2811538086e+003,4.2191025391e+003,4.2160258789e+003,4.2056411133e+003,4.2069228516e+003,4.3005126953e+003,4.2737177734e+003,4.2835898438e+003,4.2750000000e+003,4.2551284180e+003,
2.2734375000e+000,4.2978203125e+003,4.2935898438e+003,4.2597436523e+003,4.2817949219e+003,4.3033334961e+003,4.2261538086e+003,4.2278203125e+003,4.2082050781e+003,4.2096152344e+003,4.3080771484e+003,4.2915385742e+003,4.2984614258e+003,4.2908974609e+003,4.2669228516e+003,
2.2812500000e+000,4.2952563477e+003,4.2917949219e+003,4.2596152344e+003,4.2746152344e+003,4.3015385742e+003,4.2269228516e+003,4.2293588867e+003,4.2076923828e+003,4.2125639648e+003,4.3097436523e+003,4.2933334961e+003,4.3008974609e+003,4.2921796875e+003,4.2675639648e+003,
2.2890625000e+000,4.2405126953e+003,4.2205126953e+003,4.2189741211e+003,4.2028203125e+003,4.2369228516e+003,4.1920512695e+003,4.1921796875e+003,4.1819228516e+003,4.1966665039e+003,4.2782050781e+003,4.2465385742e+003,4.2588461914e+003,4.2412822266e+003,4.2161538086e+003,
2.2968750000e+000,4.2129487305e+003,4.1932050781e+003,4.1916665039e+003,4.1838461914e+003,4.2121796875e+003,4.1774360352e+003,4.1746152344e+003,4.1665385742e+003,4.1837177734e+003,4.2564101563e+003,4.2220512695e+003,4.2335898438e+003,4.2156411133e+003,4.1923076172e+003,
2.3046875000e+000,4.1974360352e+003,4.1853847656e+003,4.1723076172e+003,4.1794873047e+003,4.2003847656e+003,4.1755126953e+003,4.1680771484e+003,4.1614101563e+003,4.1808974609e+003,4.2453847656e+003,4.2097436523e+003,4.2185898438e+003,4.2034614258e+003,4.1819228516e+003,
2.3125000000e+000,4.1946152344e+003,4.1951284180e+003,4.1644873047e+003,4.1841025391e+003,4.1989741211e+003,4.1839741211e+003,4.1705126953e+003,4.1673076172e+003,4.1891025391e+003,4.2482050781e+003,4.2106411133e+003,4.2155126953e+003,4.2055126953e+003,4.1837177734e+003,
2.3203125000e+000,4.0708974609e+003,4.0826923828e+003,4.0503845215e+003,4.0517949219e+003,4.0944870605e+003,4.0678205566e+003,4.0578205566e+003,4.0633332520e+003,4.0850000000e+003,4.1406411133e+003,4.0930769043e+003,4.1020512695e+003,4.0969228516e+003,4.0698718262e+003,
2.3281250000e+000,4.0379487305e+003,4.0447436523e+003,4.0162819824e+003,4.0215385742e+003,4.0689743652e+003,4.0332050781e+003,4.0260256348e+003,4.0265385742e+003,4.0487180176e+003,4.0992309570e+003,4.0546154785e+003,4.0633332520e+003,4.0600000000e+003,4.0365385742e+003,
2.3359375000e+000,4.0153845215e+003,4.0234614258e+003,3.9794870605e+003,4.0075642090e+003,4.0261538086e+003,4.0070512695e+003,3.9920512695e+003,3.9956411133e+003,4.0246154785e+003,4.0646154785e+003,4.0238461914e+003,4.0228205566e+003,4.0265385742e+003,4.0080769043e+003,
2.3437500000e+000,3.9174357910e+003,3.9208974609e+003,3.8893588867e+003,3.9024357910e+003,3.9367949219e+003,3.9105129395e+003,3.8992307129e+003,3.8951281738e+003,3.9279487305e+003,3.9669230957e+003,3.9255129395e+003,3.9278205566e+003,3.9287180176e+003,3.9100000000e+003,
2.3515625000e+000,3.9061538086e+003,3.9103845215e+003,3.8751281738e+003,3.8951281738e+003,3.9343588867e+003,3.8973076172e+003,3.8880769043e+003,3.8783332520e+003,3.9102563477e+003,3.9505129395e+003,3.9091025391e+003,3.9129487305e+003,3.9148718262e+003,3.8985898438e+003,
2.3593750000e+000,3.9658974609e+003,3.9626923828e+003,3.9316667480e+003,3.9542307129e+003,3.9632050781e+003,3.9408974609e+003,3.9370512695e+003,3.9161538086e+003,3.9384614258e+003,3.9884614258e+003,3.9542307129e+003,3.9665385742e+003,3.9601281738e+003,3.9551281738e+003,
2.3671875000e+000,4.1797436523e+003,4.1792309570e+003,4.1487177734e+003,4.1594873047e+003,4.1584614258e+003,4.1315385742e+003,4.1351284180e+003,4.1106411133e+003,4.1226923828e+003,4.1955126953e+003,4.1712822266e+003,4.1821796875e+003,4.1747436523e+003,4.1600000000e+003,
2.3750000000e+000,4.2412822266e+003,4.2474360352e+003,4.2089741211e+003,4.2208974609e+003,4.2342309570e+003,4.1866665039e+003,4.1873076172e+003,4.1669228516e+003,4.1778203125e+003,4.2597436523e+003,4.2366665039e+003,4.2475639648e+003,4.2373076172e+003,4.2224360352e+003,
2.3828125000e+000,4.2693588867e+003,4.2783334961e+003,4.2361538086e+003,4.2461538086e+003,4.2747436523e+003,4.2093588867e+003,4.2058974609e+003,4.1912822266e+003,4.2021796875e+003,4.2908974609e+003,4.2687177734e+003,4.2797436523e+003,4.2648715820e+003,4.2516665039e+003,
2.3906250000e+000,4.2169228516e+003,4.2189741211e+003,4.1879487305e+003,4.1855126953e+003,4.2185898438e+003,4.1556411133e+003,4.1496152344e+003,4.1426923828e+003,4.1528203125e+003,4.2433334961e+003,4.2221796875e+003,4.2310258789e+003,4.2112822266e+003,4.1996152344e+003,
2.3984375000e+000,4.1341025391e+003,4.1489741211e+003,4.1134614258e+003,4.1182050781e+003,4.1291025391e+003,4.0988461914e+003,4.0976923828e+003,4.0846154785e+003,4.0993588867e+003,4.1716665039e+003,4.1460258789e+003,4.1512822266e+003,4.1415385742e+003,4.1269228516e+003,
2.4062500000e+000,4.1570512695e+003,4.1773076172e+003,4.1347436523e+003,4.1402563477e+003,4.1629487305e+003,4.1287177734e+003,4.1257690430e+003,4.1148715820e+003,4.1329487305e+003,4.2006411133e+003,4.1707690430e+003,4.1769228516e+003,4.1669228516e+003,4.1538461914e+003,
2.4140625000e+000,4.1802563477e+003,4.1996152344e+003,4.1578203125e+003,4.1571796875e+003,4.1948715820e+003,4.1575639648e+003,4.1523076172e+003,4.1460258789e+003,4.1656411133e+003,4.2293588867e+003,4.1953847656e+003,4.2032050781e+003,4.1897436523e+003,4.1793588867e+003,
2.4218750000e+000,4.2014101563e+003,4.2123076172e+003,4.1870512695e+003,4.1725639648e+003,4.2189741211e+003,4.1883334961e+003,4.1848715820e+003,4.1824360352e+003,4.1984614258e+003,4.2535898438e+003,4.2143588867e+003,4.2252563477e+003,4.2071796875e+003,4.1973076172e+003,
2.4296875000e+000,4.2283334961e+003,4.2441025391e+003,4.2166665039e+003,4.2067949219e+003,4.2475639648e+003,4.2189741211e+003,4.2170512695e+003,4.2141025391e+003,4.2283334961e+003,4.2816665039e+003,4.2402563477e+003,4.2487177734e+003,4.2348715820e+003,4.2205126953e+003,
2.4375000000e+000,4.2735898438e+003,4.3020512695e+003,4.2606411133e+003,4.2617949219e+003,4.2964101563e+003,4.2673076172e+003,4.2632050781e+003,4.2624360352e+003,4.2766665039e+003,4.3316665039e+003,4.2875639648e+003,4.2908974609e+003,4.2833334961e+003,4.2633334961e+003,
2.4453125000e+000,4.4183334961e+003,4.4630771484e+003,4.4150000000e+003,4.4096152344e+003,4.4430771484e+003,4.4233334961e+003,4.4042309570e+003,4.4043588867e+003,4.4252563477e+003,4.4898715820e+003,4.4514101563e+003,4.4484614258e+003,4.4443588867e+003,4.4237177734e+003,
2.4531250000e+000,4.4771796875e+003,4.5289741211e+003,4.4774360352e+003,4.4729487305e+003,4.5221796875e+003,4.4817949219e+003,4.4656411133e+003,4.4641025391e+003,4.4866665039e+003,4.5533334961e+003,4.5144873047e+003,4.5100000000e+003,4.5091025391e+003,4.4841025391e+003,
2.4609375000e+000,4.5570512695e+003,4.6316665039e+003,4.5635898438e+003,4.5501284180e+003,4.6267949219e+003,4.5601284180e+003,4.5430771484e+003,4.5415385742e+003,4.5575639648e+003,4.6421796875e+003,4.6111538086e+003,4.6060258789e+003,4.6019228516e+003,4.5726923828e+003,
2.4687500000e+000,4.6411538086e+003,4.7158974609e+003,4.6560258789e+003,4.6337177734e+003,4.6880771484e+003,4.6367949219e+003,4.6239741211e+003,4.6129487305e+003,4.6115385742e+003,4.7188461914e+003,4.7002563477e+003,4.6943588867e+003,4.6926923828e+003,4.6617949219e+003,
2.4765625000e+000,4.6696152344e+003,4.7515385742e+003,4.6891025391e+003,4.6685898438e+003,4.7182050781e+003,4.6638461914e+003,4.6538461914e+003,4.6434614258e+003,4.6393588867e+003,4.7517949219e+003,4.7323076172e+003,4.7294873047e+003,4.7250000000e+003,4.6947436523e+003,
2.4843750000e+000,4.6619228516e+003,4.7606411133e+003,4.6941025391e+003,4.6717949219e+003,4.7321796875e+003,4.6707690430e+003,4.6561538086e+003,4.6435898438e+003,4.6402563477e+003,4.7615385742e+003,4.7471796875e+003,4.7469228516e+003,4.7387177734e+003,4.7006411133e+003,
2.4921875000e+000,4.6620512695e+003,4.7606411133e+003,4.6966665039e+003,4.6712822266e+003,4.7425639648e+003,4.6762822266e+003,4.6606411133e+003,4.6466665039e+003,4.6430771484e+003,4.7664101563e+003,4.7538461914e+003,4.7510258789e+003,4.7460258789e+003,4.7030771484e+003,
2.5000000000e+000,4.6598715820e+003,4.7587177734e+003,4.6985898438e+003,4.6684614258e+003,4.7494873047e+003,4.6762822266e+003,4.6650000000e+003,4.6589741211e+003,4.6544873047e+003,4.7747436523e+003,4.7574360352e+003,4.7516665039e+003,4.7521796875e+003,4.7061538086e+003,
2.5078125000e+000,4.6326923828e+003,4.7350000000e+003,4.6742309570e+003,4.6426923828e+003,4.7162822266e+003,4.6515385742e+003,4.6415385742e+003,4.6432050781e+003,4.6401284180e+003,4.7533334961e+003,4.7320512695e+003,4.7260258789e+003,4.7271796875e+003,4.6823076172e+003,
2.5156250000e+000,4.5258974609e+003,4.6380771484e+003,4.5839741211e+003,4.5565385742e+003,4.6029487305e+003,4.5750000000e+003,4.5582050781e+003,4.5707690430e+003,4.5735898438e+003,4.6546152344e+003,4.6294873047e+003,4.6292309570e+003,4.6260258789e+003,4.5838461914e+003,
2.5234375000e+000,4.5188461914e+003,4.6376923828e+003,4.5755126953e+003,4.5579487305e+003,4.6396152344e+003,4.5902563477e+003,4.5684614258e+003,4.5871796875e+003,4.5934614258e+003,4.6558974609e+003,4.6208974609e+003,4.6205126953e+003,4.6215385742e+003,4.5801284180e+003,
2.5312500000e+000,4.4793588867e+003,4.6017949219e+003,4.5351284180e+003,4.5139741211e+003,4.6047436523e+003,4.5569228516e+003,4.5341025391e+003,4.5524360352e+003,4.5626923828e+003,4.6211538086e+003,4.5830771484e+003,4.5810258789e+003,4.5833334961e+003,4.5437177734e+003,
2.5390625000e+000,4.4297436523e+003,4.5529487305e+003,4.4861538086e+003,4.4600000000e+003,4.5507690430e+003,4.5120512695e+003,4.4889741211e+003,4.5028203125e+003,4.5171796875e+003,4.5715385742e+003,4.5328203125e+003,4.5319228516e+003,4.5328203125e+003,4.4958974609e+003,
2.5468750000e+000,4.4182050781e+003,4.5362822266e+003,4.4726923828e+003,4.4462822266e+003,4.5258974609e+003,4.5006411133e+003,4.4780771484e+003,4.4803847656e+003,4.4984614258e+003,4.5476923828e+003,4.5101284180e+003,4.5157690430e+003,4.5130771484e+003,4.4782050781e+003,
2.5546875000e+000,4.4721796875e+003,4.5892309570e+003,4.5234614258e+003,4.5043588867e+003,4.5821796875e+003,4.5523076172e+003,4.5283334961e+003,4.5308974609e+003,4.5482050781e+003,4.5979487305e+003,4.5603847656e+003,4.5660258789e+003,4.5652563477e+003,4.5274360352e+003,
2.5625000000e+000,4.5312822266e+003,4.6502563477e+003,4.5812822266e+003,4.5711538086e+003,4.6480771484e+003,4.6106411133e+003,4.5843588867e+003,4.5915385742e+003,4.6073076172e+003,4.6596152344e+003,4.6217949219e+003,4.6244873047e+003,4.6266665039e+003,4.5848715820e+003,
2.5703125000e+000,4.5192309570e+003,4.6465385742e+003,4.5770512695e+003,4.5776923828e+003,4.6084614258e+003,4.5825639648e+003,4.5687177734e+003,4.5706411133e+003,4.5779487305e+003,4.6474360352e+003,4.6184614258e+003,4.6180771484e+003,4.6160258789e+003,4.5726923828e+003,
2.5781250000e+000,4.5442309570e+003,4.6694873047e+003,4.5976923828e+003,4.6014101563e+003,4.6367949219e+003,4.6015385742e+003,4.5893588867e+003,4.5869228516e+003,4.5914101563e+003,4.6628203125e+003,4.6357690430e+003,4.6391025391e+003,4.6362822266e+003,4.5925639648e+003,
2.5859375000e+000,4.6241025391e+003,4.7503847656e+003,4.6852563477e+003,4.6900000000e+003,4.7443588867e+003,4.6820512695e+003,4.6657690430e+003,4.6608974609e+003,4.6548715820e+003,4.7437177734e+003,4.7274360352e+003,4.7252563477e+003,4.7265385742e+003,4.6793588867e+003,
2.5937500000e+000,4.5616665039e+003,4.6919228516e+003,4.6329487305e+003,4.6283334961e+003,4.6476923828e+003,4.6207690430e+003,4.6070512695e+003,4.5979487305e+003,4.5866665039e+003,4.6839741211e+003,4.6692309570e+003,4.6710258789e+003,4.6679487305e+003,4.6271796875e+003,
2.6015625000e+000,4.5771796875e+003,4.7084614258e+003,4.6458974609e+003,4.6375639648e+003,4.6594873047e+003,4.6358974609e+003,4.6221796875e+003,4.6128203125e+003,4.6028203125e+003,4.6958974609e+003,4.6828203125e+003,4.6834614258e+003,4.6812822266e+003,4.6410258789e+003,
2.6093750000e+000,4.7594873047e+003,4.8978203125e+003,4.8297436523e+003,4.8142309570e+003,4.8896152344e+003,4.8303847656e+003,4.8119228516e+003,4.8244873047e+003,4.8182050781e+003,4.9030771484e+003,4.8871796875e+003,4.8719228516e+003,4.8806411133e+003,4.8288461914e+003,
2.6171875000e+000,4.7948715820e+003,4.9364101563e+003,4.8708974609e+003,4.8524360352e+003,4.9391025391e+003,4.8752563477e+003,4.8560258789e+003,4.8728203125e+003,4.8653847656e+003,4.9487177734e+003,4.9301284180e+003,4.9133334961e+003,4.9224360352e+003,4.8697436523e+003,
2.6250000000e+000,4.9062822266e+003,5.0597436523e+003,4.9893588867e+003,4.9665385742e+003,5.0580771484e+003,5.0047436523e+003,4.9850000000e+003,4.9965385742e+003,4.9850000000e+003,5.0691025391e+003,5.0487177734e+003,5.0267949219e+003,5.0391025391e+003,4.9869228516e+003,
2.6328125000e+000,5.0066665039e+003,5.1683334961e+003,5.0907690430e+003,5.0664101563e+003,5.1560258789e+003,5.1101284180e+003,5.0896152344e+003,5.1002563477e+003,5.0858974609e+003,5.1746152344e+003,5.1542309570e+003,5.1265385742e+003,5.1414101563e+003,5.0876923828e+003,
2.6406250000e+000,5.1107690430e+003,5.2898715820e+003,5.2050000000e+003,5.1716665039e+003,5.2632050781e+003,5.2183334961e+003,5.1912822266e+003,5.2221796875e+003,5.2080771484e+003,5.3032050781e+003,5.2762822266e+003,5.2420512695e+003,5.2510258789e+003,5.1937177734e+003,
2.6484375000e+000,5.0220512695e+003,5.2035898438e+003,5.1201284180e+003,5.0858974609e+003,5.1819228516e+003,5.1338461914e+003,5.1050000000e+003,5.1380771484e+003,5.1294873047e+003,5.2174360352e+003,5.1874360352e+003,5.1561538086e+003,5.1624360352e+003,5.1078203125e+003,
2.6562500000e+000,4.7958974609e+003,4.9788461914e+003,4.9034614258e+003,4.8706411133e+003,4.9719228516e+003,4.9248715820e+003,4.8951284180e+003,4.9182050781e+003,4.9176923828e+003,4.9897436523e+003,4.9597436523e+003,4.9356411133e+003,4.9383334961e+003,4.8946152344e+003,
2.6640625000e+000,4.6894873047e+003,4.8701284180e+003,4.8034614258e+003,4.7715385742e+003,4.8684614258e+003,4.8258974609e+003,4.7964101563e+003,4.8143588867e+003,4.8142309570e+003,4.8826923828e+003,4.8546152344e+003,4.8348715820e+003,4.8338461914e+003,4.7958974609e+003,
2.6718750000e+000,4.3266665039e+003,4.4788461914e+003,4.4457690430e+003,4.4169228516e+003,4.4610258789e+003,4.4551284180e+003,4.4312822266e+003,4.4424360352e+003,4.4451284180e+003,4.5007690430e+003,4.4774360352e+003,4.4743588867e+003,4.4596152344e+003,4.4329487305e+003,
2.6796875000e+000,4.2378203125e+003,4.3783334961e+003,4.3528203125e+003,4.3220512695e+003,4.3551284180e+003,4.3570512695e+003,4.3379487305e+003,4.3415385742e+003,4.3470512695e+003,4.3944873047e+003,4.3748715820e+003,4.3778203125e+003,4.3611538086e+003,4.3375639648e+003,
2.6875000000e+000,4.2141025391e+003,4.3470512695e+003,4.3238461914e+003,4.2908974609e+003,4.3253847656e+003,4.3243588867e+003,4.3093588867e+003,4.3034614258e+003,4.3114101563e+003,4.3528203125e+003,4.3378203125e+003,4.3447436523e+003,4.3288461914e+003,4.3082050781e+003,
2.6953125000e+000,4.2552563477e+003,4.3855126953e+003,4.3593588867e+003,4.3262822266e+003,4.3708974609e+003,4.3570512695e+003,4.3439741211e+003,4.3314101563e+003,4.3402563477e+003,4.3810258789e+003,4.3698715820e+003,4.3769228516e+003,4.3643588867e+003,4.3458974609e+003,
2.7031250000e+000,4.3097436523e+003,4.4280771484e+003,4.4026923828e+003,4.3796152344e+003,4.4258974609e+003,4.3869228516e+003,4.3756411133e+003,4.3684614258e+003,4.3666665039e+003,4.4232050781e+003,4.4135898438e+003,4.4191025391e+003,4.4076923828e+003,4.3932050781e+003,
2.7109375000e+000,4.3134614258e+003,4.4189741211e+003,4.3916665039e+003,4.3678203125e+003,4.4134614258e+003,4.3891025391e+003,4.3875639648e+003,4.3726923828e+003,4.3729487305e+003,4.4167949219e+003,4.4126923828e+003,4.4191025391e+003,4.4073076172e+003,4.3948715820e+003,
2.7187500000e+000,4.4393588867e+003,4.5442309570e+003,4.5134614258e+003,4.4912822266e+003,4.5426923828e+003,4.5142309570e+003,4.5119228516e+003,4.4993588867e+003,4.4970512695e+003,4.5456411133e+003,4.5400000000e+003,4.5412822266e+003,4.5348715820e+003,4.5178203125e+003,
2.7265625000e+000,4.7356411133e+003,4.8421796875e+003,4.8037177734e+003,4.7832050781e+003,4.8382050781e+003,4.8084614258e+003,4.8010258789e+003,4.8003847656e+003,4.7871796875e+003,4.8476923828e+003,4.8344873047e+003,4.8274360352e+003,4.8291025391e+003,4.7993588867e+003,
2.7343750000e+000,4.5733334961e+003,4.7026923828e+003,4.6570512695e+003,4.6365385742e+003,4.6942309570e+003,4.6729487305e+003,4.6537177734e+003,4.6719228516e+003,4.6576923828e+003,4.7158974609e+003,4.6884614258e+003,4.6837177734e+003,4.6701284180e+003,4.6424360352e+003,
2.7421875000e+000,4.4524360352e+003,4.5732050781e+003,4.5347436523e+003,4.5165385742e+003,4.5775639648e+003,4.5526923828e+003,4.5337177734e+003,4.5461538086e+003,4.5403847656e+003,4.5882050781e+003,4.5623076172e+003,4.5589741211e+003,4.5473076172e+003,4.5188461914e+003,
2.7500000000e+000,4.3362822266e+003,4.4361538086e+003,4.4107690430e+003,4.3966665039e+003,4.4635898438e+003,4.4324360352e+003,4.4146152344e+003,4.4166665039e+003,4.4232050781e+003,4.4517949219e+003,4.4314101563e+003,4.4282050781e+003,4.4239741211e+003,4.3929487305e+003,
2.7578125000e+000,4.3107690430e+003,4.4057690430e+003,4.3843588867e+003,4.3687177734e+003,4.4339741211e+003,4.4064101563e+003,4.3906411133e+003,4.3889741211e+003,4.3960258789e+003,4.4197436523e+003,4.4012822266e+003,4.4002563477e+003,4.3948715820e+003,4.3670512695e+003,
2.7656250000e+000,4.2503847656e+003,4.3378203125e+003,4.3208974609e+003,4.2985898438e+003,4.3491025391e+003,4.3367949219e+003,4.3317949219e+003,4.3208974609e+003,4.3224360352e+003,4.3462822266e+003,4.3280771484e+003,4.3355126953e+003,4.3223076172e+003,4.3051284180e+003,
2.7734375000e+000,4.2425639648e+003,4.3239741211e+003,4.3093588867e+003,4.2878203125e+003,4.3353847656e+003,4.3207690430e+003,4.3173076172e+003,4.3052563477e+003,4.3079487305e+003,4.3319228516e+003,4.3141025391e+003,4.3221796875e+003,4.3085898438e+003,4.2920512695e+003,
2.7812500000e+000,4.2232050781e+003,4.2933334961e+003,4.2858974609e+003,4.2634614258e+003,4.3062822266e+003,4.2837177734e+003,4.2811538086e+003,4.2706411133e+003,4.2757690430e+003,4.2989741211e+003,4.2829487305e+003,4.2947436523e+003,4.2805126953e+003,4.2669228516e+003,
2.7890625000e+000,4.2101284180e+003,4.2778203125e+003,4.2719228516e+003,4.2471796875e+003,4.2869228516e+003,4.2630771484e+003,4.2616665039e+003,4.2541025391e+003,4.2585898438e+003,4.2820512695e+003,4.2662822266e+003,4.2819228516e+003,4.2673076172e+003,4.2560258789e+003,
2.7968750000e+000,4.2144873047e+003,4.2737177734e+003,4.2717949219e+003,4.2382050781e+003,4.2589741211e+003,4.2526923828e+003,4.2576923828e+003,4.2547436523e+003,4.2584614258e+003,4.2814101563e+003,4.2632050781e+003,4.2915385742e+003,4.2723076172e+003,4.2669228516e+003,
2.8046875000e+000,4.2451284180e+003,4.3007690430e+003,4.3014101563e+003,4.2656411133e+003,4.2821796875e+003,4.2805126953e+003,4.2869228516e+003,4.2821796875e+003,4.2885898438e+003,4.3111538086e+003,4.2926923828e+003,4.3198715820e+003,4.2998715820e+003,4.2951284180e+003,
2.8125000000e+000,4.2800000000e+003,4.3346152344e+003,4.3358974609e+003,4.2996152344e+003,4.3178203125e+003,4.3137177734e+003,4.3198715820e+003,4.3150000000e+003,4.3242309570e+003,4.3474360352e+003,4.3285898438e+003,4.3521796875e+003,4.3325639648e+003,4.3261538086e+003,
2.8203125000e+000,4.2984614258e+003,4.3538461914e+003,4.3550000000e+003,4.3201284180e+003,4.3453847656e+003,4.3317949219e+003,4.3362822266e+003,4.3342309570e+003,4.3450000000e+003,4.3694873047e+003,4.3494873047e+003,4.3703847656e+003,4.3507690430e+003,4.3412822266e+003,
2.8281250000e+000,4.2052563477e+003,4.2537177734e+003,4.2616665039e+003,4.2434614258e+003,4.2834614258e+003,4.2496152344e+003,4.2485898438e+003,4.2479487305e+003,4.2514101563e+003,4.2696152344e+003,4.2460258789e+003,4.2784614258e+003,4.2502563477e+003,4.2435898438e+003,
2.8359375000e+000,4.2692309570e+003,4.3239741211e+003,4.3171796875e+003,4.3016665039e+003,4.3424360352e+003,4.3246152344e+003,4.3210258789e+003,4.3211538086e+003,4.3256411133e+003,4.3348715820e+003,4.3115385742e+003,4.3352563477e+003,4.3137177734e+003,4.2994873047e+003,
2.8437500000e+000,4.2482050781e+003,4.3005126953e+003,4.2987177734e+003,4.2812822266e+003,4.3167949219e+003,4.3053847656e+003,4.3008974609e+003,4.2984614258e+003,4.3062822266e+003,4.3116665039e+003,4.2876923828e+003,4.3147436523e+003,4.2901284180e+003,4.2774360352e+003,
2.8515625000e+000,4.2176923828e+003,4.2691025391e+003,4.2693588867e+003,4.2560258789e+003,4.2915385742e+003,4.2800000000e+003,4.2800000000e+003,4.2684614258e+003,4.2821796875e+003,4.2825639648e+003,4.2550000000e+003,4.2826923828e+003,4.2553847656e+003,4.2460258789e+003,
2.8593750000e+000,4.2688461914e+003,4.3151284180e+003,4.3137177734e+003,4.3052563477e+003,4.3116665039e+003,4.3167949219e+003,4.3143588867e+003,4.3094873047e+003,4.3157690430e+003,4.3278203125e+003,4.3043588867e+003,4.3182050781e+003,4.3082050781e+003,4.2952563477e+003,
2.8671875000e+000,4.2691025391e+003,4.3129487305e+003,4.3141025391e+003,4.3091025391e+003,4.2987177734e+003,4.3083334961e+003,4.3050000000e+003,4.3012822266e+003,4.3053847656e+003,4.3241025391e+003,4.3014101563e+003,4.3148715820e+003,4.3050000000e+003,4.2937177734e+003,
2.8750000000e+000,4.2539741211e+003,4.2997436523e+003,4.2973076172e+003,4.3002563477e+003,4.2969228516e+003,4.2819228516e+003,4.2857690430e+003,4.2721796875e+003,4.2738461914e+003,4.3010258789e+003,4.2824360352e+003,4.2996152344e+003,4.2824360352e+003,4.2761538086e+003,
2.8828125000e+000,4.2692309570e+003,4.3175639648e+003,4.3096152344e+003,4.3126923828e+003,4.3293588867e+003,4.2951284180e+003,4.3019228516e+003,4.2825639648e+003,4.2847436523e+003,4.3139741211e+003,4.2978203125e+003,4.3150000000e+003,4.2971796875e+003,4.2900000000e+003,
2.8906250000e+000,4.3666665039e+003,4.4183334961e+003,4.3993588867e+003,4.3982050781e+003,4.4370512695e+003,4.3939741211e+003,4.3970512695e+003,4.3824360352e+003,4.3883334961e+003,4.4235898438e+003,4.4005126953e+003,4.4111538086e+003,4.4024360352e+003,4.3857690430e+003,
2.8984375000e+000,4.3766665039e+003,4.4297436523e+003,4.4100000000e+003,4.4119228516e+003,4.4429487305e+003,4.4044873047e+003,4.4093588867e+003,4.3958974609e+003,4.4035898438e+003,4.4375639648e+003,4.4133334961e+003,4.4230771484e+003,4.4139741211e+003,4.3978203125e+003,
2.9062500000e+000,4.3814101563e+003,4.4371796875e+003,4.4164101563e+003,4.4226923828e+003,4.4476923828e+003,4.4102563477e+003,4.4173076172e+003,4.4034614258e+003,4.4137177734e+003,4.4446152344e+003,4.4230771484e+003,4.4303847656e+003,4.4205126953e+003,4.4055126953e+003,
2.9140625000e+000,4.3883334961e+003,4.4474360352e+003,4.4255126953e+003,4.4356411133e+003,4.4583334961e+003,4.4200000000e+003,4.4264101563e+003,4.4133334961e+003,4.4260258789e+003,4.4541025391e+003,4.4370512695e+003,4.4400000000e+003,4.4307690430e+003,4.4160258789e+003,
2.9218750000e+000,4.3043588867e+003,4.3610258789e+003,4.3503847656e+003,4.3575639648e+003,4.3698715820e+003,4.3551284180e+003,4.3501284180e+003,4.3538461914e+003,4.3643588867e+003,4.3843588867e+003,4.3578203125e+003,4.3670512695e+003,4.3532050781e+003,4.3424360352e+003,
2.9296875000e+000,4.2612822266e+003,4.3160258789e+003,4.3044873047e+003,4.3085898438e+003,4.3264101563e+003,4.3130771484e+003,4.3094873047e+003,4.3132050781e+003,4.3235898438e+003,4.3378203125e+003,4.3082050781e+003,4.3200000000e+003,4.3057690430e+003,4.2967949219e+003,
2.9375000000e+000,4.2300000000e+003,4.2925639648e+003,4.2743588867e+003,4.2673076172e+003,4.3073076172e+003,4.2967949219e+003,4.2897436523e+003,4.2851284180e+003,4.2943588867e+003,4.2988461914e+003,4.2729487305e+003,4.2823076172e+003,4.2725639648e+003,4.2620512695e+003,
2.9453125000e+000,4.1865385742e+003,4.2488461914e+003,4.2292309570e+003,4.2297436523e+003,4.2466665039e+003,4.2634614258e+003,4.2560258789e+003,4.2520512695e+003,4.2600000000e+003,4.2630771484e+003,4.2275639648e+003,4.2385898438e+003,4.2264101563e+003,4.2148715820e+003,
2.9531250000e+000,4.1494873047e+003,4.2073076172e+003,4.1889741211e+003,4.1851284180e+003,4.1991025391e+003,4.2217949219e+003,4.2183334961e+003,4.2119228516e+003,4.2210258789e+003,4.2211538086e+003,4.1856411133e+003,4.1979487305e+003,4.1855126953e+003,4.1750000000e+003,
2.9609375000e+000,4.0688461914e+003,4.1115385742e+003,4.1057690430e+003,4.0888461914e+003,4.1287177734e+003,4.1251284180e+003,4.1275639648e+003,4.1128203125e+003,4.1267949219e+003,4.1232050781e+003,4.0985898438e+003,4.1106411133e+003,4.1001284180e+003,4.0978203125e+003,
2.9687500000e+000,4.1828203125e+003,4.2215385742e+003,4.2062822266e+003,4.2067949219e+003,4.2421796875e+003,4.2203847656e+003,4.2284614258e+003,4.1996152344e+003,4.2080771484e+003,4.2155126953e+003,4.2041025391e+003,4.2156411133e+003,4.2062822266e+003,4.2024360352e+003,
2.9765625000e+000,4.3315385742e+003,4.3752563477e+003,4.3493588867e+003,4.3505126953e+003,4.3835898438e+003,4.3558974609e+003,4.3657690430e+003,4.3334614258e+003,4.3369228516e+003,4.3552563477e+003,4.3473076172e+003,4.3570512695e+003,4.3500000000e+003,4.3415385742e+003,
2.9843750000e+000,4.5216665039e+003,4.5750000000e+003,4.5351284180e+003,4.5360258789e+003,4.5721796875e+003,4.5343588867e+003,4.5432050781e+003,4.5126923828e+003,4.5102563477e+003,4.5433334961e+003,4.5370512695e+003,4.5412822266e+003,4.5393588867e+003,4.5250000000e+003,
2.9921875000e+000,4.8712822266e+003,4.9492309570e+003,4.8861538086e+003,4.8861538086e+003,4.9391025391e+003,4.8783334961e+003,4.8782050781e+003,4.8658974609e+003,4.8523076172e+003,4.9171796875e+003,4.9079487305e+003,4.8978203125e+003,4.9041025391e+003,4.8814101563e+003,
3.0000000000e+000,5.0401284180e+003,5.1389741211e+003,5.0723076172e+003,5.0602563477e+003,5.1220512695e+003,5.0626923828e+003,5.0493588867e+003,5.0626923828e+003,5.0544873047e+003,5.1362822266e+003,5.1170512695e+003,5.0971796875e+003,5.1017949219e+003,5.0725639648e+003,
3.0078125000e+000,5.0300000000e+003,5.1338461914e+003,5.0685898438e+003,5.0555126953e+003,5.1064101563e+003,5.0601284180e+003,5.0442309570e+003,5.0614101563e+003,5.0593588867e+003,5.1385898438e+003,5.1164101563e+003,5.0933334961e+003,5.0984614258e+003,5.0655126953e+003,
3.0156250000e+000,5.0151284180e+003,5.1241025391e+003,5.0610258789e+003,5.0475639648e+003,5.0885898438e+003,5.0555126953e+003,5.0383334961e+003,5.0570512695e+003,5.0584614258e+003,5.1335898438e+003,5.1100000000e+003,5.0850000000e+003,5.0896152344e+003,5.0543588867e+003,
3.0234375000e+000,5.0687177734e+003,5.1923076172e+003,5.1280771484e+003,5.1044873047e+003,5.1656411133e+003,5.1315385742e+003,5.1137177734e+003,5.1287177734e+003,5.1238461914e+003,5.1975639648e+003,5.1751284180e+003,5.1507690430e+003,5.1543588867e+003,5.1169228516e+003,
3.0312500000e+000,5.1620512695e+003,5.2960258789e+003,5.2247436523e+003,5.1921796875e+003,5.2821796875e+003,5.2316665039e+003,5.2135898438e+003,5.2256411133e+003,5.2143588867e+003,5.2933334961e+003,5.2725639648e+003,5.2461538086e+003,5.2529487305e+003,5.2126923828e+003,
3.0390625000e+000,5.2784614258e+003,5.4248715820e+003,5.3428203125e+003,5.3030771484e+003,5.4192309570e+003,5.3519228516e+003,5.3330771484e+003,5.3434614258e+003,5.3269228516e+003,5.4133334961e+003,5.3942309570e+003,5.3630771484e+003,5.3747436523e+003,5.3303847656e+003,
3.0468750000e+000,5.3496152344e+003,5.5458974609e+003,5.4473076172e+003,5.4012822266e+003,5.5196152344e+003,5.4625639648e+003,5.4321796875e+003,5.4565385742e+003,5.4266665039e+003,5.5276923828e+003,5.5037177734e+003,5.4651284180e+003,5.4729487305e+003,5.4282050781e+003,
3.0546875000e+000,5.2093588867e+003,5.4058974609e+003,5.3193588867e+003,5.2665385742e+003,5.3932050781e+003,5.3384614258e+003,5.3058974609e+003,5.3333334961e+003,5.3048715820e+003,5.3960258789e+003,5.3675639648e+003,5.3344873047e+003,5.3360258789e+003,5.2970512695e+003,
3.0625000000e+000,4.7333334961e+003,4.9087177734e+003,4.8644873047e+003,4.8046152344e+003,4.9030771484e+003,4.8944873047e+003,4.8693588867e+003,4.8839741211e+003,4.8662822266e+003,4.9120512695e+003,4.8900000000e+003,4.8700000000e+003,4.8597436523e+003,4.8361538086e+003,
3.0703125000e+000,4.4989741211e+003,4.6558974609e+003,4.6211538086e+003,4.5723076172e+003,4.6480771484e+003,4.6342309570e+003,4.6205126953e+003,4.6267949219e+003,4.6160258789e+003,4.6538461914e+003,4.6356411133e+003,4.6293588867e+003,4.6173076172e+003,4.6028203125e+003,
3.0781250000e+000,4.4447436523e+003,4.5988461914e+003,4.5651284180e+003,4.5208974609e+003,4.5876923828e+003,4.5703847656e+003,4.5601284180e+003,4.5628203125e+003,4.5537177734e+003,4.5908974609e+003,4.5739741211e+003,4.5728203125e+003,4.5588461914e+003,4.5488461914e+003,
3.0859375000e+000,4.4048715820e+003,4.5394873047e+003,4.5141025391e+003,4.4864101563e+003,4.5076923828e+003,4.5053847656e+003,4.5042309570e+003,4.4983334961e+003,4.4870512695e+003,4.5220512695e+003,4.5201284180e+003,4.5201284180e+003,4.5080771484e+003,4.5005126953e+003,
3.0937500000e+000,4.3916665039e+003,4.5201284180e+003,4.4967949219e+003,4.4696152344e+003,4.4966665039e+003,4.4856411133e+003,4.4855126953e+003,4.4793588867e+003,4.4664101563e+003,4.5011538086e+003,4.5028203125e+003,4.5039741211e+003,4.4924360352e+003,4.4850000000e+003,
3.1015625000e+000,4.4112822266e+003,4.5378203125e+003,4.5115385742e+003,4.4716665039e+003,4.5353847656e+003,4.5001284180e+003,4.4982050781e+003,4.4920512695e+003,4.4841025391e+003,4.5138461914e+003,4.5152563477e+003,4.5166665039e+003,4.5091025391e+003,4.5034614258e+003,
3.1093750000e+000,4.4608974609e+003,4.5883334961e+003,4.5596152344e+003,4.5125639648e+003,4.5837177734e+003,4.5501284180e+003,4.5464101563e+003,4.5450000000e+003,4.5429487305e+003,4.5684614258e+003,4.5653847656e+003,4.5641025391e+003,4.5585898438e+003,4.5524360352e+003,
3.1171875000e+000,4.4337177734e+003,4.5444873047e+003,4.5314101563e+003,4.4978203125e+003,4.5251284180e+003,4.5307690430e+003,4.5287177734e+003,4.5401284180e+003,4.5500000000e+003,4.5555126953e+003,4.5393588867e+003,4.5374360352e+003,4.5255126953e+003,4.5188461914e+003,
3.1250000000e+000,4.4429487305e+003,4.5519228516e+003,4.5384614258e+003,4.5133334961e+003,4.5424360352e+003,4.5430771484e+003,4.5425639648e+003,4.5466665039e+003,4.5553847656e+003,4.5567949219e+003,4.5433334961e+003,4.5415385742e+003,4.5320512695e+003,4.5250000000e+003,
3.1328125000e+000,4.7324360352e+003,4.8616665039e+003,4.8191025391e+003,4.7938461914e+003,4.8644873047e+003,4.8337177734e+003,4.8273076172e+003,4.8271796875e+003,4.8257690430e+003,4.8414101563e+003,4.8338461914e+003,4.8219228516e+003,4.8250000000e+003,4.8120512695e+003,
3.1406250000e+000,4.8791025391e+003,5.0201284180e+003,4.9651284180e+003,4.9325639648e+003,5.0153847656e+003,4.9792309570e+003,4.9674360352e+003,4.9779487305e+003,4.9703847656e+003,4.9991025391e+003,4.9894873047e+003,4.9721796875e+003,4.9764101563e+003,4.9608974609e+003,
3.1484375000e+000,4.6303847656e+003,4.7698715820e+003,4.7298715820e+003,4.6905126953e+003,4.7464101563e+003,4.7351284180e+003,4.7250000000e+003,4.7496152344e+003,4.7352563477e+003,4.7667949219e+003,4.7474360352e+003,4.7355126953e+003,4.7267949219e+003,4.7151284180e+003,
3.1562500000e+000,4.4865385742e+003,4.6216665039e+003,4.5874360352e+003,4.5498715820e+003,4.6033334961e+003,4.5961538086e+003,4.5883334961e+003,4.6041025391e+003,4.5914101563e+003,4.6134614258e+003,4.5958974609e+003,4.5874360352e+003,4.5783334961e+003,4.5694873047e+003,
3.1640625000e+000,4.3984614258e+003,4.5292309570e+003,4.4982050781e+003,4.4607690430e+003,4.5142309570e+003,4.5121796875e+003,4.5048715820e+003,4.5120512695e+003,4.5012822266e+003,4.5147436523e+003,4.5008974609e+003,4.4944873047e+003,4.4858974609e+003,4.4808974609e+003,
3.1718750000e+000,4.3623076172e+003,4.4705126953e+003,4.4457690430e+003,4.4297436523e+003,4.4620512695e+003,4.4716665039e+003,4.4676923828e+003,4.4421796875e+003,4.4407690430e+003,4.4400000000e+003,4.4385898438e+003,4.4308974609e+003,4.4321796875e+003,4.4271796875e+003,
3.1796875000e+000,4.5620512695e+003,4.6785898438e+003,4.6428203125e+003,4.6202563477e+003,4.6750000000e+003,4.6619228516e+003,4.6566665039e+003,4.6296152344e+003,4.6264101563e+003,4.6380771484e+003,4.6376923828e+003,4.6270512695e+003,4.6314101563e+003,4.6238461914e+003,
3.1875000000e+000,5.0038461914e+003,5.1356411133e+003,5.0815385742e+003,5.0507690430e+003,5.1226923828e+003,5.0774360352e+003,5.0635898438e+003,5.0651284180e+003,5.0478203125e+003,5.1066665039e+003,5.1093588867e+003,5.0833334961e+003,5.0910258789e+003,5.0750000000e+003,
3.1953125000e+000,5.0283334961e+003,5.1623076172e+003,5.1065385742e+003,5.0846152344e+003,5.1434614258e+003,5.1014101563e+003,5.0875639648e+003,5.0914101563e+003,5.0705126953e+003,5.1364101563e+003,5.1392309570e+003,5.1121796875e+003,5.1188461914e+003,5.1002563477e+003,
3.2031250000e+000,5.1264101563e+003,5.2747436523e+003,5.2105126953e+003,5.1897436523e+003,5.2394873047e+003,5.2042309570e+003,5.1884614258e+003,5.1965385742e+003,5.1793588867e+003,5.2484614258e+003,5.2435898438e+003,5.2167949219e+003,5.2198715820e+003,5.1992309570e+003,
3.2109375000e+000,4.5093588867e+003,4.6506411133e+003,4.6297436523e+003,4.5760258789e+003,4.6346152344e+003,4.6310258789e+003,4.6085898438e+003,4.6469228516e+003,4.6496152344e+003,4.6707690430e+003,4.6579487305e+003,4.6411538086e+003,4.6298715820e+003,4.6148715820e+003,
3.2187500000e+000,4.2894873047e+003,4.4147436523e+003,4.4087177734e+003,4.3653847656e+003,4.4170512695e+003,4.4160258789e+003,4.3989741211e+003,4.4248715820e+003,4.4289741211e+003,4.4285898438e+003,4.4250000000e+003,4.4176923828e+003,4.4035898438e+003,4.3920512695e+003,
3.2265625000e+000,4.1598715820e+003,4.2651284180e+003,4.2624360352e+003,4.2396152344e+003,4.2684614258e+003,4.2791025391e+003,4.2710258789e+003,4.2720512695e+003,4.2802563477e+003,4.2543588867e+003,4.2617949219e+003,4.2665385742e+003,4.2520512695e+003,4.2487177734e+003,
3.2343750000e+000,4.1665385742e+003,4.2669228516e+003,4.2620512695e+003,4.2411538086e+003,4.2539741211e+003,4.2794873047e+003,4.2741025391e+003,4.2693588867e+003,4.2787177734e+003,4.2489741211e+003,4.2567949219e+003,4.2646152344e+003,4.2508974609e+003,4.2508974609e+003,
3.2421875000e+000,4.0355129395e+003,4.1180771484e+003,4.1238461914e+003,4.0975639648e+003,4.1029487305e+003,4.1393588867e+003,4.1360258789e+003,4.1297436523e+003,4.1257690430e+003,4.0914101563e+003,4.0998715820e+003,4.1188461914e+003,4.1058974609e+003,4.1089741211e+003,
3.2500000000e+000,4.0011538086e+003,4.0771794434e+003,4.0846154785e+003,4.0607692871e+003,4.0791025391e+003,4.1032050781e+003,4.1000000000e+003,4.0917949219e+003,4.0816667480e+003,4.0460256348e+003,4.0562819824e+003,4.0774357910e+003,4.0661538086e+003,4.0687180176e+003,
3.2578125000e+000,4.0524357910e+003,4.1158974609e+003,4.1232050781e+003,4.1042309570e+003,4.1326923828e+003,4.1456411133e+003,4.1446152344e+003,4.1305126953e+003,4.1160258789e+003,4.0801281738e+003,4.0928205566e+003,4.1165385742e+003,4.1065385742e+003,4.1076923828e+003,
3.2656250000e+000,4.1075639648e+003,4.1673076172e+003,4.1732050781e+003,4.1551284180e+003,4.1775639648e+003,4.1946152344e+003,4.1952563477e+003,4.1806411133e+003,4.1684614258e+003,4.1332050781e+003,4.1448715820e+003,4.1684614258e+003,4.1585898438e+003,4.1575639648e+003,
3.2734375000e+000,4.2123076172e+003,4.2732050781e+003,4.2703847656e+003,4.2628203125e+003,4.2702563477e+003,4.2932050781e+003,4.3001284180e+003,4.2871796875e+003,4.2802563477e+003,4.2519228516e+003,4.2574360352e+003,4.2710258789e+003,4.2682050781e+003,4.2523076172e+003,
3.2812500000e+000,4.2361538086e+003,4.2934614258e+003,4.2905126953e+003,4.2880771484e+003,4.2958974609e+003,4.3134614258e+003,4.3223076172e+003,4.3071796875e+003,4.2989741211e+003,4.2744873047e+003,4.2802563477e+003,4.2932050781e+003,4.2914101563e+003,4.2726923828e+003,
3.2890625000e+000,4.2707690430e+003,4.3228203125e+003,4.3198715820e+003,4.3192309570e+003,4.3275639648e+003,4.3394873047e+003,4.3488461914e+003,4.3329487305e+003,4.3233334961e+003,4.3035898438e+003,4.3107690430e+003,4.3248715820e+003,4.3228203125e+003,4.3026923828e+003,
3.2968750000e+000,4.3173076172e+003,4.3653847656e+003,4.3603847656e+003,4.3567949219e+003,4.3638461914e+003,4.3738461914e+003,4.3816665039e+003,4.3687177734e+003,4.3594873047e+003,4.3446152344e+003,4.3533334961e+003,4.3684614258e+003,4.3657690430e+003,4.3442309570e+003,
3.3046875000e+000,4.1976923828e+003,4.2417949219e+003,4.2453847656e+003,4.2244873047e+003,4.2233334961e+003,4.2444873047e+003,4.2456411133e+003,4.2570512695e+003,4.2643588867e+003,4.2415385742e+003,4.2465385742e+003,4.2635898438e+003,4.2523076172e+003,4.2289741211e+003,
3.3125000000e+000,4.1089741211e+003,4.1393588867e+003,4.1391025391e+003,4.1507690430e+003,4.1355126953e+003,4.1538461914e+003,4.1546152344e+003,4.1511538086e+003,4.1721796875e+003,4.1302563477e+003,4.1306411133e+003,4.1482050781e+003,4.1433334961e+003,4.1220512695e+003,
3.3203125000e+000,4.1976923828e+003,4.2303847656e+003,4.2247436523e+003,4.2316665039e+003,4.2115385742e+003,4.2385898438e+003,4.2373076172e+003,4.2364101563e+003,4.2582050781e+003,4.2210258789e+003,4.2210258789e+003,4.2344873047e+003,4.2321796875e+003,4.2097436523e+003,
3.3281250000e+000,4.3038461914e+003,4.3379487305e+003,4.3271796875e+003,4.3242309570e+003,4.3211538086e+003,4.3428203125e+003,4.3351284180e+003,4.3433334961e+003,4.3594873047e+003,4.3347436523e+003,4.3339741211e+003,4.3417949219e+003,4.3396152344e+003,4.3161538086e+003,
3.3359375000e+000,4.2197436523e+003,4.2464101563e+003,4.2467949219e+003,4.2493588867e+003,4.2565385742e+003,4.2639741211e+003,4.2578203125e+003,4.2471796875e+003,4.2517949219e+003,4.2220512695e+003,4.2329487305e+003,4.2506411133e+003,4.2401284180e+003,4.2228203125e+003,
3.3437500000e+000,4.2100000000e+003,4.2342309570e+003,4.2396152344e+003,4.2441025391e+003,4.2392309570e+003,4.2561538086e+003,4.2521796875e+003,4.2391025391e+003,4.2421796875e+003,4.2123076172e+003,4.2234614258e+003,4.2412822266e+003,4.2314101563e+003,4.2124360352e+003,
3.3515625000e+000,4.1421796875e+003,4.1669228516e+003,4.1711538086e+003,4.1861538086e+003,4.1675639648e+003,4.1900000000e+003,4.1876923828e+003,4.1798715820e+003,4.1779487305e+003,4.1462822266e+003,4.1553847656e+003,4.1774360352e+003,4.1619228516e+003,4.1437177734e+003,
3.3593750000e+000,4.0832050781e+003,4.1088461914e+003,4.1088461914e+003,4.1276923828e+003,4.1066665039e+003,4.1288461914e+003,4.1271796875e+003,4.1208974609e+003,4.1175639648e+003,4.0811538086e+003,4.0914101563e+003,4.1170512695e+003,4.0964101563e+003,4.0833332520e+003,
3.3671875000e+000,3.9401281738e+003,3.9528205566e+003,3.9584614258e+003,3.9666667480e+003,3.9292307129e+003,3.9719230957e+003,3.9758974609e+003,3.9625642090e+003,3.9637180176e+003,3.9161538086e+003,3.9275642090e+003,3.9585898438e+003,3.9356411133e+003,3.9339743652e+003,
3.3750000000e+000,3.9067949219e+003,3.9123076172e+003,3.9247436523e+003,3.9332050781e+003,3.8908974609e+003,3.9339743652e+003,3.9398718262e+003,3.9253845215e+003,3.9255129395e+003,3.8791025391e+003,3.8891025391e+003,3.9235898438e+003,3.9000000000e+003,3.8989743652e+003,
3.3828125000e+000,3.8532050781e+003,3.8475642090e+003,3.8665385742e+003,3.8926923828e+003,3.8421794434e+003,3.8711538086e+003,3.8808974609e+003,3.8656411133e+003,3.8601281738e+003,3.8135898438e+003,3.8257692871e+003,3.8680769043e+003,3.8396154785e+003,3.8388461914e+003,
3.3906250000e+000,3.8387180176e+003,3.8288461914e+003,3.8476923828e+003,3.8828205566e+003,3.8242307129e+003,3.8508974609e+003,3.8637180176e+003,3.8480769043e+003,3.8425642090e+003,3.7925642090e+003,3.8073076172e+003,3.8497436523e+003,3.8203845215e+003,3.8200000000e+003,
3.3984375000e+000,3.8460256348e+003,3.8217949219e+003,3.8435898438e+003,3.8694870605e+003,3.8014101563e+003,3.8330769043e+003,3.8534614258e+003,3.8460256348e+003,3.8543588867e+003,3.7984614258e+003,3.8083332520e+003,3.8419230957e+003,3.8166667480e+003,3.8205129395e+003,
3.4062500000e+000,3.8657692871e+003,3.8383332520e+003,3.8587180176e+003,3.8796154785e+003,3.8244870605e+003,3.8464101563e+003,3.8652563477e+003,3.8625642090e+003,3.8750000000e+003,3.8214101563e+003,3.8270512695e+003,3.8593588867e+003,3.8353845215e+003,3.8379487305e+003,
3.4140625000e+000,3.8884614258e+003,3.8596154785e+003,3.8774357910e+003,3.8974357910e+003,3.8582050781e+003,3.8673076172e+003,3.8833332520e+003,3.8837180176e+003,3.8987180176e+003,3.8475642090e+003,3.8507692871e+003,3.8819230957e+003,3.8585898438e+003,3.8584614258e+003,
3.4218750000e+000,3.9015385742e+003,3.8711538086e+003,3.8893588867e+003,3.9110256348e+003,3.8820512695e+003,3.8832050781e+003,3.8970512695e+003,3.8970512695e+003,3.9143588867e+003,3.8641025391e+003,3.8666667480e+003,3.8964101563e+003,3.8728205566e+003,3.8708974609e+003,
3.4296875000e+000,3.8835898438e+003,3.8365385742e+003,3.8726923828e+003,3.8985898438e+003,3.8396154785e+003,3.8765385742e+003,3.8834614258e+003,3.8678205566e+003,3.8952563477e+003,3.8405129395e+003,3.8412819824e+003,3.8641025391e+003,3.8460256348e+003,3.8469230957e+003,
