Time (s);AF3;F7;F3;FC5;T7;P7;O1;O2;P8;T8;FC6;F4;F8;AF4;Sampling Rate
0.0000000000e+000;4.3256411133e+003;4.3302563477e+003;4.3296152344e+003;4.3198715820e+003;4.3326923828e+003;4.3150000000e+003;4.3238461914e+003;4.3191025391e+003;4.3208974609e+003;4.3223076172e+003;4.3258974609e+003;4.3276923828e+003;4.3243588867e+003;4.3198715820e+003;128
7.8125000000e-003;4.3580771484e+003;4.3660258789e+003;4.3583334961e+003;4.3483334961e+003;4.3523076172e+003;4.3466665039e+003;4.3574360352e+003;4.3542309570e+003;4.3576923828e+003;4.3578203125e+003;4.3544873047e+003;4.3593588867e+003;4.3591025391e+003;4.3516665039e+003;
1.5625000000e-002;4.2691025391e+003;4.2876923828e+003;4.2694873047e+003;4.2707690430e+003;4.2647436523e+003;4.2647436523e+003;4.2789741211e+003;4.2793588867e+003;4.2780771484e+003;4.2746152344e+003;4.2711538086e+003;4.2748715820e+003;4.2700000000e+003;4.2706411133e+003;
2.3437500000e-002;4.2703847656e+003;4.2869228516e+003;4.2723076172e+003;4.2728203125e+003;4.2779487305e+003;4.2633334961e+003;4.2808974609e+003;4.2766665039e+003;4.2753847656e+003;4.2711538086e+003;4.2716665039e+003;4.2723076172e+003;4.2661538086e+003;4.2682050781e+003;
3.1250000000e-002;4.3523076172e+003;4.3608974609e+003;4.3547436523e+003;4.3439741211e+003;4.3593588867e+003;4.3389741211e+003;4.3569228516e+003;4.3546152344e+003;4.3593588867e+003;4.3548715820e+003;4.3487177734e+003;4.3516665039e+003;4.3441025391e+003;4.3429487305e+003;
3.9062500000e-002;4.3305126953e+003;4.3398715820e+003;4.3341025391e+003;4.3230771484e+003;4.3298715820e+003;4.3243588867e+003;4.3366665039e+003;4.3374360352e+003;4.3447436523e+003;4.3371796875e+003;4.3280771484e+003;4.3350000000e+003;4.3242309570e+003;4.3239741211e+003;
4.6875000000e-002;4.2639741211e+003;4.2775639648e+003;4.2693588867e+003;4.2624360352e+003;4.2602563477e+003;4.2692309570e+003;4.2756411133e+003;4.2751284180e+003;4.2837177734e+003;4.2706411133e+003;4.2653847656e+003;4.2732050781e+003;4.2594873047e+003;4.2626923828e+003;
5.4687500000e-002;4.2061538086e+003;4.2225639648e+003;4.2132050781e+003;4.2089741211e+003;4.2042309570e+003;4.2187177734e+003;4.2223076172e+003;4.2171796875e+003;4.2260258789e+003;4.2088461914e+003;4.2115385742e+003;4.2157690430e+003;4.2021796875e+003;4.2079487305e+003;
6.2500000000e-002;4.1275639648e+003;4.1347436523e+003;4.1406411133e+003;4.1384614258e+003;4.1138461914e+003;4.1496152344e+003;4.1412822266e+003;4.1382050781e+003;4.1400000000e+003;4.1333334961e+003;4.1337177734e+003;4.1387177734e+003;4.1266665039e+003;4.1285898438e+003;
7.0312500000e-002;4.1200000000e+003;4.1339741211e+003;4.1298715820e+003;4.1378203125e+003;4.1100000000e+003;4.1430771484e+003;4.1343588867e+003;4.1270512695e+003;4.1293588867e+003;4.1210258789e+003;4.1296152344e+003;4.1319228516e+003;4.1162822266e+003;4.1225639648e+003;
7.8125000000e-002;4.1665385742e+003;4.1742309570e+003;4.1741025391e+003;4.1658974609e+003;4.1701284180e+003;4.1703847656e+003;4.1700000000e+003;4.1625639648e+003;4.1623076172e+003;4.1573076172e+003;4.1665385742e+003;4.1724360352e+003;4.1591025391e+003;4.1658974609e+003;
8.5937500000e-002;4.1211538086e+003;4.1283334961e+003;4.1315385742e+003;4.1284614258e+003;4.1257690430e+003;4.1319228516e+003;4.1296152344e+003;4.1164101563e+003;4.1153847656e+003;4.1171796875e+003;4.1178203125e+003;4.1273076172e+003;4.1294873047e+003;4.1232050781e+003;
9.3750000000e-002;4.1508974609e+003;4.1642309570e+003;4.1575639648e+003;4.1675639648e+003;4.1555126953e+003;4.1580771484e+003;4.1584614258e+003;4.1497436523e+003;4.1520512695e+003;4.1533334961e+003;4.1642309570e+003;4.1624360352e+003;4.1612822266e+003;4.1602563477e+003;
1.0156250000e-001;4.0958974609e+003;4.0920512695e+003;4.1087177734e+003;4.1112822266e+003;4.0860256348e+003;4.1074360352e+003;4.1085898438e+003;4.1062822266e+003;4.1098715820e+003;4.0969228516e+003;4.1157690430e+003;4.1148715820e+003;4.0958974609e+003;4.1050000000e+003;
1.0937500000e-001;4.1142309570e+003;4.1096152344e+003;4.1269228516e+003;4.1230771484e+003;4.1070512695e+003;4.1246152344e+003;4.1258974609e+003;4.1246152344e+003;4.1267949219e+003;4.1144873047e+003;4.1224360352e+003;4.1275639648e+003;4.1139741211e+003;4.1165385742e+003;
1.1718750000e-001;4.0735898438e+003;4.0880769043e+003;4.0811538086e+003;4.0875642090e+003;4.0685898438e+003;4.0811538086e+003;4.0833332520e+003;4.0966665039e+003;4.0989741211e+003;4.0875642090e+003;4.0801281738e+003;4.0876923828e+003;4.0776923828e+003;4.0780769043e+003;
1.2500000000e-001;4.0683332520e+003;4.0755129395e+003;4.0826923828e+003;4.0847436523e+003;4.0533332520e+003;4.0828205566e+003;4.0857692871e+003;4.0880769043e+003;4.0864101563e+003;4.0662819824e+003;4.0683332520e+003;4.0764101563e+003;4.0682050781e+003;4.0700000000e+003;
1.3281250000e-001;4.0889743652e+003;4.0989741211e+003;4.1089741211e+003;4.1076923828e+003;4.0869230957e+003;4.1080771484e+003;4.1083334961e+003;4.1120512695e+003;4.1085898438e+003;4.0914101563e+003;4.0932050781e+003;4.0991025391e+003;4.0920512695e+003;4.0929487305e+003;
1.4062500000e-001;4.0762819824e+003;4.0898718262e+003;4.1015385742e+003;4.0973076172e+003;4.0871794434e+003;4.1016665039e+003;4.0993588867e+003;4.1021796875e+003;4.0983334961e+003;4.0838461914e+003;4.0861538086e+003;4.0888461914e+003;4.0816667480e+003;4.0823076172e+003;
1.4843750000e-001;4.0505129395e+003;4.0584614258e+003;4.0756411133e+003;4.0647436523e+003;4.0612819824e+003;4.0769230957e+003;4.0750000000e+003;4.0707692871e+003;4.0707692871e+003;4.0589743652e+003;4.0598718262e+003;4.0605129395e+003;4.0530769043e+003;4.0543588867e+003;
1.5625000000e-001;3.9862819824e+003;3.9862819824e+003;4.0120512695e+003;4.0116667480e+003;3.9866667480e+003;4.0167949219e+003;4.0147436523e+003;4.0085898438e+003;4.0058974609e+003;3.9970512695e+003;3.9984614258e+003;4.0042307129e+003;3.9828205566e+003;3.9934614258e+003;
1.6406250000e-001;3.9905129395e+003;3.9997436523e+003;4.0184614258e+003;4.0198718262e+003;3.9950000000e+003;4.0239743652e+003;4.0223076172e+003;4.0101281738e+003;4.0055129395e+003;3.9966667480e+003;4.0046154785e+003;4.0075642090e+003;3.9865385742e+003;3.9973076172e+003;
1.7187500000e-001;4.0576923828e+003;4.0766667480e+003;4.0850000000e+003;4.0810256348e+003;4.0655129395e+003;4.0862819824e+003;4.0861538086e+003;4.0705129395e+003;4.0660256348e+003;4.0592307129e+003;4.0692307129e+003;4.0696154785e+003;4.0548718262e+003;4.0626923828e+003;
1.7968750000e-001;4.1469228516e+003;4.1711538086e+003;4.1716665039e+003;4.1588461914e+003;4.1551284180e+003;4.1658974609e+003;4.1664101563e+003;4.1529487305e+003;4.1498715820e+003;4.1479487305e+003;4.1512822266e+003;4.1543588867e+003;4.1471796875e+003;4.1510258789e+003;
1.8750000000e-001;4.0721794434e+003;4.0948718262e+003;4.0975639648e+003;4.1046152344e+003;4.0542307129e+003;4.0921794434e+003;4.0932050781e+003;4.0771794434e+003;4.0821794434e+003;4.0793588867e+003;4.0770512695e+003;4.0847436523e+003;4.0712819824e+003;4.0779487305e+003;
1.9531250000e-001;4.0698718262e+003;4.0943588867e+003;4.0934614258e+003;4.1005126953e+003;4.0469230957e+003;4.0873076172e+003;4.0905129395e+003;4.0780769043e+003;4.0857692871e+003;4.0776923828e+003;4.0819230957e+003;4.0814101563e+003;4.0653845215e+003;4.0723076172e+003;
2.0312500000e-001;4.0461538086e+003;4.0658974609e+003;4.0693588867e+003;4.0548718262e+003;4.0525642090e+003;4.0578205566e+003;4.0592307129e+003;4.0607692871e+003;4.0629487305e+003;4.0514101563e+003;4.0439743652e+003;4.0579487305e+003;4.0429487305e+003;4.0461538086e+003;
2.1093750000e-001;4.1093588867e+003;4.1367949219e+003;4.1305126953e+003;4.1339741211e+003;4.1212822266e+003;4.1152563477e+003;4.1192309570e+003;4.1320512695e+003;4.1310258789e+003;4.1280771484e+003;4.1106411133e+003;4.1221796875e+003;4.1184614258e+003;4.1144873047e+003;
2.1875000000e-001;4.0555129395e+003;4.0874357910e+003;4.0757692871e+003;4.0884614258e+003;4.0610256348e+003;4.0696154785e+003;4.0706411133e+003;4.0860256348e+003;4.0875642090e+003;4.0780769043e+003;4.0606411133e+003;4.0712819824e+003;4.0661538086e+003;4.0608974609e+003;
2.2656250000e-001;4.0035898438e+003;4.0343588867e+003;4.0179487305e+003;4.0300000000e+003;4.0141025391e+003;4.0325642090e+003;4.0320512695e+003;4.0367949219e+003;4.0397436523e+003;4.0173076172e+003;4.0098718262e+003;4.0169230957e+003;4.0175642090e+003;4.0070512695e+003;
2.3437500000e-001;4.0155129395e+003;4.0423076172e+003;4.0302563477e+003;4.0375642090e+003;4.0239743652e+003;4.0460256348e+003;4.0428205566e+003;4.0494870605e+003;4.0520512695e+003;4.0329487305e+003;4.0246154785e+003;4.0289743652e+003;4.0303845215e+003;4.0207692871e+003;
2.4218750000e-001;3.8920512695e+003;3.9169230957e+003;3.9044870605e+003;3.9207692871e+003;3.9029487305e+003;3.9394870605e+003;3.9278205566e+003;3.9211538086e+003;3.9301281738e+003;3.9082050781e+003;3.8984614258e+003;3.9042307129e+003;3.8970512695e+003;3.8988461914e+003;
2.5000000000e-001;3.8939743652e+003;3.9205129395e+003;3.9060256348e+003;3.9188461914e+003;3.9066667480e+003;3.9426923828e+003;3.9320512695e+003;3.9216667480e+003;3.9314101563e+003;3.9088461914e+003;3.9003845215e+003;3.9064101563e+003;3.8980769043e+003;3.9026923828e+003;
2.5781250000e-001;3.8665385742e+003;3.8915385742e+003;3.8898718262e+003;3.8896154785e+003;3.8665385742e+003;3.9244870605e+003;3.9102563477e+003;3.9008974609e+003;3.9064101563e+003;3.8833332520e+003;3.8780769043e+003;3.8830769043e+003;3.8728205566e+003;3.8814101563e+003;
2.6562500000e-001;3.8310256348e+003;3.8547436523e+003;3.8591025391e+003;3.8617949219e+003;3.8278205566e+003;3.8947436523e+003;3.8774357910e+003;3.8647436523e+003;3.8689743652e+003;3.8446154785e+003;3.8402563477e+003;3.8438461914e+003;3.8369230957e+003;3.8438461914e+003;
2.7343750000e-001;3.8873076172e+003;3.9170512695e+003;3.8988461914e+003;3.9346154785e+003;3.9210256348e+003;3.9330769043e+003;3.9197436523e+003;3.9041025391e+003;3.9120512695e+003;3.8979487305e+003;3.8869230957e+003;3.8915385742e+003;3.8953845215e+003;3.8902563477e+003;
2.8125000000e-001;3.8744870605e+003;3.9074357910e+003;3.8834614258e+003;3.9211538086e+003;3.9152563477e+003;3.9166667480e+003;3.9044870605e+003;3.8906411133e+003;3.8976923828e+003;3.8880769043e+003;3.8812819824e+003;3.8875642090e+003;3.8856411133e+003;3.8819230957e+003;
2.8906250000e-001;3.8306411133e+003;3.8624357910e+003;3.8438461914e+003;3.8646154785e+003;3.8474357910e+003;3.8712819824e+003;3.8588461914e+003;3.8400000000e+003;3.8470512695e+003;3.8403845215e+003;3.8480769043e+003;3.8505129395e+003;3.8441025391e+003;3.8432050781e+003;
2.9687500000e-001;3.8552563477e+003;3.8820512695e+003;3.8691025391e+003;3.8805129395e+003;3.8519230957e+003;3.8894870605e+003;3.8766667480e+003;3.8587180176e+003;3.8693588867e+003;3.8639743652e+003;3.8707692871e+003;3.8698718262e+003;3.8689743652e+003;3.8664101563e+003;
3.0468750000e-001;3.8792307129e+003;3.9005129395e+003;3.8921794434e+003;3.9014101563e+003;3.8634614258e+003;3.9056411133e+003;3.8923076172e+003;3.8802563477e+003;3.8942307129e+003;3.8901281738e+003;3.8907692871e+003;3.8891025391e+003;3.8944870605e+003;3.8896154785e+003;
3.1250000000e-001;3.8707692871e+003;3.8883332520e+003;3.8820512695e+003;3.8976923828e+003;3.8546154785e+003;3.8917949219e+003;3.8784614258e+003;3.8726923828e+003;3.8874357910e+003;3.8828205566e+003;3.8783332520e+003;3.8789743652e+003;3.8870512695e+003;3.8812819824e+003;
3.2031250000e-001;3.8983332520e+003;3.9187180176e+003;3.9035898438e+003;3.9300000000e+003;3.8887180176e+003;3.8965385742e+003;3.9012819824e+003;3.9111538086e+003;3.9119230957e+003;3.8980769043e+003;3.8944870605e+003;3.9094870605e+003;3.9005129395e+003;3.9055129395e+003;
3.2812500000e-001;3.8743588867e+003;3.8812819824e+003;3.8850000000e+003;3.8980769043e+003;3.8475642090e+003;3.9006411133e+003;3.9025642090e+003;3.9120512695e+003;3.9144870605e+003;3.8888461914e+003;3.8961538086e+003;3.8960256348e+003;3.8828205566e+003;3.8926923828e+003;
3.3593750000e-001;3.9124357910e+003;3.9224357910e+003;3.9219230957e+003;3.9353845215e+003;3.8934614258e+003;3.9415385742e+003;3.9432050781e+003;3.9546154785e+003;3.9584614258e+003;3.9329487305e+003;3.9384614258e+003;3.9356411133e+003;3.9244870605e+003;3.9321794434e+003;
3.4375000000e-001;3.8793588867e+003;3.8967949219e+003;3.8920512695e+003;3.9061538086e+003;3.8860256348e+003;3.9217949219e+003;3.9198718262e+003;3.9250000000e+003;3.9316667480e+003;3.9064101563e+003;3.8953845215e+003;3.9041025391e+003;3.8998718262e+003;3.8944870605e+003;
3.5156250000e-001;3.9291025391e+003;3.9434614258e+003;3.9379487305e+003;3.9600000000e+003;3.9353845215e+003;3.9723076172e+003;3.9700000000e+003;3.9543588867e+003;3.9629487305e+003;3.9483332520e+003;3.9338461914e+003;3.9537180176e+003;3.9373076172e+003;3.9397436523e+003;
3.5937500000e-001;3.9029487305e+003;3.9157692871e+003;3.9126923828e+003;3.9337180176e+003;3.9039743652e+003;3.9461538086e+003;3.9406411133e+003;3.9241025391e+003;3.9307692871e+003;3.9173076172e+003;3.9071794434e+003;3.9280769043e+003;3.9047436523e+003;3.9137180176e+003;
3.6718750000e-001;3.9343588867e+003;3.9489743652e+003;3.9365385742e+003;3.9532050781e+003;3.9305129395e+003;3.9591025391e+003;3.9505129395e+003;3.9353845215e+003;3.9382050781e+003;3.9360256348e+003;3.9332050781e+003;3.9439743652e+003;3.9380769043e+003;3.9325642090e+003;
3.7500000000e-001;3.9208974609e+003;3.9355129395e+003;3.9248718262e+003;3.9410256348e+003;3.9111538086e+003;3.9430769043e+003;3.9350000000e+003;3.9226923828e+003;3.9234614258e+003;3.9242307129e+003;3.9238461914e+003;3.9343588867e+003;3.9247436523e+003;3.9214101563e+003;
3.8281250000e-001;3.8393588867e+003;3.8506411133e+003;3.8501281738e+003;3.8679487305e+003;3.8279487305e+003;3.8630769043e+003;3.8591025391e+003;3.8419230957e+003;3.8410256348e+003;3.8392307129e+003;3.8470512695e+003;3.8624357910e+003;3.8355129395e+003;3.8484614258e+003;
3.9062500000e-001;3.8469230957e+003;3.8550000000e+003;3.8570512695e+003;3.8738461914e+003;3.8375642090e+003;3.8656411133e+003;3.8629487305e+003;3.8467949219e+003;3.8480769043e+003;3.8455129395e+003;3.8544870605e+003;3.8693588867e+003;3.8420512695e+003;3.8567949219e+003;
3.9843750000e-001;3.8311538086e+003;3.8321794434e+003;3.8406411133e+003;3.8533332520e+003;3.7973076172e+003;3.8461538086e+003;3.8343588867e+003;3.8419230957e+003;3.8483332520e+003;3.8387180176e+003;3.8393588867e+003;3.8580769043e+003;3.8397436523e+003;3.8394870605e+003;
4.0625000000e-001;3.8026923828e+003;3.8062819824e+003;3.8130769043e+003;3.8298718262e+003;3.7691025391e+003;3.8205129395e+003;3.8110256348e+003;3.8180769043e+003;3.8235898438e+003;3.8082050781e+003;3.8071794434e+003;3.8311538086e+003;3.8120512695e+003;3.8106411133e+003;
4.1406250000e-001;3.8117949219e+003;3.8193588867e+003;3.8210256348e+003;3.8426923828e+003;3.7908974609e+003;3.8269230957e+003;3.8233332520e+003;3.8297436523e+003;3.8347436523e+003;3.8162819824e+003;3.8132050781e+003;3.8389743652e+003;3.8194870605e+003;3.8194870605e+003;
4.2187500000e-001;3.8389743652e+003;3.8491025391e+003;3.8461538086e+003;3.8711538086e+003;3.8358974609e+003;3.8479487305e+003;3.8492307129e+003;3.8597436523e+003;3.8648718262e+003;3.8464101563e+003;3.8408974609e+003;3.8644870605e+003;3.8448718262e+003;3.8478205566e+003;
4.2968750000e-001;3.8520512695e+003;3.8624357910e+003;3.8538461914e+003;3.8798718262e+003;3.8443588867e+003;3.8582050781e+003;3.8625642090e+003;3.8755129395e+003;3.8866667480e+003;3.8655129395e+003;3.8598718262e+003;3.8723076172e+003;3.8624357910e+003;3.8662819824e+003;
4.3750000000e-001;3.8719230957e+003;3.8853845215e+003;3.8750000000e+003;3.8973076172e+003;3.8674357910e+003;3.8911538086e+003;3.8946154785e+003;3.9025642090e+003;3.9126923828e+003;3.8973076172e+003;3.8834614258e+003;3.8946154785e+003;3.8846154785e+003;3.8920512695e+003;
4.4531250000e-001;3.8373076172e+003;3.8475642090e+003;3.8412819824e+003;3.8669230957e+003;3.8356411133e+003;3.8679487305e+003;3.8687180176e+003;3.8674357910e+003;3.8762819824e+003;3.8582050781e+003;3.8471794434e+003;3.8594870605e+003;3.8458974609e+003;3.8548718262e+003;
4.5312500000e-001;3.8985898438e+003;3.9050000000e+003;3.8997436523e+003;3.9185898438e+003;3.9016667480e+003;3.9356411133e+003;3.9335898438e+003;3.9242307129e+003;3.9334614258e+003;3.9152563477e+003;3.9039743652e+003;3.9242307129e+003;3.9070512695e+003;3.9114101563e+003;
4.6093750000e-001;3.8346154785e+003;3.8396154785e+003;3.8424357910e+003;3.8532050781e+003;3.8292307129e+003;3.8734614258e+003;3.8725642090e+003;3.8526923828e+003;3.8648718262e+003;3.8533332520e+003;3.8491025391e+003;3.8651281738e+003;3.8382050781e+003;3.8521794434e+003;
4.6875000000e-001;3.8560256348e+003;3.8583332520e+003;3.8621794434e+003;3.8756411133e+003;3.8424357910e+003;3.8914101563e+003;3.8897436523e+003;3.8691025391e+003;3.8811538086e+003;3.8725642090e+003;3.8696154785e+003;3.8842307129e+003;3.8573076172e+003;3.8701281738e+003;
4.7656250000e-001;3.7965385742e+003;3.8047436523e+003;3.7971794434e+003;3.8344870605e+003;3.8153845215e+003;3.8412819824e+003;3.8270512695e+003;3.8087180176e+003;3.8139743652e+003;3.8053845215e+003;3.8078205566e+003;3.8256411133e+003;3.8028205566e+003;3.8117949219e+003;
4.8437500000e-001;3.8028205566e+003;3.8119230957e+003;3.8008974609e+003;3.8406411133e+003;3.8308974609e+003;3.8439743652e+003;3.8314101563e+003;3.8115385742e+003;3.8174357910e+003;3.8058974609e+003;3.8144870605e+003;3.8278205566e+003;3.8082050781e+003;3.8179487305e+003;
4.9218750000e-001;3.8380769043e+003;3.8428205566e+003;3.8348718262e+003;3.8696154785e+003;3.8607692871e+003;3.8702563477e+003;3.8605129395e+003;3.8446154785e+003;3.8524357910e+003;3.8394870605e+003;3.8488461914e+003;3.8600000000e+003;3.8414101563e+003;3.8519230957e+003;
5.0000000000e-001;3.8335898438e+003;3.8258974609e+003;3.8356411133e+003;3.8553845215e+003;3.8271794434e+003;3.8597436523e+003;3.8496154785e+003;3.8465385742e+003;3.8564101563e+003;3.8430769043e+003;3.8367949219e+003;3.8612819824e+003;3.8378205566e+003;3.8460256348e+003;
5.0781250000e-001;3.8701281738e+003;3.8807692871e+003;3.8641025391e+003;3.8953845215e+003;3.8839743652e+003;3.8912819824e+003;3.8924357910e+003;3.8925642090e+003;3.9019230957e+003;3.8847436523e+003;3.8771794434e+003;3.8944870605e+003;3.8870512695e+003;3.8810256348e+003;
5.1562500000e-001;3.9050000000e+003;3.9174357910e+003;3.8971794434e+003;3.9312819824e+003;3.9251281738e+003;3.9194870605e+003;3.9233332520e+003;3.9325642090e+003;3.9424357910e+003;3.9230769043e+003;3.9211538086e+003;3.9262819824e+003;3.9226923828e+003;3.9146154785e+003;
5.2343750000e-001;3.8900000000e+003;3.8985898438e+003;3.8853845215e+003;3.9178205566e+003;3.9071794434e+003;3.9035898438e+003;3.9055129395e+003;3.9224357910e+003;3.9332050781e+003;3.9098718262e+003;3.9121794434e+003;3.9106411133e+003;3.9058974609e+003;3.8970512695e+003;
5.3125000000e-001;3.8496154785e+003;3.8538461914e+003;3.8496154785e+003;3.8774357910e+003;3.8602563477e+003;3.8670512695e+003;3.8653845215e+003;3.8830769043e+003;3.8951281738e+003;3.8678205566e+003;3.8714101563e+003;3.8697436523e+003;3.8632050781e+003;3.8529487305e+003;
5.3906250000e-001;3.8547436523e+003;3.8591025391e+003;3.8556411133e+003;3.8743588867e+003;3.8638461914e+003;3.8811538086e+003;3.8797436523e+003;3.8855129395e+003;3.9001281738e+003;3.8760256348e+003;3.8625642090e+003;3.8774357910e+003;3.8693588867e+003;3.8564101563e+003;
5.4687500000e-001;3.8243588867e+003;3.8252563477e+003;3.8274357910e+003;3.8497436523e+003;3.8270512695e+003;3.8573076172e+003;3.8547436523e+003;3.8567949219e+003;3.8697436523e+003;3.8421794434e+003;3.8324357910e+003;3.8460256348e+003;3.8357692871e+003;3.8242307129e+003;
5.5468750000e-001;3.8557692871e+003;3.8673076172e+003;3.8552563477e+003;3.8830769043e+003;3.8656411133e+003;3.8983332520e+003;3.8907692871e+003;3.8856411133e+003;3.8983332520e+003;3.8680769043e+003;3.8674357910e+003;3.8712819824e+003;3.8650000000e+003;3.8508974609e+003;
5.6250000000e-001;3.7787180176e+003;3.7896154785e+003;3.7787180176e+003;3.8138461914e+003;3.8139743652e+003;3.8282050781e+003;3.8207692871e+003;3.7980769043e+003;3.8105129395e+003;3.7833332520e+003;3.7776923828e+003;3.7957692871e+003;3.7873076172e+003;3.7715385742e+003;
5.7031250000e-001;3.8134614258e+003;3.8165385742e+003;3.8124357910e+003;3.8417949219e+003;3.8360256348e+003;3.8547436523e+003;3.8479487305e+003;3.8246154785e+003;3.8342307129e+003;3.8108974609e+003;3.8071794434e+003;3.8287180176e+003;3.8158974609e+003;3.8042307129e+003;
5.7812500000e-001;3.7908974609e+003;3.7858974609e+003;3.7937180176e+003;3.8069230957e+003;3.7879487305e+003;3.8192307129e+003;3.8073076172e+003;3.7988461914e+003;3.7991025391e+003;3.7867949219e+003;3.7814101563e+003;3.8106411133e+003;3.7901281738e+003;3.7885898438e+003;
5.8593750000e-001;3.7505129395e+003;3.7498718262e+003;3.7534614258e+003;3.7721794434e+003;3.7552563477e+003;3.7796154785e+003;3.7698718262e+003;3.7570512695e+003;3.7578205566e+003;3.7446154785e+003;3.7402563477e+003;3.7703845215e+003;3.7530769043e+003;3.7492307129e+003;
5.9375000000e-001;3.7503845215e+003;3.7569230957e+003;3.7474357910e+003;3.7833332520e+003;3.7616667480e+003;3.7742307129e+003;3.7726923828e+003;3.7555129395e+003;3.7615385742e+003;3.7444870605e+003;3.7497436523e+003;3.7762819824e+003;3.7537180176e+003;3.7507692871e+003;
6.0156250000e-001;3.7438461914e+003;3.7523076172e+003;3.7398718262e+003;3.7806411133e+003;3.7519230957e+003;3.7675642090e+003;3.7674357910e+003;3.7523076172e+003;3.7600000000e+003;3.7406411133e+003;3.7516667480e+003;3.7742307129e+003;3.7462819824e+003;3.7461538086e+003;
6.0937500000e-001;3.7888461914e+003;3.7998718262e+003;3.7878205566e+003;3.8126923828e+003;3.7866667480e+003;3.8097436523e+003;3.8073076172e+003;3.8030769043e+003;3.8128205566e+003;3.7907692871e+003;3.7898718262e+003;3.8029487305e+003;3.8021794434e+003;3.7833332520e+003;
6.1718750000e-001;3.8174357910e+003;3.8284614258e+003;3.8161538086e+003;3.8379487305e+003;3.8088461914e+003;3.8365385742e+003;3.8321794434e+003;3.8366667480e+003;3.8476923828e+003;3.8256411133e+003;3.8143588867e+003;3.8296154785e+003;3.8358974609e+003;3.8114101563e+003;
6.2500000000e-001;3.7496154785e+003;3.7582050781e+003;3.7501281738e+003;3.7774357910e+003;3.7496154785e+003;3.7789743652e+003;3.7764101563e+003;3.7766667480e+003;3.7929487305e+003;3.7633332520e+003;3.7555129395e+003;3.7762819824e+003;3.7643588867e+003;3.7539743652e+003;
6.3281250000e-001;3.7858974609e+003;3.7896154785e+003;3.7873076172e+003;3.8067949219e+003;3.7957692871e+003;3.8096154785e+003;3.8111538086e+003;3.8094870605e+003;3.8267949219e+003;3.7988461914e+003;3.7925642090e+003;3.8108974609e+003;3.7985898438e+003;3.7905129395e+003;
6.4062500000e-001;3.8242307129e+003;3.8223076172e+003;3.8289743652e+003;3.8444870605e+003;3.8398718262e+003;3.8435898438e+003;3.8446154785e+003;3.8526923828e+003;3.8676923828e+003;3.8461538086e+003;3.8305129395e+003;3.8471794434e+003;3.8403845215e+003;3.8315385742e+003;
6.4843750000e-001;3.7883332520e+003;3.7914101563e+003;3.7914101563e+003;3.8198718262e+003;3.8025642090e+003;3.8153845215e+003;3.8129487305e+003;3.8193588867e+003;3.8332050781e+003;3.8116667480e+003;3.7960256348e+003;3.8112819824e+003;3.8065385742e+003;3.7970512695e+003;
6.5625000000e-001;3.7742307129e+003;3.7871794434e+003;3.7711538086e+003;3.8153845215e+003;3.7892307129e+003;3.8078205566e+003;3.8038461914e+003;3.8020512695e+003;3.8170512695e+003;3.7951281738e+003;3.7847436523e+003;3.7946154785e+003;3.7935898438e+003;3.7821794434e+003;
6.6406250000e-001;3.8111538086e+003;3.8346154785e+003;3.8006411133e+003;3.8537180176e+003;3.8301281738e+003;3.8444870605e+003;3.8419230957e+003;3.8323076172e+003;3.8503845215e+003;3.8306411133e+003;3.8251281738e+003;3.8273076172e+003;3.8316667480e+003;3.8166667480e+003;
6.7187500000e-001;3.7937180176e+003;3.8135898438e+003;3.7937180176e+003;3.8202563477e+003;3.8158974609e+003;3.8293588867e+003;3.8250000000e+003;3.8091025391e+003;3.8226923828e+003;3.8082050781e+003;3.8060256348e+003;3.8108974609e+003;3.8100000000e+003;3.7947436523e+003;
6.7968750000e-001;3.7929487305e+003;3.8115385742e+003;3.7919230957e+003;3.8196154785e+003;3.8108974609e+003;3.8298718262e+003;3.8247436523e+003;3.8050000000e+003;3.8170512695e+003;3.8002563477e+003;3.8021794434e+003;3.8084614258e+003;3.8076923828e+003;3.7920512695e+003;
6.8750000000e-001;3.8021794434e+003;3.8287180176e+003;3.7993588867e+003;3.8391025391e+003;3.8108974609e+003;3.8423076172e+003;3.8352563477e+003;3.8193588867e+003;3.8282050781e+003;3.8167949219e+003;3.8096154785e+003;3.8232050781e+003;3.8219230957e+003;3.8038461914e+003;
6.9531250000e-001;3.7896154785e+003;3.8138461914e+003;3.7903845215e+003;3.8273076172e+003;3.7960256348e+003;3.8273076172e+003;3.8219230957e+003;3.8047436523e+003;3.8115385742e+003;3.8020512695e+003;3.7970512695e+003;3.8108974609e+003;3.8062819824e+003;3.7897436523e+003;
7.0312500000e-001;3.8557692871e+003;3.8757692871e+003;3.8560256348e+003;3.8839743652e+003;3.8691025391e+003;3.8744870605e+003;3.8753845215e+003;3.8643588867e+003;3.8710256348e+003;3.8642307129e+003;3.8696154785e+003;3.8735898438e+003;3.8667949219e+003;3.8528205566e+003;
7.1093750000e-001;3.9156411133e+003;3.9452563477e+003;3.9010256348e+003;3.9479487305e+003;3.9367949219e+003;3.9387180176e+003;3.9415385742e+003;3.9378205566e+003;3.9512819824e+003;3.9391025391e+003;3.9233332520e+003;3.9274357910e+003;3.9379487305e+003;3.9101281738e+003;
7.1875000000e-001;3.9671794434e+003;3.9926923828e+003;3.9530769043e+003;3.9914101563e+003;3.9810256348e+003;3.9802563477e+003;3.9865385742e+003;3.9892307129e+003;4.0017949219e+003;3.9932050781e+003;3.9723076172e+003;3.9775642090e+003;3.9851281738e+003;3.9585898438e+003;
7.2656250000e-001;3.9426923828e+003;3.9582050781e+003;3.9388461914e+003;3.9514101563e+003;3.9507692871e+003;3.9491025391e+003;3.9553845215e+003;3.9692307129e+003;3.9792307129e+003;3.9734614258e+003;3.9528205566e+003;3.9611538086e+003;3.9537180176e+003;3.9342307129e+003;
7.3437500000e-001;3.9085898438e+003;3.9230769043e+003;3.9064101563e+003;3.9187180176e+003;3.9208974609e+003;3.9193588867e+003;3.9250000000e+003;3.9346154785e+003;3.9458974609e+003;3.9376923828e+003;3.9200000000e+003;3.9270512695e+003;3.9210256348e+003;3.8993588867e+003;
7.4218750000e-001;3.9874357910e+003;4.0046154785e+003;3.9688461914e+003;4.0089743652e+003;4.0008974609e+003;3.9884614258e+003;4.0001281738e+003;4.0048718262e+003;4.0235898438e+003;4.0180769043e+003;3.9947436523e+003;3.9910256348e+003;4.0064101563e+003;3.9705129395e+003;
7.5000000000e-001;3.9664101563e+003;3.9816667480e+003;3.9488461914e+003;3.9835898438e+003;3.9684614258e+003;3.9658974609e+003;3.9784614258e+003;3.9828205566e+003;3.9998718262e+003;3.9958974609e+003;3.9730769043e+003;3.9706411133e+003;3.9820512695e+003;3.9497436523e+003;
7.5781250000e-001;3.9375642090e+003;3.9508974609e+003;3.9239743652e+003;3.9469230957e+003;3.9279487305e+003;3.9391025391e+003;3.9515385742e+003;3.9511538086e+003;3.9656411133e+003;3.9620512695e+003;3.9432050781e+003;3.9424357910e+003;3.9491025391e+003;3.9215385742e+003;
7.6562500000e-001;3.9453845215e+003;3.9578205566e+003;3.9343588867e+003;3.9473076172e+003;3.9301281738e+003;3.9485898438e+003;3.9603845215e+003;3.9550000000e+003;3.9683332520e+003;3.9657692871e+003;3.9505129395e+003;3.9497436523e+003;3.9547436523e+003;3.9294870605e+003;
7.7343750000e-001;3.9443588867e+003;3.9661538086e+003;3.9329487305e+003;3.9693588867e+003;3.9737180176e+003;3.9625642090e+003;3.9643588867e+003;3.9557692871e+003;3.9750000000e+003;3.9747436523e+003;3.9584614258e+003;3.9565385742e+003;3.9612819824e+003;3.9346154785e+003;
7.8125000000e-001;4.0033332520e+003;4.0071794434e+003;3.9878205566e+003;4.0056411133e+003;3.9937180176e+003;4.0120512695e+003;4.0076923828e+003;3.9988461914e+003;4.0111538086e+003;4.0157692871e+003;3.9951281738e+003;4.0098718262e+003;4.0098718262e+003;3.9947436523e+003;
7.8906250000e-001;3.9850000000e+003;3.9903845215e+003;3.9705129395e+003;3.9897436523e+003;3.9832050781e+003;3.9933332520e+003;3.9897436523e+003;3.9782050781e+003;3.9920512695e+003;3.9961538086e+003;3.9753845215e+003;3.9930769043e+003;3.9944870605e+003;3.9761538086e+003;
7.9687500000e-001;4.0302563477e+003;4.0510256348e+003;4.0135898438e+003;4.0308974609e+003;4.0491025391e+003;4.0296154785e+003;4.0346154785e+003;4.0196154785e+003;4.0379487305e+003;4.0456411133e+003;4.0330769043e+003;4.0379487305e+003;4.0456411133e+003;4.0208974609e+003;
8.0468750000e-001;3.9978205566e+003;4.0080769043e+003;3.9864101563e+003;4.0023076172e+003;3.9997436523e+003;4.0000000000e+003;4.0010256348e+003;3.9962819824e+003;4.0088461914e+003;4.0124357910e+003;3.9908974609e+003;4.0060256348e+003;4.0056411133e+003;3.9841025391e+003;
8.1250000000e-001;4.0425642090e+003;4.0544870605e+003;4.0284614258e+003;4.0525642090e+003;4.0444870605e+003;4.0415385742e+003;4.0439743652e+003;4.0428205566e+003;4.0541025391e+003;4.0597436523e+003;4.0358974609e+003;4.0480769043e+003;4.0529487305e+003;4.0260256348e+003;
8.2031250000e-001;4.0757692871e+003;4.0878205566e+003;4.0612819824e+003;4.0842307129e+003;4.0680769043e+003;4.0684614258e+003;4.0717949219e+003;4.0823076172e+003;4.0937180176e+003;4.1034614258e+003;4.0826923828e+003;4.0823076172e+003;4.0898718262e+003;4.0607692871e+003;
8.2812500000e-001;4.0446154785e+003;4.0525642090e+003;4.0326923828e+003;4.0479487305e+003;4.0332050781e+003;4.0369230957e+003;4.0407692871e+003;4.0505129395e+003;4.0637180176e+003;4.0693588867e+003;4.0517949219e+003;4.0526923828e+003;4.0567949219e+003;4.0310256348e+003;
8.3593750000e-001;4.1091025391e+003;4.1139741211e+003;4.0951281738e+003;4.0998715820e+003;4.1134614258e+003;4.0891025391e+003;4.1034614258e+003;4.1162822266e+003;4.1298715820e+003;4.1291025391e+003;4.1084614258e+003;4.1215385742e+003;4.1205126953e+003;4.1003847656e+003;
8.4375000000e-001;4.1264101563e+003;4.1326923828e+003;4.1105126953e+003;4.1184614258e+003;4.1315385742e+003;4.1053847656e+003;4.1215385742e+003;4.1391025391e+003;4.1484614258e+003;4.1497436523e+003;4.1311538086e+003;4.1400000000e+003;4.1360258789e+003;4.1191025391e+003;
8.5156250000e-001;4.1425639648e+003;4.1479487305e+003;4.1225639648e+003;4.1306411133e+003;4.1353847656e+003;4.1194873047e+003;4.1379487305e+003;4.1530771484e+003;4.1585898438e+003;4.1607690430e+003;4.1489741211e+003;4.1478203125e+003;4.1401284180e+003;4.1285898438e+003;
8.5937500000e-001;4.1716665039e+003;4.1757690430e+003;4.1510258789e+003;4.1534614258e+003;4.1600000000e+003;4.1441025391e+003;4.1632050781e+003;4.1778203125e+003;4.1860258789e+003;4.1889741211e+003;4.1717949219e+003;4.1717949219e+003;4.1670512695e+003;4.1532050781e+003;
8.6718750000e-001;4.1356411133e+003;4.1352563477e+003;4.1226923828e+003;4.1253847656e+003;4.1235898438e+003;4.1208974609e+003;4.1341025391e+003;4.1408974609e+003;4.1503847656e+003;4.1583334961e+003;4.1288461914e+003;4.1360258789e+003;4.1389741211e+003;4.1162822266e+003;
8.7500000000e-001;4.1635898438e+003;4.1634614258e+003;4.1467949219e+003;4.1571796875e+003;4.1512822266e+003;4.1517949219e+003;4.1652563477e+003;4.1632050781e+003;4.1702563477e+003;4.1802563477e+003;4.1600000000e+003;4.1619228516e+003;4.1648715820e+003;4.1438461914e+003;
8.8281250000e-001;4.2435898438e+003;4.2453847656e+003;4.2197436523e+003;4.2333334961e+003;4.2341025391e+003;4.2262822266e+003;4.2417949219e+003;4.2367949219e+003;4.2425639648e+003;4.2556411133e+003;4.2414101563e+003;4.2397436523e+003;4.2423076172e+003;4.2239741211e+003;
8.9062500000e-001;4.3142309570e+003;4.3189741211e+003;4.2865385742e+003;4.2952563477e+003;4.3103847656e+003;4.2894873047e+003;4.3061538086e+003;4.3051284180e+003;4.3108974609e+003;4.3273076172e+003;4.3105126953e+003;4.3115385742e+003;4.3121796875e+003;4.2967949219e+003;
8.9843750000e-001;4.2087177734e+003;4.2111538086e+003;4.1933334961e+003;4.1864101563e+003;4.1784614258e+003;4.2008974609e+003;4.2073076172e+003;4.1985898438e+003;4.2016665039e+003;4.2173076172e+003;4.1984614258e+003;4.2115385742e+003;4.2023076172e+003;4.1946152344e+003;
9.0625000000e-001;4.2246152344e+003;4.2251284180e+003;4.2066665039e+003;4.2047436523e+003;4.1911538086e+003;4.2135898438e+003;4.2202563477e+003;4.2124360352e+003;4.2142309570e+003;4.2310258789e+003;4.2176923828e+003;4.2289741211e+003;4.2173076172e+003;4.2079487305e+003;
9.1406250000e-001;4.1901284180e+003;4.1943588867e+003;4.1744873047e+003;4.1685898438e+003;4.2065385742e+003;4.1719228516e+003;4.1829487305e+003;4.1806411133e+003;4.1842309570e+003;4.1991025391e+003;4.1873076172e+003;4.2034614258e+003;4.1889741211e+003;4.1791025391e+003;
9.2187500000e-001;4.2412822266e+003;4.2416665039e+003;4.2269228516e+003;4.2248715820e+003;4.2382050781e+003;4.2153847656e+003;4.2200000000e+003;4.2360258789e+003;4.2438461914e+003;4.2573076172e+003;4.2341025391e+003;4.2467949219e+003;4.2429487305e+003;4.2332050781e+003;
9.2968750000e-001;4.2379487305e+003;4.2406411133e+003;4.2202563477e+003;4.2185898438e+003;4.2298715820e+003;4.2052563477e+003;4.2135898438e+003;4.2279487305e+003;4.2433334961e+003;4.2506411133e+003;4.2262822266e+003;4.2374360352e+003;4.2402563477e+003;4.2228203125e+003;
9.3750000000e-001;4.2393588867e+003;4.2397436523e+003;4.2221796875e+003;4.2191025391e+003;4.2315385742e+003;4.2064101563e+003;4.2147436523e+003;4.2353847656e+003;4.2478203125e+003;4.2585898438e+003;4.2343588867e+003;4.2419228516e+003;4.2398715820e+003;4.2284614258e+003;
9.4531250000e-001;4.1443588867e+003;4.1461538086e+003;4.1323076172e+003;4.1338461914e+003;4.1216665039e+003;4.1234614258e+003;4.1293588867e+003;4.1500000000e+003;4.1552563477e+003;4.1624360352e+003;4.1437177734e+003;4.1507690430e+003;4.1400000000e+003;4.1346152344e+003;
9.5312500000e-001;4.1266665039e+003;4.1298715820e+003;4.1151284180e+003;4.1178203125e+003;4.0973076172e+003;4.1075639648e+003;4.1142309570e+003;4.1301284180e+003;4.1356411133e+003;4.1387177734e+003;4.1216665039e+003;4.1308974609e+003;4.1193588867e+003;4.1124360352e+003;
9.6093750000e-001;4.0492307129e+003;4.0489743652e+003;4.0419230957e+003;4.0448718262e+003;4.0385898438e+003;4.0502563477e+003;4.0476923828e+003;4.0532050781e+003;4.0637180176e+003;4.0614101563e+003;4.0389743652e+003;4.0597436523e+003;4.0412819824e+003;4.0378205566e+003;
9.6875000000e-001;4.0134614258e+003;4.0153845215e+003;4.0066667480e+003;4.0105129395e+003;4.0175642090e+003;4.0239743652e+003;4.0189743652e+003;4.0171794434e+003;4.0262819824e+003;4.0243588867e+003;4.0029487305e+003;4.0234614258e+003;4.0100000000e+003;4.0046154785e+003;
9.7656250000e-001;4.0735898438e+003;4.0815385742e+003;4.0616667480e+003;4.0617949219e+003;4.0844870605e+003;4.0782050781e+003;4.0767949219e+003;4.0689743652e+003;4.0747436523e+003;4.0792307129e+003;4.0630769043e+003;4.0767949219e+003;4.0750000000e+003;4.0639743652e+003;
9.8437500000e-001;4.0956411133e+003;4.1021796875e+003;4.0823076172e+003;4.0842307129e+003;4.0965385742e+003;4.0951281738e+003;4.0932050781e+003;4.0857692871e+003;4.0914101563e+003;4.1001284180e+003;4.0876923828e+003;4.0993588867e+003;4.0934614258e+003;4.0860256348e+003;
9.9218750000e-001;4.0658974609e+003;4.0658974609e+003;4.0494870605e+003;4.0717949219e+003;4.0576923828e+003;4.0652563477e+003;4.0552563477e+003;4.0347436523e+003;4.0460256348e+003;4.0625642090e+003;4.0601281738e+003;4.0615385742e+003;4.0551281738e+003;4.0510256348e+003;
1.0000000000e+000;4.1005126953e+003;4.1056411133e+003;4.0833332520e+003;4.1037177734e+003;4.0971796875e+003;4.0966665039e+003;4.0866667480e+003;4.0700000000e+003;4.0830769043e+003;4.1019228516e+003;4.0941025391e+003;4.0920512695e+003;4.0957692871e+003;4.0850000000e+003;
1.0078125000e+000;4.1115385742e+003;4.1233334961e+003;4.0964101563e+003;4.1128203125e+003;4.1091025391e+003;4.1076923828e+003;4.0967949219e+003;4.0885898438e+003;4.1024360352e+003;4.1212822266e+003;4.1066665039e+003;4.1050000000e+003;4.1126923828e+003;4.0985898438e+003;
1.0156250000e+000;4.0810256348e+003;4.0965385742e+003;4.0691025391e+003;4.0839743652e+003;4.0751281738e+003;4.0810256348e+003;4.0685898438e+003;4.0664101563e+003;4.0805129395e+003;4.0958974609e+003;4.0792307129e+003;4.0800000000e+003;4.0826923828e+003;4.0714101563e+003;
1.0234375000e+000;4.0773076172e+003;4.0761538086e+003;4.0598718262e+003;4.0666667480e+003;4.0514101563e+003;4.0652563477e+003;4.0587180176e+003;4.0587180176e+003;4.0796154785e+003;4.0873076172e+003;4.0712819824e+003;4.0724357910e+003;4.0782050781e+003;4.0688461914e+003;
1.0312500000e+000;4.0985898438e+003;4.1060258789e+003;4.0737180176e+003;4.0964101563e+003;4.0920512695e+003;4.0860256348e+003;4.0835898438e+003;4.0907692871e+003;4.1152563477e+003;4.1152563477e+003;4.1015385742e+003;4.1029487305e+003;4.1074360352e+003;4.0929487305e+003;
1.0390625000e+000;4.0983334961e+003;4.1030771484e+003;4.0742307129e+003;4.0948718262e+003;4.0989741211e+003;4.0833332520e+003;4.0838461914e+003;4.0966665039e+003;4.1203847656e+003;4.1214101563e+003;4.1116665039e+003;4.1065385742e+003;4.1044873047e+003;4.0969228516e+003;
1.0468750000e+000;3.9923076172e+003;3.9898718262e+003;3.9780769043e+003;3.9919230957e+003;3.9935898438e+003;3.9923076172e+003;3.9929487305e+003;4.0062819824e+003;4.0219230957e+003;4.0187180176e+003;4.0082050781e+003;4.0017949219e+003;3.9985898438e+003;3.9956411133e+003;
1.0546875000e+000;4.0598718262e+003;4.0629487305e+003;4.0457692871e+003;4.0634614258e+003;4.0637180176e+003;4.0678205566e+003;4.0720512695e+003;4.0792307129e+003;4.0874357910e+003;4.0843588867e+003;4.0719230957e+003;4.0629487305e+003;4.0669230957e+003;4.0516667480e+003;
1.0625000000e+000;4.0382050781e+003;4.0432050781e+003;4.0247436523e+003;4.0439743652e+003;4.0424357910e+003;4.0487180176e+003;4.0528205566e+003;4.0558974609e+003;4.0620512695e+003;4.0585898438e+003;4.0512819824e+003;4.0448718262e+003;4.0434614258e+003;4.0315385742e+003;
1.0703125000e+000;4.0742307129e+003;4.0774357910e+003;4.0588461914e+003;4.0723076172e+003;4.0705129395e+003;4.0808974609e+003;4.0829487305e+003;4.0785898438e+003;4.0829487305e+003;4.0851281738e+003;4.0778205566e+003;4.0805129395e+003;4.0753845215e+003;4.0660256348e+003;
1.0781250000e+000;4.1020512695e+003;4.1032050781e+003;4.0850000000e+003;4.0957692871e+003;4.0965385742e+003;4.1050000000e+003;4.1044873047e+003;4.1010258789e+003;4.1062822266e+003;4.1150000000e+003;4.1025639648e+003;4.1074360352e+003;4.1039741211e+003;4.0919230957e+003;
1.0859375000e+000;4.0356411133e+003;4.0391025391e+003;4.0221794434e+003;4.0341025391e+003;4.0262819824e+003;4.0426923828e+003;4.0402563477e+003;4.0291025391e+003;4.0352563477e+003;4.0493588867e+003;4.0425642090e+003;4.0358974609e+003;4.0415385742e+003;4.0234614258e+003;
1.0937500000e+000;4.0391025391e+003;4.0415385742e+003;4.0276923828e+003;4.0346154785e+003;4.0191025391e+003;4.0433332520e+003;4.0421794434e+003;4.0316667480e+003;4.0369230957e+003;4.0502563477e+003;4.0465385742e+003;4.0379487305e+003;4.0425642090e+003;4.0274357910e+003;
1.1015625000e+000;4.0333332520e+003;4.0256411133e+003;4.0226923828e+003;4.0208974609e+003;4.0047436523e+003;4.0328205566e+003;4.0285898438e+003;4.0242307129e+003;4.0300000000e+003;4.0414101563e+003;4.0339743652e+003;4.0341025391e+003;4.0297436523e+003;4.0217949219e+003;
1.1093750000e+000;4.0324357910e+003;4.0214101563e+003;4.0197436523e+003;4.0197436523e+003;4.0148718262e+003;4.0324357910e+003;4.0278205566e+003;4.0202563477e+003;4.0296154785e+003;4.0382050781e+003;4.0276923828e+003;4.0316667480e+003;4.0289743652e+003;4.0192307129e+003;
1.1171875000e+000;4.1662822266e+003;4.1655126953e+003;4.1516665039e+003;4.1598715820e+003;4.1816665039e+003;4.1638461914e+003;4.1671796875e+003;4.1724360352e+003;4.1924360352e+003;4.1921796875e+003;4.1664101563e+003;4.1648715820e+003;4.1710258789e+003;4.1558974609e+003;
1.1250000000e+000;4.1315385742e+003;4.1334614258e+003;4.1219228516e+003;4.1289741211e+003;4.1406411133e+003;4.1356411133e+003;4.1378203125e+003;4.1535898438e+003;4.1714101563e+003;4.1655126953e+003;4.1355126953e+003;4.1385898438e+003;4.1317949219e+003;4.1250000000e+003;
1.1328125000e+000;4.0650000000e+003;4.0664101563e+003;4.0591025391e+003;4.0641025391e+003;4.0623076172e+003;4.0770512695e+003;4.0779487305e+003;4.0953845215e+003;4.1103847656e+003;4.0988461914e+003;4.0687180176e+003;4.0773076172e+003;4.0593588867e+003;4.0593588867e+003;
1.1406250000e+000;4.0341025391e+003;4.0329487305e+003;4.0276923828e+003;4.0305129395e+003;4.0206411133e+003;4.0480769043e+003;4.0496154785e+003;4.0619230957e+003;4.0760256348e+003;4.0626923828e+003;4.0350000000e+003;4.0439743652e+003;4.0267949219e+003;4.0256411133e+003;
1.1484375000e+000;4.1008974609e+003;4.0976923828e+003;4.0991025391e+003;4.0967949219e+003;4.1000000000e+003;4.0974360352e+003;4.1014101563e+003;4.1174360352e+003;4.1289741211e+003;4.1337177734e+003;4.1091025391e+003;4.1026923828e+003;4.1184614258e+003;4.0925642090e+003;
1.1562500000e+000;4.0966665039e+003;4.0961538086e+003;4.0943588867e+003;4.0937180176e+003;4.0934614258e+003;4.0914101563e+003;4.0976923828e+003;4.1110258789e+003;4.1193588867e+003;4.1221796875e+003;4.1014101563e+003;4.0998715820e+003;4.1084614258e+003;4.0884614258e+003;
1.1640625000e+000;4.1669228516e+003;4.1691025391e+003;4.1503847656e+003;4.1551284180e+003;4.1375639648e+003;4.1510258789e+003;4.1610258789e+003;4.1670512695e+003;4.1724360352e+003;4.1825639648e+003;4.1601284180e+003;4.1639741211e+003;4.1623076172e+003;4.1537177734e+003;
1.1718750000e+000;4.2265385742e+003;4.2300000000e+003;4.2147436523e+003;4.2141025391e+003;4.2315385742e+003;4.2123076172e+003;4.2226923828e+003;4.2156411133e+003;4.2174360352e+003;4.2289741211e+003;4.2093588867e+003;4.2174360352e+003;4.2229487305e+003;4.2116665039e+003;
1.1796875000e+000;4.2876923828e+003;4.2929487305e+003;4.2729487305e+003;4.2705126953e+003;4.2964101563e+003;4.2661538086e+003;4.2774360352e+003;4.2750000000e+003;4.2734614258e+003;4.2879487305e+003;4.2717949219e+003;4.2784614258e+003;4.2826923828e+003;4.2741025391e+003;
1.1875000000e+000;4.2006411133e+003;4.1989741211e+003;4.1910258789e+003;4.1760258789e+003;4.1837177734e+003;4.1837177734e+003;4.1871796875e+003;4.1765385742e+003;4.1725639648e+003;4.1979487305e+003;4.1974360352e+003;4.1926923828e+003;4.1941025391e+003;4.1896152344e+003;
1.1953125000e+000;4.2125639648e+003;4.2129487305e+003;4.1985898438e+003;4.1958974609e+003;4.2088461914e+003;4.1944873047e+003;4.1960258789e+003;4.1907690430e+003;4.1991025391e+003;4.2155126953e+003;4.1978203125e+003;4.2079487305e+003;4.2117949219e+003;4.2038461914e+003;
1.2031250000e+000;4.1765385742e+003;4.1817949219e+003;4.1596152344e+003;4.1692309570e+003;4.1738461914e+003;4.1628203125e+003;4.1624360352e+003;4.1625639648e+003;4.1743588867e+003;4.1844873047e+003;4.1615385742e+003;4.1748715820e+003;4.1764101563e+003;4.1712822266e+003;
1.2109375000e+000;4.1416665039e+003;4.1512822266e+003;4.1239741211e+003;4.1410258789e+003;4.1384614258e+003;4.1328203125e+003;4.1320512695e+003;4.1328203125e+003;4.1469228516e+003;4.1538461914e+003;4.1305126953e+003;4.1396152344e+003;4.1423076172e+003;4.1383334961e+003;
1.2187500000e+000;4.1533334961e+003;4.1630771484e+003;4.1415385742e+003;4.1492309570e+003;4.1503847656e+003;4.1473076172e+003;4.1487177734e+003;4.1517949219e+003;4.1660258789e+003;4.1767949219e+003;4.1530771484e+003;4.1502563477e+003;4.1576923828e+003;4.1506411133e+003;
1.2265625000e+000;4.1476923828e+003;4.1537177734e+003;4.1406411133e+003;4.1403847656e+003;4.1420512695e+003;4.1438461914e+003;4.1446152344e+003;4.1512822266e+003;4.1642309570e+003;4.1761538086e+003;4.1478203125e+003;4.1489741211e+003;4.1533334961e+003;4.1458974609e+003;
1.2343750000e+000;4.1157690430e+003;4.1187177734e+003;4.1112822266e+003;4.1091025391e+003;4.1048715820e+003;4.1147436523e+003;4.1148715820e+003;4.1221796875e+003;4.1350000000e+003;4.1444873047e+003;4.1115385742e+003;4.1212822266e+003;4.1208974609e+003;4.1141025391e+003;
1.2421875000e+000;4.1114101563e+003;4.1192309570e+003;4.1066665039e+003;4.1030771484e+003;4.1128203125e+003;4.1029487305e+003;4.1092309570e+003;4.1246152344e+003;4.1411538086e+003;4.1416665039e+003;4.1233334961e+003;4.1160258789e+003;4.1173076172e+003;4.1053847656e+003;
1.2500000000e+000;4.0878205566e+003;4.0935898438e+003;4.0862819824e+003;4.0810256348e+003;4.0934614258e+003;4.0830769043e+003;4.0905129395e+003;4.1010258789e+003;4.1139741211e+003;4.1153847656e+003;4.0994873047e+003;4.0924357910e+003;4.0919230957e+003;4.0800000000e+003;
1.2578125000e+000;4.1283334961e+003;4.1332050781e+003;4.1150000000e+003;4.1229487305e+003;4.1273076172e+003;4.1174360352e+003;4.1243588867e+003;4.1307690430e+003;4.1444873047e+003;4.1552563477e+003;4.1298715820e+003;4.1306411133e+003;4.1289741211e+003;4.1228203125e+003;
1.2656250000e+000;4.0952563477e+003;4.0991025391e+003;4.0833332520e+003;4.0869230957e+003;4.0908974609e+003;4.0903845215e+003;4.0965385742e+003;4.0866667480e+003;4.0978203125e+003;4.1128203125e+003;4.0974360352e+003;4.0966665039e+003;4.0976923828e+003;4.0987177734e+003;
1.2734375000e+000;4.1415385742e+003;4.1462822266e+003;4.1312822266e+003;4.1264101563e+003;4.1369228516e+003;4.1335898438e+003;4.1417949219e+003;4.1291025391e+003;4.1357690430e+003;4.1550000000e+003;4.1401284180e+003;4.1420512695e+003;4.1456411133e+003;4.1448715820e+003;
1.2812500000e+000;4.0932050781e+003;4.0935898438e+003;4.0902563477e+003;4.0878205566e+003;4.0975639648e+003;4.0919230957e+003;4.0924357910e+003;4.0741025391e+003;4.0741025391e+003;4.0935898438e+003;4.0848718262e+003;4.0944870605e+003;4.0919230957e+003;4.0926923828e+003;
1.2890625000e+000;4.0950000000e+003;4.0967949219e+003;4.0897436523e+003;4.0944870605e+003;4.0964101563e+003;4.0915385742e+003;4.0923076172e+003;4.0707692871e+003;4.0732050781e+003;4.0917949219e+003;4.0903845215e+003;4.0947436523e+003;4.0912819824e+003;4.0919230957e+003;
1.2968750000e+000;4.1476923828e+003;4.1562822266e+003;4.1402563477e+003;4.1437177734e+003;4.1315385742e+003;4.1392309570e+003;4.1419228516e+003;4.1294873047e+003;4.1370512695e+003;4.1576923828e+003;4.1566665039e+003;4.1547436523e+003;4.1524360352e+003;4.1475639648e+003;
1.3046875000e+000;4.1256411133e+003;4.1353847656e+003;4.1215385742e+003;4.1212822266e+003;4.1117949219e+003;4.1239741211e+003;4.1246152344e+003;4.1174360352e+003;4.1265385742e+003;4.1430771484e+003;4.1384614258e+003;4.1376923828e+003;4.1369228516e+003;4.1289741211e+003;
1.3125000000e+000;4.1292309570e+003;4.1375639648e+003;4.1234614258e+003;4.1312822266e+003;4.1605126953e+003;4.1261538086e+003;4.1266665039e+003;4.1292309570e+003;4.1450000000e+003;4.1434614258e+003;4.1371796875e+003;4.1284614258e+003;4.1385898438e+003;4.1265385742e+003;
1.3203125000e+000;4.1475639648e+003;4.1579487305e+003;4.1405126953e+003;4.1510258789e+003;4.1762822266e+003;4.1358974609e+003;4.1380771484e+003;4.1488461914e+003;4.1666665039e+003;4.1644873047e+003;4.1535898438e+003;4.1473076172e+003;4.1546152344e+003;4.1429487305e+003;
1.3281250000e+000;4.0955129395e+003;4.1070512695e+003;4.0924357910e+003;4.0980771484e+003;4.0988461914e+003;4.0838461914e+003;4.0852563477e+003;4.0991025391e+003;4.1174360352e+003;4.1105126953e+003;4.0944870605e+003;4.1039741211e+003;4.0994873047e+003;4.0885898438e+003;
1.3359375000e+000;4.0979487305e+003;4.1058974609e+003;4.0950000000e+003;4.0947436523e+003;4.0938461914e+003;4.0869230957e+003;4.0887180176e+003;4.0991025391e+003;4.1162822266e+003;4.1071796875e+003;4.0944870605e+003;4.1051284180e+003;4.1000000000e+003;4.0878205566e+003;
1.3437500000e+000;4.1341025391e+003;4.1365385742e+003;4.1285898438e+003;4.1255126953e+003;4.1315385742e+003;4.1201284180e+003;4.1235898438e+003;4.1403847656e+003;4.1535898438e+003;4.1508974609e+003;4.1467949219e+003;4.1380771484e+003;4.1384614258e+003;4.1220512695e+003;
1.3515625000e+000;4.0965385742e+003;4.1037177734e+003;4.0915385742e+003;4.0930769043e+003;4.0966665039e+003;4.0883332520e+003;4.0907692871e+003;4.1042309570e+003;4.1188461914e+003;4.1158974609e+003;4.1094873047e+003;4.1029487305e+003;4.1006411133e+003;4.0853845215e+003;
1.3593750000e+000;4.0883332520e+003;4.0988461914e+003;4.0820512695e+003;4.0870512695e+003;4.0929487305e+003;4.0825642090e+003;4.0848718262e+003;4.0925642090e+003;4.1105126953e+003;4.1058974609e+003;4.0953845215e+003;4.0951281738e+003;4.0896154785e+003;4.0758974609e+003;
1.3671875000e+000;4.1142309570e+003;4.1235898438e+003;4.1057690430e+003;4.1123076172e+003;4.1237177734e+003;4.1062822266e+003;4.1087177734e+003;4.1130771484e+003;4.1342309570e+003;4.1293588867e+003;4.1151284180e+003;4.1202563477e+003;4.1129487305e+003;4.1001284180e+003;
1.3750000000e+000;4.0452563477e+003;4.0470512695e+003;4.0360256348e+003;4.0441025391e+003;4.0278205566e+003;4.0405129395e+003;4.0392307129e+003;4.0294870605e+003;4.0403845215e+003;4.0455129395e+003;4.0502563477e+003;4.0500000000e+003;4.0430769043e+003;4.0341025391e+003;
1.3828125000e+000;4.0742307129e+003;4.0769230957e+003;4.0693588867e+003;4.0746154785e+003;4.0852563477e+003;4.0658974609e+003;4.0665385742e+003;4.0548718262e+003;4.0616667480e+003;4.0711538086e+003;4.0710256348e+003;4.0787180176e+003;4.0766667480e+003;4.0666667480e+003;
1.3906250000e+000;4.0716667480e+003;4.0739743652e+003;4.0652563477e+003;4.0742307129e+003;4.0785898438e+003;4.0675642090e+003;4.0669230957e+003;4.0511538086e+003;4.0566667480e+003;4.0674357910e+003;4.0714101563e+003;4.0732050781e+003;4.0807692871e+003;4.0634614258e+003;
1.3984375000e+000;4.1252563477e+003;4.1265385742e+003;4.1134614258e+003;4.1132050781e+003;4.1105126953e+003;4.1176923828e+003;4.1143588867e+003;4.1046152344e+003;4.1089741211e+003;4.1253847656e+003;4.1337177734e+003;4.1248715820e+003;4.1374360352e+003;4.1180771484e+003;
1.4062500000e+000;4.1147436523e+003;4.1137177734e+003;4.1056411133e+003;4.0966665039e+003;4.0989741211e+003;4.1058974609e+003;4.1020512695e+003;4.0971796875e+003;4.1034614258e+003;4.1179487305e+003;4.1252563477e+003;4.1179487305e+003;4.1229487305e+003;4.1098715820e+003;
1.4140625000e+000;4.1117949219e+003;4.1105126953e+003;4.1051284180e+003;4.1073076172e+003;4.1217949219e+003;4.0956411133e+003;4.0987177734e+003;4.0926923828e+003;4.1117949219e+003;4.1087177734e+003;4.1094873047e+003;4.1096152344e+003;4.1079487305e+003;4.0996152344e+003;
1.4218750000e+000;4.1047436523e+003;4.1105126953e+003;4.0919230957e+003;4.1151284180e+003;4.0996152344e+003;4.0865385742e+003;4.0848718262e+003;4.0946154785e+003;4.1098715820e+003;4.1133334961e+003;4.0989741211e+003;4.1080771484e+003;4.1051284180e+003;4.0994873047e+003;
1.4296875000e+000;4.0923076172e+003;4.0996152344e+003;4.0820512695e+003;4.0971796875e+003;4.0824357910e+003;4.0733332520e+003;4.0753845215e+003;4.0814101563e+003;4.0953845215e+003;4.1010258789e+003;4.0896154785e+003;4.0980771484e+003;4.0955129395e+003;4.0908974609e+003;
1.4375000000e+000;4.1656411133e+003;4.1693588867e+003;4.1592309570e+003;4.1487177734e+003;4.1532050781e+003;4.1328203125e+003;4.1415385742e+003;4.1562822266e+003;4.1760258789e+003;4.1812822266e+003;4.1858974609e+003;4.1756411133e+003;4.1675639648e+003;4.1674360352e+003;
1.4453125000e+000;4.1314101563e+003;4.1305126953e+003;4.1251284180e+003;4.1192309570e+003;4.1174360352e+003;4.1019228516e+003;4.1065385742e+003;4.1244873047e+003;4.1423076172e+003;4.1462822266e+003;4.1503847656e+003;4.1397436523e+003;4.1314101563e+003;4.1303847656e+003;
1.4531250000e+000;4.1329487305e+003;4.1258974609e+003;4.1228203125e+003;4.1256411133e+003;4.1089741211e+003;4.1035898438e+003;4.1076923828e+003;4.1170512695e+003;4.1283334961e+003;4.1396152344e+003;4.1333334961e+003;4.1305126953e+003;4.1344873047e+003;4.1217949219e+003;
1.4609375000e+000;4.1723076172e+003;4.1657690430e+003;4.1596152344e+003;4.1612822266e+003;4.1433334961e+003;4.1401284180e+003;4.1458974609e+003;4.1515385742e+003;4.1614101563e+003;4.1782050781e+003;4.1685898438e+003;4.1693588867e+003;4.1732050781e+003;4.1594873047e+003;
1.4687500000e+000;4.1100000000e+003;4.1080771484e+003;4.1006411133e+003;4.1025639648e+003;4.1042309570e+003;4.0948718262e+003;4.0957692871e+003;4.0907692871e+003;4.1001284180e+003;4.1098715820e+003;4.1085898438e+003;4.1146152344e+003;4.0964101563e+003;4.0998715820e+003;
1.4765625000e+000;4.1082050781e+003;4.1067949219e+003;4.1006411133e+003;4.1051284180e+003;4.1165385742e+003;4.0937180176e+003;4.0962822266e+003;4.0887180176e+003;4.0967949219e+003;4.1060258789e+003;4.0987177734e+003;4.1080771484e+003;4.0975639648e+003;4.0962822266e+003;
1.4843750000e+000;4.1225639648e+003;4.1212822266e+003;4.1156411133e+003;4.1225639648e+003;4.1362822266e+003;4.1043588867e+003;4.1093588867e+003;4.1037177734e+003;4.1092309570e+003;4.1220512695e+003;4.1044873047e+003;4.1191025391e+003;4.1182050781e+003;4.1096152344e+003;
1.4921875000e+000;4.1129487305e+003;4.1115385742e+003;4.1056411133e+003;4.1151284180e+003;4.1206411133e+003;4.0933332520e+003;4.0982050781e+003;4.0950000000e+003;4.0974360352e+003;4.1144873047e+003;4.0910256348e+003;4.1101284180e+003;4.1116665039e+003;4.1006411133e+003;
1.5000000000e+000;4.0962822266e+003;4.0952563477e+003;4.0817949219e+003;4.0915385742e+003;4.0728205566e+003;4.0792307129e+003;4.0765385742e+003;4.0643588867e+003;4.0684614258e+003;4.0832050781e+003;4.0887180176e+003;4.0864101563e+003;4.0783332520e+003;4.0805129395e+003;
1.5078125000e+000;4.1091025391e+003;4.1082050781e+003;4.0962822266e+003;4.1010258789e+003;4.0896154785e+003;4.0864101563e+003;4.0850000000e+003;4.0792307129e+003;4.0850000000e+003;4.0996152344e+003;4.1000000000e+003;4.0980771484e+003;4.0935898438e+003;4.0925642090e+003;
1.5156250000e+000;4.0737180176e+003;4.0593588867e+003;4.0607692871e+003;4.0525642090e+003;4.0476923828e+003;4.0396154785e+003;4.0393588867e+003;4.0355129395e+003;4.0502563477e+003;4.0588461914e+003;4.0541025391e+003;4.0641025391e+003;4.0493588867e+003;4.0516667480e+003;
1.5234375000e+000;4.0389743652e+003;4.0241025391e+003;4.0251281738e+003;4.0264101563e+003;3.9923076172e+003;4.0026923828e+003;3.9960256348e+003;4.0020512695e+003;4.0192307129e+003;4.0221794434e+003;4.0189743652e+003;4.0341025391e+003;4.0137180176e+003;4.0242307129e+003;
1.5312500000e+000;4.0015385742e+003;3.9889743652e+003;3.9923076172e+003;3.9926923828e+003;3.9571794434e+003;3.9650000000e+003;3.9602563477e+003;3.9628205566e+003;3.9785898438e+003;3.9773076172e+003;3.9805129395e+003;3.9969230957e+003;3.9748718262e+003;3.9858974609e+003;
1.5390625000e+000;4.0538461914e+003;4.0402563477e+003;4.0448718262e+003;4.0355129395e+003;4.0133332520e+003;4.0060256348e+003;4.0001281738e+003;4.0074357910e+003;4.0214101563e+003;4.0206411133e+003;4.0297436523e+003;4.0421794434e+003;4.0167949219e+003;4.0312819824e+003;
1.5468750000e+000;4.0373076172e+003;4.0388461914e+003;4.0252563477e+003;4.0415385742e+003;4.0083332520e+003;3.9983332520e+003;3.9941025391e+003;3.9916667480e+003;4.0039743652e+003;4.0044870605e+003;3.9983332520e+003;4.0151281738e+003;3.9994870605e+003;4.0103845215e+003;
1.5546875000e+000;4.0946154785e+003;4.0961538086e+003;4.0801281738e+003;4.0894870605e+003;4.0670512695e+003;4.0488461914e+003;4.0491025391e+003;4.0466667480e+003;4.0587180176e+003;4.0610256348e+003;4.0529487305e+003;4.0670512695e+003;4.0555129395e+003;4.0608974609e+003;
1.5625000000e+000;4.0725642090e+003;4.0623076172e+003;4.0632050781e+003;4.0498718262e+003;4.0208974609e+003;4.0374357910e+003;4.0294870605e+003;4.0278205566e+003;4.0324357910e+003;4.0357692871e+003;4.0264101563e+003;4.0473076172e+003;4.0248718262e+003;4.0332050781e+003;
1.5703125000e+000;4.0679487305e+003;4.0571794434e+003;4.0574357910e+003;4.0537180176e+003;4.0167949219e+003;4.0344870605e+003;4.0279487305e+003;4.0203845215e+003;4.0210256348e+003;4.0252563477e+003;4.0192307129e+003;4.0447436523e+003;4.0150000000e+003;4.0300000000e+003;
1.5781250000e+000;4.1176923828e+003;4.1076923828e+003;4.1038461914e+003;4.1124360352e+003;4.0828205566e+003;4.0766667480e+003;4.0746154785e+003;4.0653845215e+003;4.0588461914e+003;4.0710256348e+003;4.0729487305e+003;4.0979487305e+003;4.0621794434e+003;4.0817949219e+003;
1.5859375000e+000;4.1070512695e+003;4.0989741211e+003;4.0955129395e+003;4.1003847656e+003;4.0805129395e+003;4.0701281738e+003;4.0653845215e+003;4.0557692871e+003;4.0467949219e+003;4.0608974609e+003;4.0655129395e+003;4.0873076172e+003;4.0569230957e+003;4.0710256348e+003;
1.5937500000e+000;4.0916667480e+003;4.0887180176e+003;4.0828205566e+003;4.0832050781e+003;4.0712819824e+003;4.0630769043e+003;4.0548718262e+003;4.0420512695e+003;4.0320512695e+003;4.0453845215e+003;4.0507692871e+003;4.0687180176e+003;4.0485898438e+003;4.0548718262e+003;
1.6015625000e+000;4.1544873047e+003;4.1634614258e+003;4.1429487305e+003;4.1467949219e+003;4.1407690430e+003;4.1287177734e+003;4.1221796875e+003;4.1087177734e+003;4.1020512695e+003;4.1155126953e+003;4.1165385742e+003;4.1247436523e+003;4.1171796875e+003;4.1194873047e+003;
1.6093750000e+000;4.1789741211e+003;4.1874360352e+003;4.1638461914e+003;4.1732050781e+003;4.1651284180e+003;4.1470512695e+003;4.1433334961e+003;4.1350000000e+003;4.1319228516e+003;4.1471796875e+003;4.1452563477e+003;4.1507690430e+003;4.1387177734e+003;4.1458974609e+003;
1.6171875000e+000;4.1574360352e+003;4.1607690430e+003;4.1394873047e+003;4.1529487305e+003;4.1416665039e+003;4.1208974609e+003;4.1180771484e+003;4.1120512695e+003;4.1125639648e+003;4.1283334961e+003;4.1247436523e+003;4.1314101563e+003;4.1126923828e+003;4.1234614258e+003;
1.6250000000e+000;4.1812822266e+003;4.1855126953e+003;4.1614101563e+003;4.1650000000e+003;4.1512822266e+003;4.1411538086e+003;4.1401284180e+003;4.1332050781e+003;4.1461538086e+003;4.1519228516e+003;4.1443588867e+003;4.1560258789e+003;4.1406411133e+003;4.1437177734e+003;
1.6328125000e+000;4.1557690430e+003;4.1598715820e+003;4.1392309570e+003;4.1408974609e+003;4.1252563477e+003;4.1146152344e+003;4.1151284180e+003;4.1091025391e+003;4.1234614258e+003;4.1255126953e+003;4.1246152344e+003;4.1342309570e+003;4.1151284180e+003;4.1238461914e+003;
1.6406250000e+000;4.2241025391e+003;4.2214101563e+003;4.2078203125e+003;4.2096152344e+003;4.1888461914e+003;4.1594873047e+003;4.1616665039e+003;4.1706411133e+003;4.1842309570e+003;4.1912822266e+003;4.1808974609e+003;4.1939741211e+003;4.1866665039e+003;4.1880771484e+003;
1.6484375000e+000;4.2148715820e+003;4.2141025391e+003;4.2011538086e+003;4.2020512695e+003;4.1630771484e+003;4.1576923828e+003;4.1620512695e+003;4.1742309570e+003;4.1843588867e+003;4.1867949219e+003;4.1729487305e+003;4.1846152344e+003;4.1703847656e+003;4.1746152344e+003;
1.6562500000e+000;4.2670512695e+003;4.2669228516e+003;4.2487177734e+003;4.2406411133e+003;4.2219228516e+003;4.2057690430e+003;4.2117949219e+003;4.2224360352e+003;4.2335898438e+003;4.2348715820e+003;4.2241025391e+003;4.2311538086e+003;4.2185898438e+003;4.2234614258e+003;
1.6640625000e+000;4.2242309570e+003;4.2207690430e+003;4.2103847656e+003;4.1991025391e+003;4.2119228516e+003;4.1810258789e+003;4.1788461914e+003;4.1852563477e+003;4.1884614258e+003;4.1955126953e+003;4.1811538086e+003;4.1996152344e+003;4.1765385742e+003;4.1882050781e+003;
1.6718750000e+000;4.1580771484e+003;4.1543588867e+003;4.1467949219e+003;4.1469228516e+003;4.1344873047e+003;4.1439741211e+003;4.1344873047e+003;4.1165385742e+003;4.1147436523e+003;4.1237177734e+003;4.1223076172e+003;4.1344873047e+003;4.1229487305e+003;4.1294873047e+003;
1.6796875000e+000;4.1516665039e+003;4.1464101563e+003;4.1396152344e+003;4.1403847656e+003;4.1352563477e+003;4.1397436523e+003;4.1296152344e+003;4.1094873047e+003;4.1074360352e+003;4.1160258789e+003;4.1147436523e+003;4.1256411133e+003;4.1200000000e+003;4.1215385742e+003;
1.6875000000e+000;4.1579487305e+003;4.1542309570e+003;4.1396152344e+003;4.1539741211e+003;4.1625639648e+003;4.1426923828e+003;4.1373076172e+003;4.1098715820e+003;4.1083334961e+003;4.1198715820e+003;4.1216665039e+003;4.1319228516e+003;4.1252563477e+003;4.1237177734e+003;
1.6953125000e+000;4.1751284180e+003;4.1742309570e+003;4.1544873047e+003;4.1658974609e+003;4.1726923828e+003;4.1593588867e+003;4.1511538086e+003;4.1289741211e+003;4.1294873047e+003;4.1441025391e+003;4.1462822266e+003;4.1538461914e+003;4.1434614258e+003;4.1450000000e+003;
1.7031250000e+000;4.1175639648e+003;4.1206411133e+003;4.1008974609e+003;4.1039741211e+003;4.1087177734e+003;4.1137177734e+003;4.0966665039e+003;4.0815385742e+003;4.0878205566e+003;4.1000000000e+003;4.0973076172e+003;4.1057690430e+003;4.0950000000e+003;4.0988461914e+003;
1.7109375000e+000;4.1110258789e+003;4.1161538086e+003;4.0964101563e+003;4.1008974609e+003;4.1026923828e+003;4.1071796875e+003;4.0917949219e+003;4.0753845215e+003;4.0862819824e+003;4.0939743652e+003;4.0876923828e+003;4.0980771484e+003;4.0920512695e+003;4.0939743652e+003;
1.7187500000e+000;4.2026923828e+003;4.2076923828e+003;4.1848715820e+003;4.1902563477e+003;4.1729487305e+003;4.1652563477e+003;4.1588461914e+003;4.1644873047e+003;4.1853847656e+003;4.1875639648e+003;4.1803847656e+003;4.1812822266e+003;4.1743588867e+003;4.1837177734e+003;
1.7265625000e+000;4.1669228516e+003;4.1665385742e+003;4.1498715820e+003;4.1506411133e+003;4.1375639648e+003;4.1285898438e+003;4.1194873047e+003;4.1302563477e+003;4.1515385742e+003;4.1507690430e+003;4.1470512695e+003;4.1451284180e+003;4.1369228516e+003;4.1480771484e+003;
1.7343750000e+000;4.1464101563e+003;4.1412822266e+003;4.1306411133e+003;4.1279487305e+003;4.1262822266e+003;4.1100000000e+003;4.1000000000e+003;4.1103847656e+003;4.1316665039e+003;4.1288461914e+003;4.1262822266e+003;4.1247436523e+003;4.1208974609e+003;4.1280771484e+003;
1.7421875000e+000;4.1770512695e+003;4.1703847656e+003;4.1615385742e+003;4.1588461914e+003;4.1676923828e+003;4.1385898438e+003;4.1316665039e+003;4.1420512695e+003;4.1633334961e+003;4.1615385742e+003;4.1561538086e+003;4.1573076172e+003;4.1610258789e+003;4.1611538086e+003;
1.7500000000e+000;4.2126923828e+003;4.2110258789e+003;4.1948715820e+003;4.1975639648e+003;4.1807690430e+003;4.1489741211e+003;4.1551284180e+003;4.1837177734e+003;4.1993588867e+003;4.2024360352e+003;4.1985898438e+003;4.2053847656e+003;4.1966665039e+003;4.2011538086e+003;
1.7578125000e+000;4.2153847656e+003;4.2110258789e+003;4.1961538086e+003;4.1957690430e+003;4.1788461914e+003;4.1466665039e+003;4.1541025391e+003;4.1814101563e+003;4.1967949219e+003;4.2000000000e+003;4.1994873047e+003;4.2043588867e+003;4.1930771484e+003;4.2006411133e+003;
1.7656250000e+000;4.1824360352e+003;4.1715385742e+003;4.1680771484e+003;4.1669228516e+003;4.1430771484e+003;4.1326923828e+003;4.1355126953e+003;4.1538461914e+003;4.1646152344e+003;4.1730771484e+003;4.1650000000e+003;4.1801284180e+003;4.1664101563e+003;4.1773076172e+003;
1.7734375000e+000;4.1874360352e+003;4.1750000000e+003;4.1707690430e+003;4.1682050781e+003;4.1738461914e+003;4.1620512695e+003;4.1708974609e+003;4.1584614258e+003;4.1617949219e+003;4.1692309570e+003;4.1737177734e+003;4.1770512695e+003;4.1751284180e+003;4.1732050781e+003;
1.7812500000e+000;4.1864101563e+003;4.1755126953e+003;4.1711538086e+003;4.1680771484e+003;4.1875639648e+003;4.1687177734e+003;4.1760258789e+003;4.1617949219e+003;4.1630771484e+003;4.1719228516e+003;4.1732050781e+003;4.1788461914e+003;4.1769228516e+003;4.1729487305e+003;
1.7890625000e+000;4.1308974609e+003;4.1274360352e+003;4.1202563477e+003;4.1202563477e+003;4.1207690430e+003;4.1410258789e+003;4.1383334961e+003;4.1087177734e+003;4.1094873047e+003;4.1194873047e+003;4.1155126953e+003;4.1266665039e+003;4.1180771484e+003;4.1247436523e+003;
1.7968750000e+000;4.1844873047e+003;4.1826923828e+003;4.1629487305e+003;4.1846152344e+003;4.1816665039e+003;4.1960258789e+003;4.1874360352e+003;4.1764101563e+003;4.1834614258e+003;4.1905126953e+003;4.1851284180e+003;4.1816665039e+003;4.1829487305e+003;4.1855126953e+003;
1.8046875000e+000;4.1673076172e+003;4.1680771484e+003;4.1461538086e+003;4.1702563477e+003;4.1797436523e+003;4.1803847656e+003;4.1705126953e+003;4.1617949219e+003;4.1708974609e+003;4.1742309570e+003;4.1648715820e+003;4.1651284180e+003;4.1655126953e+003;4.1707690430e+003;
1.8125000000e+000;4.2134614258e+003;4.2037177734e+003;4.1989741211e+003;4.1923076172e+003;4.2084614258e+003;4.2079487305e+003;4.2019228516e+003;4.2108974609e+003;4.2189741211e+003;4.2212822266e+003;4.2055126953e+003;4.2074360352e+003;4.2030771484e+003;4.2135898438e+003;
1.8203125000e+000;4.1805126953e+003;4.1665385742e+003;4.1694873047e+003;4.1584614258e+003;4.1624360352e+003;4.1729487305e+003;4.1667949219e+003;4.1816665039e+003;4.1888461914e+003;4.1883334961e+003;4.1758974609e+003;4.1773076172e+003;4.1724360352e+003;4.1789741211e+003;
1.8281250000e+000;4.1512822266e+003;4.1385898438e+003;4.1403847656e+003;4.1326923828e+003;4.1294873047e+003;4.1414101563e+003;4.1358974609e+003;4.1511538086e+003;4.1591025391e+003;4.1541025391e+003;4.1466665039e+003;4.1484614258e+003;4.1451284180e+003;4.1475639648e+003;
1.8359375000e+000;4.1684614258e+003;4.1614101563e+003;4.1535898438e+003;4.1516665039e+003;4.1498715820e+003;4.1501284180e+003;4.1467949219e+003;4.1611538086e+003;4.1710258789e+003;4.1637177734e+003;4.1585898438e+003;4.1620512695e+003;4.1612822266e+003;4.1620512695e+003;
1.8437500000e+000;4.1970512695e+003;4.1826923828e+003;4.1865385742e+003;4.1706411133e+003;4.1630771484e+003;4.1452563477e+003;4.1467949219e+003;4.1728203125e+003;4.1812822266e+003;4.1856411133e+003;4.1719228516e+003;4.1843588867e+003;4.1801284180e+003;4.1866665039e+003;
1.8515625000e+000;4.1924360352e+003;4.1715385742e+003;4.1812822266e+003;4.1621796875e+003;4.1501284180e+003;4.1369228516e+003;4.1406411133e+003;4.1643588867e+003;4.1717949219e+003;4.1760258789e+003;4.1698715820e+003;4.1791025391e+003;4.1757690430e+003;4.1784614258e+003;
1.8593750000e+000;4.2398715820e+003;4.2166665039e+003;4.2221796875e+003;4.2106411133e+003;4.1879487305e+003;4.1778203125e+003;4.1847436523e+003;4.2074360352e+003;4.2135898438e+003;4.2203847656e+003;4.2201284180e+003;4.2316665039e+003;4.2180771484e+003;4.2242309570e+003;
1.8671875000e+000;4.2223076172e+003;4.2017949219e+003;4.2052563477e+003;4.2017949219e+003;4.1717949219e+003;4.1664101563e+003;4.1732050781e+003;4.1910258789e+003;4.1948715820e+003;4.2033334961e+003;4.2012822266e+003;4.2192309570e+003;4.1967949219e+003;4.2094873047e+003;
1.8750000000e+000;4.2171796875e+003;4.2002563477e+003;4.2066665039e+003;4.1948715820e+003;4.1946152344e+003;4.1873076172e+003;4.1930771484e+003;4.1839741211e+003;4.1783334961e+003;4.1921796875e+003;4.1971796875e+003;4.2053847656e+003;4.2005126953e+003;4.2024360352e+003;
1.8828125000e+000;4.2292309570e+003;4.2105126953e+003;4.2201284180e+003;4.2024360352e+003;4.2141025391e+003;4.2061538086e+003;4.2092309570e+003;4.1996152344e+003;4.1923076172e+003;4.2073076172e+003;4.2132050781e+003;4.2156411133e+003;4.2170512695e+003;4.2133334961e+003;
1.8906250000e+000;4.1656411133e+003;4.1444873047e+003;4.1582050781e+003;4.1506411133e+003;4.1591025391e+003;4.1639741211e+003;4.1610258789e+003;4.1479487305e+003;4.1420512695e+003;4.1508974609e+003;4.1485898438e+003;4.1575639648e+003;4.1515385742e+003;4.1516665039e+003;
1.8984375000e+000;4.1652563477e+003;4.1456411133e+003;4.1560258789e+003;4.1551284180e+003;4.1629487305e+003;4.1697436523e+003;4.1678203125e+003;4.1520512695e+003;4.1503847656e+003;4.1551284180e+003;4.1456411133e+003;4.1591025391e+003;4.1511538086e+003;4.1535898438e+003;
1.9062500000e+000;4.2341025391e+003;4.2214101563e+003;4.2226923828e+003;4.2173076172e+003;4.2334614258e+003;4.2393588867e+003;4.2405126953e+003;4.2334614258e+003;4.2403847656e+003;4.2432050781e+003;4.2244873047e+003;4.2328203125e+003;4.2282050781e+003;4.2300000000e+003;
1.9140625000e+000;4.2248715820e+003;4.2148715820e+003;4.2153847656e+003;4.2057690430e+003;4.2184614258e+003;4.2333334961e+003;4.2315385742e+003;4.2292309570e+003;4.2371796875e+003;4.2394873047e+003;4.2237177734e+003;4.2271796875e+003;4.2197436523e+003;4.2220512695e+003;
1.9218750000e+000;4.2579487305e+003;4.2448715820e+003;4.2432050781e+003;4.2401284180e+003;4.2383334961e+003;4.2516665039e+003;4.2467949219e+003;4.2407690430e+003;4.2529487305e+003;4.2542309570e+003;4.2484614258e+003;4.2503847656e+003;4.2394873047e+003;4.2415385742e+003;
1.9296875000e+000;4.3019228516e+003;4.2858974609e+003;4.2851284180e+003;4.2802563477e+003;4.2887177734e+003;4.2820512695e+003;4.2805126953e+003;4.2803847656e+003;4.2955126953e+003;4.2982050781e+003;4.2870512695e+003;4.2908974609e+003;4.2851284180e+003;4.2853847656e+003;
1.9375000000e+000;4.2700000000e+003;4.2533334961e+003;4.2584614258e+003;4.2483334961e+003;4.2634614258e+003;4.2457690430e+003;4.2489741211e+003;4.2532050781e+003;4.2691025391e+003;4.2726923828e+003;4.2535898438e+003;4.2602563477e+003;4.2629487305e+003;4.2574360352e+003;
1.9453125000e+000;4.2644873047e+003;4.2517949219e+003;4.2535898438e+003;4.2461538086e+003;4.2496152344e+003;4.2430771484e+003;4.2485898438e+003;4.2487177734e+003;4.2638461914e+003;4.2683334961e+003;4.2488461914e+003;4.2555126953e+003;4.2606411133e+003;4.2514101563e+003;
1.9531250000e+000;4.3023076172e+003;4.2957690430e+003;4.2885898438e+003;4.2860258789e+003;4.2757690430e+003;4.2801284180e+003;4.2875639648e+003;4.2869228516e+003;4.3016665039e+003;4.3082050781e+003;4.2885898438e+003;4.2950000000e+003;4.3001284180e+003;4.2894873047e+003;
1.9609375000e+000;4.3093588867e+003;4.2932050781e+003;4.3010258789e+003;4.2797436523e+003;4.3070512695e+003;4.2692309570e+003;4.2815385742e+003;4.2957690430e+003;4.3019228516e+003;4.3174360352e+003;4.3052563477e+003;4.3032050781e+003;4.3075639648e+003;4.3019228516e+003;
1.9687500000e+000;4.3144873047e+003;4.2957690430e+003;4.3069228516e+003;4.2870512695e+003;4.3075639648e+003;4.2729487305e+003;4.2844873047e+003;4.2994873047e+003;4.3046152344e+003;4.3265385742e+003;4.3097436523e+003;4.3075639648e+003;4.3152563477e+003;4.3058974609e+003;
1.9765625000e+000;4.2779487305e+003;4.2810258789e+003;4.2747436523e+003;4.2587177734e+003;4.2564101563e+003;4.2511538086e+003;4.2579487305e+003;4.2620512695e+003;4.2546152344e+003;4.2805126953e+003;4.2779487305e+003;4.2751284180e+003;4.2820512695e+003;4.2739741211e+003;
1.9843750000e+000;4.4016665039e+003;4.3829487305e+003;4.3956411133e+003;4.3697436523e+003;4.3764101563e+003;4.3667949219e+003;4.3801284180e+003;4.3819228516e+003;4.3806411133e+003;4.4082050781e+003;4.3997436523e+003;4.4041025391e+003;4.4019228516e+003;4.3997436523e+003;
1.9921875000e+000;4.4543588867e+003;4.4507690430e+003;4.4366665039e+003;4.4224360352e+003;4.4407690430e+003;4.4223076172e+003;4.4287177734e+003;4.4246152344e+003;4.4220512695e+003;4.4485898438e+003;4.4430771484e+003;4.4400000000e+003;4.4410258789e+003;4.4416665039e+003;
2.0000000000e+000;4.4605126953e+003;4.4578203125e+003;4.4416665039e+003;4.4246152344e+003;4.4503847656e+003;4.4273076172e+003;4.4342309570e+003;4.4338461914e+003;4.4328203125e+003;4.4601284180e+003;4.4539741211e+003;4.4447436523e+003;4.4514101563e+003;4.4467949219e+003;
2.0078125000e+000;4.3310258789e+003;4.3185898438e+003;4.3178203125e+003;4.2992309570e+003;4.3076923828e+003;4.3150000000e+003;4.3211538086e+003;4.3107690430e+003;4.3211538086e+003;4.3373076172e+003;4.3226923828e+003;4.3119228516e+003;4.3278203125e+003;4.3170512695e+003;
2.0156250000e+000;4.3202563477e+003;4.3112822266e+003;4.3089741211e+003;4.2938461914e+003;4.2996152344e+003;4.3074360352e+003;4.3120512695e+003;4.3037177734e+003;4.3112822266e+003;4.3250000000e+003;4.3089741211e+003;4.3028203125e+003;4.3160258789e+003;4.3071796875e+003;
2.0234375000e+000;4.2584614258e+003;4.2555126953e+003;4.2566665039e+003;4.2507690430e+003;4.2493588867e+003;4.2565385742e+003;4.2611538086e+003;4.2592309570e+003;4.2573076172e+003;4.2643588867e+003;4.2548715820e+003;4.2574360352e+003;4.2626923828e+003;4.2560258789e+003;
2.0312500000e+000;4.2366665039e+003;4.2323076172e+003;4.2378203125e+003;4.2344873047e+003;4.2283334961e+003;4.2371796875e+003;4.2465385742e+003;4.2426923828e+003;4.2406411133e+003;4.2435898438e+003;4.2384614258e+003;4.2419228516e+003;4.2469228516e+003;4.2403847656e+003;
2.0390625000e+000;4.2682050781e+003;4.2598715820e+003;4.2643588867e+003;4.2511538086e+003;4.2555126953e+003;4.2611538086e+003;4.2702563477e+003;4.2732050781e+003;4.2783334961e+003;4.2844873047e+003;4.2689741211e+003;4.2708974609e+003;4.2779487305e+003;4.2758974609e+003;
2.0468750000e+000;4.2416665039e+003;4.2364101563e+003;4.2367949219e+003;4.2243588867e+003;4.2365385742e+003;4.2387177734e+003;4.2405126953e+003;4.2448715820e+003;4.2480771484e+003;4.2550000000e+003;4.2397436523e+003;4.2421796875e+003;4.2482050781e+003;4.2457690430e+003;
2.0546875000e+000;4.2983334961e+003;4.2970512695e+003;4.2885898438e+003;4.2760258789e+003;4.3041025391e+003;4.2869228516e+003;4.2884614258e+003;4.2876923828e+003;4.2900000000e+003;4.2980771484e+003;4.2967949219e+003;4.2937177734e+003;4.3006411133e+003;4.2942309570e+003;
2.0625000000e+000;4.3778203125e+003;4.3729487305e+003;4.3673076172e+003;4.3473076172e+003;4.3778203125e+003;4.3516665039e+003;4.3584614258e+003;4.3607690430e+003;4.3647436523e+003;4.3774360352e+003;4.3784614258e+003;4.3732050781e+003;4.3791025391e+003;4.3726923828e+003;
2.0703125000e+000;4.3973076172e+003;4.3798715820e+003;4.3942309570e+003;4.3715385742e+003;4.3856411133e+003;4.3594873047e+003;4.3669228516e+003;4.3733334961e+003;4.3719228516e+003;4.3934614258e+003;4.3891025391e+003;4.3900000000e+003;4.3962822266e+003;4.3889741211e+003;
2.0781250000e+000;4.4208974609e+003;4.4069228516e+003;4.4150000000e+003;4.3993588867e+003;4.4157690430e+003;4.3832050781e+003;4.3893588867e+003;4.3920512695e+003;4.3897436523e+003;4.4105126953e+003;4.4110258789e+003;4.4080771484e+003;4.4183334961e+003;4.4092309570e+003;
2.0859375000e+000;4.4705126953e+003;4.4612822266e+003;4.4605126953e+003;4.4464101563e+003;4.4684614258e+003;4.4298715820e+003;4.4343588867e+003;4.4380771484e+003;4.4379487305e+003;4.4585898438e+003;4.4638461914e+003;4.4562822266e+003;4.4664101563e+003;4.4585898438e+003;
2.0937500000e+000;4.4937177734e+003;4.4871796875e+003;4.4826923828e+003;4.4629487305e+003;4.4889741211e+003;4.4523076172e+003;4.4535898438e+003;4.4607690430e+003;4.4647436523e+003;4.4857690430e+003;4.4915385742e+003;4.4835898438e+003;4.4893588867e+003;4.4855126953e+003;
2.1015625000e+000;4.4365385742e+003;4.4317949219e+003;4.4328203125e+003;4.4074360352e+003;4.4275639648e+003;4.4146152344e+003;4.4117949219e+003;4.4106411133e+003;4.4157690430e+003;4.4367949219e+003;4.4238461914e+003;4.4229487305e+003;4.4526923828e+003;4.4276923828e+003;
2.1093750000e+000;4.3917949219e+003;4.3888461914e+003;4.3955126953e+003;4.3658974609e+003;4.4058974609e+003;4.3843588867e+003;4.3937177734e+003;4.3862822266e+003;4.3865385742e+003;4.3891025391e+003;4.3956411133e+003;4.3897436523e+003;4.3958974609e+003;4.3873076172e+003;
2.1171875000e+000;4.4375639648e+003;4.4275639648e+003;4.4429487305e+003;4.4066665039e+003;4.4434614258e+003;4.4250000000e+003;4.4362822266e+003;4.4288461914e+003;4.4308974609e+003;4.4361538086e+003;4.4406411133e+003;4.4348715820e+003;4.4428203125e+003;4.4312822266e+003;
2.1250000000e+000;4.4312822266e+003;4.4207690430e+003;4.4339741211e+003;4.4115385742e+003;4.4200000000e+003;4.4188461914e+003;4.4242309570e+003;4.4282050781e+003;4.4303847656e+003;4.4369228516e+003;4.4326923828e+003;4.4298715820e+003;4.4429487305e+003;4.4217949219e+003;
2.1328125000e+000;4.4184614258e+003;4.4171796875e+003;4.4111538086e+003;4.3892309570e+003;4.4365385742e+003;4.4006411133e+003;4.4079487305e+003;4.4097436523e+003;4.4137177734e+003;4.4124360352e+003;4.4111538086e+003;4.4084614258e+003;4.4246152344e+003;4.4050000000e+003;
2.1406250000e+000;4.4287177734e+003;4.4203847656e+003;4.4253847656e+003;4.4007690430e+003;4.4432050781e+003;4.4102563477e+003;4.4161538086e+003;4.4207690430e+003;4.4246152344e+003;4.4270512695e+003;4.4288461914e+003;4.4211538086e+003;4.4374360352e+003;4.4155126953e+003;
2.1484375000e+000;4.4408974609e+003;4.4305126953e+003;4.4360258789e+003;4.4194873047e+003;4.4361538086e+003;4.4188461914e+003;4.4214101563e+003;4.4255126953e+003;4.4285898438e+003;4.4370512695e+003;4.4489741211e+003;4.4346152344e+003;4.4542309570e+003;4.4275639648e+003;
2.1562500000e+000;4.4766665039e+003;4.4715385742e+003;4.4660258789e+003;4.4497436523e+003;4.4671796875e+003;4.4458974609e+003;4.4492309570e+003;4.4546152344e+003;4.4570512695e+003;4.4698715820e+003;4.4821796875e+003;4.4697436523e+003;4.4921796875e+003;4.4653847656e+003;
2.1640625000e+000;4.4379487305e+003;4.4343588867e+003;4.4289741211e+003;4.4060258789e+003;4.4323076172e+003;4.4029487305e+003;4.4029487305e+003;4.4083334961e+003;4.4048715820e+003;4.4287177734e+003;4.4364101563e+003;4.4401284180e+003;4.4538461914e+003;4.4355126953e+003;
2.1718750000e+000;4.4162822266e+003;4.4096152344e+003;4.4087177734e+003;4.3893588867e+003;4.4096152344e+003;4.3856411133e+003;4.3834614258e+003;4.3834614258e+003;4.3807690430e+003;4.4046152344e+003;4.4130771484e+003;4.4200000000e+003;4.4282050781e+003;4.4116665039e+003;
2.1796875000e+000;4.4061538086e+003;4.4005126953e+003;4.3988461914e+003;4.3801284180e+003;4.3961538086e+003;4.3787177734e+003;4.3739741211e+003;4.3744873047e+003;4.3776923828e+003;4.3991025391e+003;4.4017949219e+003;4.4135898438e+003;4.4158974609e+003;4.3998715820e+003;
2.1875000000e+000;4.3678203125e+003;4.3606411133e+003;4.3638461914e+003;4.3402563477e+003;4.3539741211e+003;4.3424360352e+003;4.3376923828e+003;4.3396152344e+003;4.3438461914e+003;4.3625639648e+003;4.3637177734e+003;4.3764101563e+003;4.3797436523e+003;4.3629487305e+003;
2.1953125000e+000;4.4244873047e+003;4.3991025391e+003;4.4273076172e+003;4.3870512695e+003;4.3983334961e+003;4.3894873047e+003;4.4000000000e+003;4.3928203125e+003;4.3911538086e+003;4.4023076172e+003;4.4226923828e+003;4.4188461914e+003;4.4301284180e+003;4.4100000000e+003;
2.2031250000e+000;4.4869228516e+003;4.4634614258e+003;4.4882050781e+003;4.4470512695e+003;4.4687177734e+003;4.4507690430e+003;4.4646152344e+003;4.4617949219e+003;4.4570512695e+003;4.4692309570e+003;4.4870512695e+003;4.4824360352e+003;4.4883334961e+003;4.4703847656e+003;
2.2109375000e+000;4.4893588867e+003;4.4737177734e+003;4.4900000000e+003;4.4525639648e+003;4.4847436523e+003;4.4612822266e+003;4.4746152344e+003;4.4771796875e+003;4.4692309570e+003;4.4817949219e+003;4.4905126953e+003;4.4912822266e+003;4.4889741211e+003;4.4752563477e+003;
2.2187500000e+000;4.4450000000e+003;4.4382050781e+003;4.4452563477e+003;4.4146152344e+003;4.4529487305e+003;4.4297436523e+003;4.4412822266e+003;4.4450000000e+003;4.4348715820e+003;4.4461538086e+003;4.4448715820e+003;4.4525639648e+003;4.4450000000e+003;4.4352563477e+003;
2.2265625000e+000;4.4410258789e+003;4.4328203125e+003;4.4380771484e+003;4.4193588867e+003;4.4410258789e+003;4.4324360352e+003;4.4479487305e+003;4.4507690430e+003;4.4498715820e+003;4.4526923828e+003;4.4444873047e+003;4.4487177734e+003;4.4543588867e+003;4.4380771484e+003;
2.2343750000e+000;4.4032050781e+003;4.3950000000e+003;4.4029487305e+003;4.3812822266e+003;4.4007690430e+003;4.4000000000e+003;4.4126923828e+003;4.4132050781e+003;4.4129487305e+003;4.4112822266e+003;4.4085898438e+003;4.4139741211e+003;4.4164101563e+003;4.3992309570e+003;
2.2421875000e+000;4.4048715820e+003;4.3862822266e+003;4.3987177734e+003;4.3762822266e+003;4.3906411133e+003;4.3855126953e+003;4.3911538086e+003;4.3947436523e+003;4.3951284180e+003;4.3951284180e+003;4.4032050781e+003;4.4028203125e+003;4.4080771484e+003;4.3952563477e+003;
2.2500000000e+000;4.3820512695e+003;4.3720512695e+003;4.3758974609e+003;4.3603847656e+003;4.3723076172e+003;4.3414101563e+003;4.3494873047e+003;4.3605126953e+003;4.3679487305e+003;4.3758974609e+003;4.3874360352e+003;4.3870512695e+003;4.3898715820e+003;4.3826923828e+003;
2.2578125000e+000;4.3850000000e+003;4.3869228516e+003;4.3766665039e+003;4.3662822266e+003;4.3730771484e+003;4.3428203125e+003;4.3521796875e+003;4.3617949219e+003;4.3688461914e+003;4.3798715820e+003;4.3873076172e+003;4.3896152344e+003;4.3973076172e+003;4.3838461914e+003;
2.2656250000e+000;4.2483334961e+003;4.2379487305e+003;4.2469228516e+003;4.2430771484e+003;4.2112822266e+003;4.2211538086e+003;4.2179487305e+003;4.2289741211e+003;4.2242309570e+003;4.2432050781e+003;4.2393588867e+003;4.2514101563e+003;4.2630771484e+003;4.2441025391e+003;
2.2734375000e+000;4.1767949219e+003;4.1606411133e+003;4.1841025391e+003;4.1748715820e+003;4.1812822266e+003;4.1591025391e+003;4.1574360352e+003;4.1608974609e+003;4.1564101563e+003;4.1603847656e+003;4.1874360352e+003;4.1882050781e+003;4.1829487305e+003;4.1784614258e+003;
2.2812500000e+000;4.1676923828e+003;4.1582050781e+003;4.1735898438e+003;4.1702563477e+003;4.1755126953e+003;4.1556411133e+003;4.1530771484e+003;4.1582050781e+003;4.1548715820e+003;4.1551284180e+003;4.1812822266e+003;4.1823076172e+003;4.1779487305e+003;4.1724360352e+003;
2.2890625000e+000;4.0676923828e+003;4.0632050781e+003;4.0721794434e+003;4.0705129395e+003;4.0530769043e+003;4.0766667480e+003;4.0671794434e+003;4.0621794434e+003;4.0662819824e+003;4.0533332520e+003;4.0685898438e+003;4.0791025391e+003;4.0819230957e+003;4.0733332520e+003;
2.2968750000e+000;4.0701281738e+003;4.0638461914e+003;4.0787180176e+003;4.0670512695e+003;4.0571794434e+003;4.0811538086e+003;4.0717949219e+003;4.0685898438e+003;4.0743588867e+003;4.0591025391e+003;4.0729487305e+003;4.0841025391e+003;4.0806411133e+003;4.0771794434e+003;
2.3046875000e+000;3.9998718262e+003;3.9858974609e+003;4.0193588867e+003;4.0075642090e+003;4.0011538086e+003;4.0250000000e+003;4.0156411133e+003;4.0182050781e+003;4.0191025391e+003;4.0006411133e+003;4.0116667480e+003;4.0202563477e+003;4.0069230957e+003;4.0094870605e+003;
2.3125000000e+000;3.9547436523e+003;3.9374357910e+003;3.9723076172e+003;3.9775642090e+003;3.9611538086e+003;3.9875642090e+003;3.9784614258e+003;3.9766667480e+003;3.9767949219e+003;3.9551281738e+003;3.9653845215e+003;3.9696154785e+003;3.9639743652e+003;3.9611538086e+003;
2.3203125000e+000;3.9691025391e+003;3.9647436523e+003;3.9746154785e+003;4.0057692871e+003;3.9839743652e+003;4.0037180176e+003;3.9917949219e+003;3.9866667480e+003;3.9997436523e+003;3.9676923828e+003;3.9729487305e+003;3.9746154785e+003;3.9865385742e+003;3.9730769043e+003;
2.3281250000e+000;3.9367949219e+003;3.9352563477e+003;3.9487180176e+003;3.9669230957e+003;3.9515385742e+003;3.9735898438e+003;3.9601281738e+003;3.9573076172e+003;3.9707692871e+003;3.9371794434e+003;3.9415385742e+003;3.9494870605e+003;3.9512819824e+003;3.9444870605e+003;
2.3359375000e+000;3.9048718262e+003;3.9003845215e+003;3.9228205566e+003;3.9288461914e+003;3.9157692871e+003;3.9423076172e+003;3.9301281738e+003;3.9270512695e+003;3.9380769043e+003;3.9050000000e+003;3.9094870605e+003;3.9217949219e+003;3.9157692871e+003;3.9135898438e+003;
2.3437500000e+000;3.9078205566e+003;3.8966667480e+003;3.9271794434e+003;3.9292307129e+003;3.9111538086e+003;3.9412819824e+003;3.9328205566e+003;3.9297436523e+003;3.9378205566e+003;3.9076923828e+003;3.9116667480e+003;3.9243588867e+003;3.9179487305e+003;3.9148718262e+003;
2.3515625000e+000;3.8456411133e+003;3.8414101563e+003;3.8566667480e+003;3.8935898438e+003;3.8439743652e+003;3.8782050781e+003;3.8632050781e+003;3.8625642090e+003;3.8693588867e+003;3.8405129395e+003;3.8601281738e+003;3.8737180176e+003;3.8638461914e+003;3.8646154785e+003;
2.3593750000e+000;3.8419230957e+003;3.8410256348e+003;3.8533332520e+003;3.8828205566e+003;3.8501281738e+003;3.8696154785e+003;3.8539743652e+003;3.8498718262e+003;3.8561538086e+003;3.8302563477e+003;3.8570512695e+003;3.8682050781e+003;3.8592307129e+003;3.8634614258e+003;
2.3671875000e+000;3.8571794434e+003;3.8328205566e+003;3.8750000000e+003;3.8847436523e+003;3.8558974609e+003;3.8685898438e+003;3.8573076172e+003;3.8598718262e+003;3.8553845215e+003;3.8442307129e+003;3.8685898438e+003;3.8775642090e+003;3.8723076172e+003;3.8783332520e+003;
2.3750000000e+000;3.8729487305e+003;3.8521794434e+003;3.8800000000e+003;3.9092307129e+003;3.8598718262e+003;3.8875642090e+003;3.8824357910e+003;3.8792307129e+003;3.8698718262e+003;3.8510256348e+003;3.8769230957e+003;3.8951281738e+003;3.8882050781e+003;3.8893588867e+003;
2.3828125000e+000;3.8897436523e+003;3.8734614258e+003;3.8950000000e+003;3.9203845215e+003;3.8823076172e+003;3.9028205566e+003;3.8975642090e+003;3.9014101563e+003;3.8946154785e+003;3.8764101563e+003;3.8989743652e+003;3.9141025391e+003;3.9103845215e+003;3.9094870605e+003;
2.3906250000e+000;3.8207692871e+003;3.8015385742e+003;3.8352563477e+003;3.8546154785e+003;3.8261538086e+003;3.8547436523e+003;3.8478205566e+003;3.8457692871e+003;3.8466667480e+003;3.8197436523e+003;3.8398718262e+003;3.8424357910e+003;3.8482050781e+003;3.8370512695e+003;
2.3984375000e+000;3.8596154785e+003;3.8420512695e+003;3.8720512695e+003;3.8934614258e+003;3.8488461914e+003;3.9011538086e+003;3.8961538086e+003;3.8980769043e+003;3.8989743652e+003;3.8679487305e+003;3.8835898438e+003;3.8958974609e+003;3.8773076172e+003;3.8757692871e+003;
2.4062500000e+000;3.8306411133e+003;3.8144870605e+003;3.8423076172e+003;3.8670512695e+003;3.8184614258e+003;3.8730769043e+003;3.8684614258e+003;3.8683332520e+003;3.8712819824e+003;3.8374357910e+003;3.8534614258e+003;3.8655129395e+003;3.8455129395e+003;3.8462819824e+003;
2.4140625000e+000;3.8350000000e+003;3.8208974609e+003;3.8452563477e+003;3.8735898438e+003;3.8292307129e+003;3.8737180176e+003;3.8712819824e+003;3.8666667480e+003;3.8728205566e+003;3.8376923828e+003;3.8541025391e+003;3.8606411133e+003;3.8506411133e+003;3.8471794434e+003;
2.4218750000e+000;3.9084614258e+003;3.8988461914e+003;3.9166667480e+003;3.9442307129e+003;3.9253845215e+003;3.9379487305e+003;3.9357692871e+003;3.9321794434e+003;3.9425642090e+003;3.9107692871e+003;3.9234614258e+003;3.9194870605e+003;3.9301281738e+003;3.9161538086e+003;
2.4296875000e+000;3.8662819824e+003;3.8546154785e+003;3.8805129395e+003;3.8982050781e+003;3.8870512695e+003;3.9100000000e+003;3.8956411133e+003;3.8916667480e+003;3.9014101563e+003;3.8643588867e+003;3.8793588867e+003;3.8832050781e+003;3.8734614258e+003;3.8732050781e+003;
2.4375000000e+000;3.8987180176e+003;3.8838461914e+003;3.9132050781e+003;3.9316667480e+003;3.9133332520e+003;3.9369230957e+003;3.9246154785e+003;3.9223076172e+003;3.9316667480e+003;3.8951281738e+003;3.9079487305e+003;3.9132050781e+003;3.9026923828e+003;3.9024357910e+003;
2.4453125000e+000;3.9258974609e+003;3.9088461914e+003;3.9400000000e+003;3.9624357910e+003;3.9356411133e+003;3.9561538086e+003;3.9471794434e+003;3.9497436523e+003;3.9579487305e+003;3.9246154785e+003;3.9321794434e+003;3.9378205566e+003;3.9329487305e+003;3.9280769043e+003;
2.4531250000e+000;3.8738461914e+003;3.8616667480e+003;3.8862819824e+003;3.9173076172e+003;3.8796154785e+003;3.9020512695e+003;3.8955129395e+003;3.8984614258e+003;3.9023076172e+003;3.8762819824e+003;3.8806411133e+003;3.8834614258e+003;3.8925642090e+003;3.8800000000e+003;
2.4609375000e+000;3.8588461914e+003;3.8519230957e+003;3.8671794434e+003;3.8980769043e+003;3.8615385742e+003;3.8876923828e+003;3.8811538086e+003;3.8793588867e+003;3.8803845215e+003;3.8583332520e+003;3.8674357910e+003;3.8680769043e+003;3.8773076172e+003;3.8666667480e+003;
2.4687500000e+000;3.8814101563e+003;3.8766667480e+003;3.8844870605e+003;3.9119230957e+003;3.8791025391e+003;3.9058974609e+003;3.8996154785e+003;3.8966667480e+003;3.8942307129e+003;3.8774357910e+003;3.8914101563e+003;3.8914101563e+003;3.8953845215e+003;3.8892307129e+003;
2.4765625000e+000;3.8603845215e+003;3.8333332520e+003;3.8644870605e+003;3.8939743652e+003;3.8542307129e+003;3.8675642090e+003;3.8653845215e+003;3.8570512695e+003;3.8485898438e+003;3.8416667480e+003;3.8661538086e+003;3.8742307129e+003;3.8788461914e+003;3.8725642090e+003;
2.4843750000e+000;3.8875642090e+003;3.8689743652e+003;3.8894870605e+003;3.9224357910e+003;3.8753845215e+003;3.8966667480e+003;3.8950000000e+003;3.8903845215e+003;3.8856411133e+003;3.8782050781e+003;3.8998718262e+003;3.9085898438e+003;3.9041025391e+003;3.9052563477e+003;
2.4921875000e+000;3.8300000000e+003;3.8224357910e+003;3.8369230957e+003;3.8680769043e+003;3.8311538086e+003;3.8600000000e+003;3.8471794434e+003;3.8482050781e+003;3.8544870605e+003;3.8387180176e+003;3.8489743652e+003;3.8532050781e+003;3.8564101563e+003;3.8507692871e+003;
2.5000000000e+000;3.8780769043e+003;3.8467949219e+003;3.8843588867e+003;3.9020512695e+003;3.8797436523e+003;3.9039743652e+003;3.8900000000e+003;3.8924357910e+003;3.8988461914e+003;3.8807692871e+003;3.8851281738e+003;3.8837180176e+003;3.8976923828e+003;3.8862819824e+003;
2.5078125000e+000;3.8401281738e+003;3.8120512695e+003;3.8489743652e+003;3.8728205566e+003;3.8375642090e+003;3.8758974609e+003;3.8617949219e+003;3.8619230957e+003;3.8656411133e+003;3.8434614258e+003;3.8452563477e+003;3.8507692871e+003;3.8523076172e+003;3.8483332520e+003;
2.5156250000e+000;3.8693588867e+003;3.8639743652e+003;3.8732050781e+003;3.9270512695e+003;3.8914101563e+003;3.9141025391e+003;3.9046154785e+003;3.9030769043e+003;3.9091025391e+003;3.8879487305e+003;3.8838461914e+003;3.8871794434e+003;3.9001281738e+003;3.8864101563e+003;
2.5234375000e+000;3.8779487305e+003;3.8725642090e+003;3.8791025391e+003;3.9356411133e+003;3.9038461914e+003;3.9206411133e+003;3.9107692871e+003;3.9121794434e+003;3.9205129395e+003;3.9019230957e+003;3.8994870605e+003;3.8984614258e+003;3.9152563477e+003;3.8996154785e+003;
2.5312500000e+000;3.8556411133e+003;3.8426923828e+003;3.8550000000e+003;3.9038461914e+003;3.8655129395e+003;3.8946154785e+003;3.8865385742e+003;3.8801281738e+003;3.8870512695e+003;3.8634614258e+003;3.8755129395e+003;3.8769230957e+003;3.8742307129e+003;3.8746154785e+003;
2.5390625000e+000;3.8830769043e+003;3.8658974609e+003;3.8815385742e+003;3.9238461914e+003;3.8844870605e+003;3.9164101563e+003;3.9105129395e+003;3.9014101563e+003;3.9066667480e+003;3.8807692871e+003;3.8960256348e+003;3.9014101563e+003;3.8905129395e+003;3.8970512695e+003;
2.5468750000e+000;3.8802563477e+003;3.8621794434e+003;3.8838461914e+003;3.9176923828e+003;3.8803845215e+003;3.9111538086e+003;3.9032050781e+003;3.9056411133e+003;3.9069230957e+003;3.8946154785e+003;3.8850000000e+003;3.9012819824e+003;3.9094870605e+003;3.8978205566e+003;
2.5546875000e+000;3.8673076172e+003;3.8523076172e+003;3.8703845215e+003;3.9066667480e+003;3.8641025391e+003;3.8966667480e+003;3.8900000000e+003;3.8901281738e+003;3.8888461914e+003;3.8811538086e+003;3.8720512695e+003;3.8882050781e+003;3.9001281738e+003;3.8846154785e+003;
2.5625000000e+000;3.9484614258e+003;3.9326923828e+003;3.9441025391e+003;3.9865385742e+003;3.9350000000e+003;3.9573076172e+003;3.9562819824e+003;3.9537180176e+003;3.9496154785e+003;3.9497436523e+003;3.9597436523e+003;3.9665385742e+003;3.9670512695e+003;3.9607692871e+003;
2.5703125000e+000;3.9594870605e+003;3.9401281738e+003;3.9547436523e+003;3.9994870605e+003;3.9442307129e+003;3.9612819824e+003;3.9600000000e+003;3.9580769043e+003;3.9544870605e+003;3.9587180176e+003;3.9758974609e+003;3.9792307129e+003;3.9739743652e+003;3.9730769043e+003;
2.5781250000e+000;3.9228205566e+003;3.9107692871e+003;3.9228205566e+003;3.9617949219e+003;3.9101281738e+003;3.9187180176e+003;3.9162819824e+003;3.9038461914e+003;3.9034614258e+003;3.9229487305e+003;3.9291025391e+003;3.9435898438e+003;3.9558974609e+003;3.9439743652e+003;
2.5859375000e+000;3.9698718262e+003;3.9632050781e+003;3.9685898438e+003;4.0023076172e+003;3.9573076172e+003;3.9593588867e+003;3.9576923828e+003;3.9493588867e+003;3.9482050781e+003;3.9712819824e+003;3.9743588867e+003;3.9902563477e+003;4.0033332520e+003;3.9901281738e+003;
2.5937500000e+000;3.9894870605e+003;3.9842307129e+003;3.9876923828e+003;4.0193588867e+003;3.9788461914e+003;3.9774357910e+003;3.9741025391e+003;3.9730769043e+003;3.9708974609e+003;3.9921794434e+003;3.9992307129e+003;4.0111538086e+003;4.0178205566e+003;4.0085898438e+003;
2.6015625000e+000;3.9773076172e+003;3.9660256348e+003;3.9738461914e+003;3.9950000000e+003;3.9662819824e+003;3.9871794434e+003;3.9770512695e+003;3.9760256348e+003;3.9870512695e+003;3.9892307129e+003;3.9916667480e+003;3.9930769043e+003;4.0028205566e+003;3.9987180176e+003;
2.6093750000e+000;3.9448718262e+003;3.9373076172e+003;3.9424357910e+003;3.9678205566e+003;3.9271794434e+003;3.9653845215e+003;3.9512819824e+003;3.9529487305e+003;3.9602563477e+003;3.9603845215e+003;3.9611538086e+003;3.9652563477e+003;3.9658974609e+003;3.9658974609e+003;
2.6171875000e+000;3.9130769043e+003;3.9037180176e+003;3.9111538086e+003;3.9487180176e+003;3.9142307129e+003;3.9387180176e+003;3.9267949219e+003;3.9237180176e+003;3.9332050781e+003;3.9183332520e+003;3.9237180176e+003;3.9289743652e+003;3.9385898438e+003;3.9232050781e+003;
2.6250000000e+000;3.9216667480e+003;3.9107692871e+003;3.9219230957e+003;3.9582050781e+003;3.9278205566e+003;3.9411538086e+003;3.9332050781e+003;3.9323076172e+003;3.9432050781e+003;3.9300000000e+003;3.9292307129e+003;3.9411538086e+003;3.9528205566e+003;3.9364101563e+003;
2.6328125000e+000;3.8701281738e+003;3.8624357910e+003;3.8769230957e+003;3.9189743652e+003;3.8803845215e+003;3.8976923828e+003;3.8933332520e+003;3.8915385742e+003;3.8960256348e+003;3.8873076172e+003;3.8821794434e+003;3.9010256348e+003;3.8969230957e+003;3.8970512695e+003;
2.6406250000e+000;3.8858974609e+003;3.8748718262e+003;3.8937180176e+003;3.9183332520e+003;3.8721794434e+003;3.9248718262e+003;3.9193588867e+003;3.9243588867e+003;3.9312819824e+003;3.9124357910e+003;3.9098718262e+003;3.9062819824e+003;3.9120512695e+003;3.8957692871e+003;
2.6484375000e+000;3.8582050781e+003;3.8493588867e+003;3.8651281738e+003;3.8960256348e+003;3.8453845215e+003;3.8957692871e+003;3.8915385742e+003;3.8938461914e+003;3.9014101563e+003;3.8808974609e+003;3.8782050781e+003;3.8815385742e+003;3.8848718262e+003;3.8702563477e+003;
2.6562500000e+000;3.9219230957e+003;3.9238461914e+003;3.9250000000e+003;3.9692307129e+003;3.9247436523e+003;3.9441025391e+003;3.9453845215e+003;3.9465385742e+003;3.9515385742e+003;3.9444870605e+003;3.9382050781e+003;3.9526923828e+003;3.9437180176e+003;3.9425642090e+003;
2.6640625000e+000;3.9592307129e+003;3.9592307129e+003;3.9630769043e+003;4.0025642090e+003;3.9619230957e+003;3.9701281738e+003;3.9688461914e+003;3.9760256348e+003;3.9803845215e+003;3.9841025391e+003;3.9747436523e+003;3.9915385742e+003;3.9780769043e+003;3.9793588867e+003;
2.6718750000e+000;3.9321794434e+003;3.9165385742e+003;3.9351281738e+003;3.9576923828e+003;3.9076923828e+003;3.9043588867e+003;3.8970512695e+003;3.9024357910e+003;3.9083332520e+003;3.9250000000e+003;3.9351281738e+003;3.9433332520e+003;3.9410256348e+003;3.9326923828e+003;
2.6796875000e+000;3.9651281738e+003;3.9533332520e+003;3.9633332520e+003;3.9865385742e+003;3.9394870605e+003;3.9242307129e+003;3.9226923828e+003;3.9278205566e+003;3.9319230957e+003;3.9502563477e+003;3.9666667480e+003;3.9697436523e+003;3.9697436523e+003;3.9630769043e+003;
2.6875000000e+000;3.9671794434e+003;3.9588461914e+003;3.9676923828e+003;3.9829487305e+003;3.9457692871e+003;3.9292307129e+003;3.9308974609e+003;3.9416667480e+003;3.9406411133e+003;3.9587180176e+003;3.9638461914e+003;3.9750000000e+003;3.9647436523e+003;3.9656411133e+003;
2.6953125000e+000;3.9319230957e+003;3.9194870605e+003;3.9360256348e+003;3.9482050781e+003;3.9070512695e+003;3.9057692871e+003;3.9038461914e+003;3.9112819824e+003;3.9102563477e+003;3.9247436523e+003;3.9210256348e+003;3.9405129395e+003;3.9269230957e+003;3.9273076172e+003;
2.7031250000e+000;3.9742307129e+003;3.9655129395e+003;3.9653845215e+003;4.0025642090e+003;3.9474357910e+003;3.9556411133e+003;3.9482050781e+003;3.9487180176e+003;3.9550000000e+003;3.9626923828e+003;3.9576923828e+003;3.9743588867e+003;3.9617949219e+003;3.9607692871e+003;
2.7109375000e+000;3.9548718262e+003;3.9514101563e+003;3.9453845215e+003;3.9878205566e+003;3.9384614258e+003;3.9428205566e+003;3.9341025391e+003;3.9325642090e+003;3.9401281738e+003;3.9450000000e+003;3.9419230957e+003;3.9582050781e+003;3.9388461914e+003;3.9441025391e+003;
2.7187500000e+000;3.9193588867e+003;3.9180769043e+003;3.9128205566e+003;3.9528205566e+003;3.9084614258e+003;3.9202563477e+003;3.9091025391e+003;3.9001281738e+003;3.9083332520e+003;3.9096154785e+003;3.9067949219e+003;3.9253845215e+003;3.9006411133e+003;3.9102563477e+003;
2.7265625000e+000;3.9152563477e+003;3.9125642090e+003;3.9108974609e+003;3.9434614258e+003;3.8989743652e+003;3.9276923828e+003;3.9141025391e+003;3.8962819824e+003;3.9056411133e+003;3.9046154785e+003;3.8994870605e+003;3.9202563477e+003;3.8956411133e+003;3.9047436523e+003;
2.7343750000e+000;3.9133332520e+003;3.9115385742e+003;3.9094870605e+003;3.9470512695e+003;3.9055129395e+003;3.9301281738e+003;3.9169230957e+003;3.9026923828e+003;3.9110256348e+003;3.9074357910e+003;3.8883332520e+003;3.9117949219e+003;3.8967949219e+003;3.8957692871e+003;
2.7421875000e+000;3.9133332520e+003;3.9115385742e+003;3.9094870605e+003;3.9470512695e+003;3.9055129395e+003;3.9301281738e+003;3.9169230957e+003;3.9026923828e+003;3.9110256348e+003;3.9074357910e+003;3.8883332520e+003;3.9117949219e+003;3.8967949219e+003;3.8957692871e+003;
2.7500000000e+000;4.0070512695e+003;4.0050000000e+003;4.0070512695e+003;4.0230769043e+003;4.0233332520e+003;4.0148718262e+003;4.0101281738e+003;4.0003845215e+003;4.0080769043e+003;3.9987180176e+003;3.9871794434e+003;4.0041025391e+003;3.9832050781e+003;3.9882050781e+003;
2.7578125000e+000;3.9950000000e+003;3.9958974609e+003;3.9933332520e+003;4.0164101563e+003;3.9784614258e+003;3.9915385742e+003;3.9892307129e+003;3.9820512695e+003;3.9869230957e+003;3.9907692871e+003;3.9712819824e+003;3.9964101563e+003;3.9717949219e+003;3.9734614258e+003;
2.7656250000e+000;3.9983332520e+003;3.9998718262e+003;3.9970512695e+003;4.0251281738e+003;3.9834614258e+003;3.9861538086e+003;3.9873076172e+003;3.9807692871e+003;3.9850000000e+003;3.9921794434e+003;3.9751281738e+003;3.9957692871e+003;3.9752563477e+003;3.9732050781e+003;
2.7734375000e+000;3.9575642090e+003;3.9560256348e+003;3.9635898438e+003;3.9848718262e+003;3.9389743652e+003;3.9453845215e+003;3.9392307129e+003;3.9397436523e+003;3.9397436523e+003;3.9453845215e+003;3.9360256348e+003;3.9541025391e+003;3.9319230957e+003;3.9353845215e+003;
2.7812500000e+000;4.1116665039e+003;4.1167949219e+003;4.0988461914e+003;4.1201284180e+003;4.0929487305e+003;4.0692307129e+003;4.0689743652e+003;4.0662819824e+003;4.0605129395e+003;4.0846154785e+003;4.0746154785e+003;4.1026923828e+003;4.0783332520e+003;4.0833332520e+003;
2.7890625000e+000;4.1237177734e+003;4.1283334961e+003;4.1144873047e+003;4.1297436523e+003;4.1089741211e+003;4.0785898438e+003;4.0807692871e+003;4.0830769043e+003;4.0770512695e+003;4.1041025391e+003;4.0962822266e+003;4.1200000000e+003;4.0966665039e+003;4.0998715820e+003;
2.7968750000e+000;4.0942307129e+003;4.1050000000e+003;4.0901281738e+003;4.1071796875e+003;4.0746154785e+003;4.0741025391e+003;4.0715385742e+003;4.0683332520e+003;4.0687180176e+003;4.0838461914e+003;4.0817949219e+003;4.0874357910e+003;4.0837180176e+003;4.0771794434e+003;
2.8046875000e+000;4.1366665039e+003;4.1539741211e+003;4.1265385742e+003;4.1535898438e+003;4.1232050781e+003;4.1206411133e+003;4.1143588867e+003;4.1135898438e+003;4.1179487305e+003;4.1326923828e+003;4.1205126953e+003;4.1264101563e+003;4.1267949219e+003;4.1171796875e+003;
2.8125000000e+000;4.1214101563e+003;4.1469228516e+003;4.1087177734e+003;4.1498715820e+003;4.1375639648e+003;4.1220512695e+003;4.1106411133e+003;4.1100000000e+003;4.1216665039e+003;4.1330771484e+003;4.1076923828e+003;4.1161538086e+003;4.1106411133e+003;4.1010258789e+003;
2.8203125000e+000;4.1003847656e+003;4.1255126953e+003;4.0915385742e+003;4.1288461914e+003;4.1293588867e+003;4.1097436523e+003;4.1002563477e+003;4.0911538086e+003;4.1053847656e+003;4.1123076172e+003;4.0914101563e+003;4.0979487305e+003;4.0897436523e+003;4.0810256348e+003;
2.8281250000e+000;4.1602563477e+003;4.1725639648e+003;4.1541025391e+003;4.1689741211e+003;4.1710258789e+003;4.1650000000e+003;4.1582050781e+003;4.1417949219e+003;4.1553847656e+003;4.1621796875e+003;4.1464101563e+003;4.1519228516e+003;4.1447436523e+003;4.1333334961e+003;
2.8359375000e+000;4.1346152344e+003;4.1458974609e+003;4.1261538086e+003;4.1444873047e+003;4.1375639648e+003;4.1423076172e+003;4.1303847656e+003;4.1157690430e+003;4.1275639648e+003;4.1339741211e+003;4.1139741211e+003;4.1243588867e+003;4.1147436523e+003;4.1029487305e+003;
2.8437500000e+000;4.1153847656e+003;4.1305126953e+003;4.1047436523e+003;4.1285898438e+003;4.1210258789e+003;4.1288461914e+003;4.1138461914e+003;4.0984614258e+003;4.1092309570e+003;4.1135898438e+003;4.0907692871e+003;4.1048715820e+003;4.0917949219e+003;4.0808974609e+003;
2.8515625000e+000;4.1355126953e+003;4.1573076172e+003;4.1242309570e+003;4.1496152344e+003;4.1517949219e+003;4.1514101563e+003;4.1382050781e+003;4.1235898438e+003;4.1341025391e+003;4.1370512695e+003;4.1126923828e+003;4.1275639648e+003;4.1111538086e+003;4.1016665039e+003;
2.8593750000e+000;4.1156411133e+003;4.1287177734e+003;4.1143588867e+003;4.1300000000e+003;4.1255126953e+003;4.1100000000e+003;4.1061538086e+003;4.1102563477e+003;4.1147436523e+003;4.1161538086e+003;4.0924357910e+003;4.1021796875e+003;4.0956411133e+003;4.0738461914e+003;
2.8671875000e+000;4.1237177734e+003;4.1496152344e+003;4.1137177734e+003;4.1348715820e+003;4.1208974609e+003;4.1003847656e+003;4.0973076172e+003;4.1044873047e+003;4.0938461914e+003;4.1061538086e+003;4.0880769043e+003;4.1137177734e+003;4.0889743652e+003;4.0800000000e+003;
2.8750000000e+000;4.0987177734e+003;4.1246152344e+003;4.0903845215e+003;4.1039741211e+003;4.0850000000e+003;4.0707692871e+003;4.0687180176e+003;4.0748718262e+003;4.0605129395e+003;4.0724357910e+003;4.0603845215e+003;4.0924357910e+003;4.0584614258e+003;4.0553845215e+003;
2.8828125000e+000;4.1229487305e+003;4.1408974609e+003;4.1114101563e+003;4.1171796875e+003;4.0884614258e+003;4.0741025391e+003;4.0770512695e+003;4.0850000000e+003;4.0728205566e+003;4.0856411133e+003;4.0805129395e+003;4.1067949219e+003;4.0808974609e+003;4.0710256348e+003;
2.8906250000e+000;4.0488461914e+003;4.0588461914e+003;4.0380769043e+003;4.0588461914e+003;4.0498718262e+003;4.0211538086e+003;4.0169230957e+003;4.0205129395e+003;4.0125642090e+003;4.0258974609e+003;4.0198718262e+003;4.0407692871e+003;4.0051281738e+003;4.0030769043e+003;
2.8984375000e+000;4.0774357910e+003;4.0846154785e+003;4.0662819824e+003;4.0817949219e+003;4.0807692871e+003;4.0542307129e+003;4.0508974609e+003;4.0516667480e+003;4.0484614258e+003;4.0603845215e+003;4.0489743652e+003;4.0708974609e+003;4.0373076172e+003;4.0330769043e+003;
2.9062500000e+000;4.0574357910e+003;4.0755129395e+003;4.0460256348e+003;4.0653845215e+003;4.0657692871e+003;4.0523076172e+003;4.0462819824e+003;4.0428205566e+003;4.0498718262e+003;4.0556411133e+003;4.0326923828e+003;4.0526923828e+003;4.0367949219e+003;4.0207692871e+003;
2.9140625000e+000;4.0188461914e+003;4.0476923828e+003;4.0070512695e+003;4.0353845215e+003;4.0342307129e+003;4.0252563477e+003;4.0173076172e+003;4.0057692871e+003;4.0156411133e+003;4.0167949219e+003;3.9948718262e+003;4.0114101563e+003;4.0020512695e+003;3.9830769043e+003;
2.9218750000e+000;4.0555129395e+003;4.0784614258e+003;4.0443588867e+003;4.0670512695e+003;4.0671794434e+003;4.0717949219e+003;4.0616667480e+003;4.0355129395e+003;4.0474357910e+003;4.0447436523e+003;4.0264101563e+003;4.0382050781e+003;4.0192307129e+003;4.0065385742e+003;
2.9296875000e+000;4.0357692871e+003;4.0461538086e+003;4.0300000000e+003;4.0434614258e+003;4.0442307129e+003;4.0557692871e+003;4.0439743652e+003;4.0193588867e+003;4.0303845215e+003;4.0258974609e+003;4.0048718262e+003;4.0205129395e+003;3.9982050781e+003;3.9855129395e+003;
2.9375000000e+000;4.0144870605e+003;4.0161538086e+003;4.0130769043e+003;4.0255129395e+003;4.0310256348e+003;4.0351281738e+003;4.0292307129e+003;4.0055129395e+003;4.0169230957e+003;4.0058974609e+003;3.9862819824e+003;4.0014101563e+003;3.9855129395e+003;3.9665385742e+003;
2.9453125000e+000;4.0512819824e+003;4.0584614258e+003;4.0462819824e+003;4.0642307129e+003;4.0669230957e+003;4.0676923828e+003;4.0658974609e+003;4.0478205566e+003;4.0598718262e+003;4.0491025391e+003;4.0312819824e+003;4.0405129395e+003;4.0273076172e+003;4.0071794434e+003;
2.9531250000e+000;4.0343588867e+003;4.0470512695e+003;4.0262819824e+003;4.0446154785e+003;4.0255129395e+003;4.0573076172e+003;4.0492307129e+003;4.0523076172e+003;4.0544870605e+003;4.0467949219e+003;4.0265385742e+003;4.0343588867e+003;4.0129487305e+003;3.9992307129e+003;
2.9609375000e+000;4.0450000000e+003;4.0508974609e+003;4.0384614258e+003;4.0494870605e+003;4.0432050781e+003;4.0615385742e+003;4.0552563477e+003;4.0594870605e+003;4.0564101563e+003;4.0487180176e+003;4.0270512695e+003;4.0405129395e+003;4.0224357910e+003;4.0062819824e+003;
2.9687500000e+000;4.0926923828e+003;4.0911538086e+003;4.0874357910e+003;4.0894870605e+003;4.1026923828e+003;4.0938461914e+003;4.0928205566e+003;4.1008974609e+003;4.0934614258e+003;4.0891025391e+003;4.0643588867e+003;4.0834614258e+003;4.0698718262e+003;4.0508974609e+003;
2.9765625000e+000;4.1283334961e+003;4.1202563477e+003;4.1252563477e+003;4.1196152344e+003;4.1457690430e+003;4.1142309570e+003;4.1179487305e+003;4.1324360352e+003;4.1216665039e+003;4.1232050781e+003;4.0956411133e+003;4.1191025391e+003;4.1053847656e+003;4.0869230957e+003;
2.9843750000e+000;4.0710256348e+003;4.0580769043e+003;4.0680769043e+003;4.0716667480e+003;4.0496154785e+003;4.0507692871e+003;4.0455129395e+003;4.0547436523e+003;4.0461538086e+003;4.0589743652e+003;4.0598718262e+003;4.0730769043e+003;4.0508974609e+003;4.0450000000e+003;
2.9921875000e+000;4.0950000000e+003;4.0819230957e+003;4.0893588867e+003;4.0928205566e+003;4.0684614258e+003;4.0657692871e+003;4.0587180176e+003;4.0711538086e+003;4.0638461914e+003;4.0802563477e+003;4.0834614258e+003;4.0980771484e+003;4.0774357910e+003;4.0721794434e+003;
3.0000000000e+000;4.0408974609e+003;4.0341025391e+003;4.0360256348e+003;4.0371794434e+003;4.0292307129e+003;3.9983332520e+003;3.9987180176e+003;4.0069230957e+003;3.9979487305e+003;4.0176923828e+003;4.0225642090e+003;4.0501281738e+003;4.0220512695e+003;4.0201281738e+003;
3.0078125000e+000;4.0635898438e+003;4.0452563477e+003;4.0589743652e+003;4.0538461914e+003;4.0329487305e+003;4.0373076172e+003;4.0319230957e+003;4.0310256348e+003;4.0430769043e+003;4.0537180176e+003;4.0533332520e+003;4.0748718262e+003;4.0529487305e+003;4.0453845215e+003;
3.0156250000e+000;4.0265385742e+003;4.0042307129e+003;4.0242307129e+003;4.0223076172e+003;3.9928205566e+003;4.0120512695e+003;4.0035898438e+003;3.9950000000e+003;4.0130769043e+003;4.0179487305e+003;4.0164101563e+003;4.0393588867e+003;4.0164101563e+003;4.0106411133e+003;
3.0234375000e+000;4.0824357910e+003;4.0682050781e+003;4.0789743652e+003;4.0844870605e+003;4.0858974609e+003;4.0761538086e+003;4.0764101563e+003;4.0542307129e+003;4.0692307129e+003;4.0753845215e+003;4.0770512695e+003;4.0926923828e+003;4.0691025391e+003;4.0634614258e+003;
3.0312500000e+000;4.0560256348e+003;4.0380769043e+003;4.0585898438e+003;4.0676923828e+003;4.0667949219e+003;4.0742307129e+003;4.0698718262e+003;4.0492307129e+003;4.0625642090e+003;4.0523076172e+003;4.0479487305e+003;4.0671794434e+003;4.0511538086e+003;4.0362819824e+003;
3.0390625000e+000;4.0933332520e+003;4.0738461914e+003;4.0930769043e+003;4.1011538086e+003;4.0996152344e+003;4.1079487305e+003;4.1048715820e+003;4.0912819824e+003;4.1044873047e+003;4.0902563477e+003;4.0806411133e+003;4.0991025391e+003;4.0883332520e+003;4.0723076172e+003;
3.0468750000e+000;4.0787180176e+003;4.0664101563e+003;4.0724357910e+003;4.0766667480e+003;4.0837180176e+003;4.0862819824e+003;4.0855129395e+003;4.1017949219e+003;4.1005126953e+003;4.0923076172e+003;4.0784614258e+003;4.0885898438e+003;4.0679487305e+003;4.0621794434e+003;
3.0546875000e+000;4.0451281738e+003;4.0380769043e+003;4.0405129395e+003;4.0424357910e+003;4.0498718262e+003;4.0569230957e+003;4.0571794434e+003;4.0684614258e+003;4.0647436523e+003;4.0564101563e+003;4.0474357910e+003;4.0553845215e+003;4.0384614258e+003;4.0308974609e+003;
3.0625000000e+000;4.0600000000e+003;4.0556411133e+003;4.0560256348e+003;4.0541025391e+003;4.0625642090e+003;4.0688461914e+003;4.0712819824e+003;4.0771794434e+003;4.0733332520e+003;4.0657692871e+003;4.0606411133e+003;4.0669230957e+003;4.0591025391e+003;4.0471794434e+003;
3.0703125000e+000;4.0996152344e+003;4.0928205566e+003;4.0952563477e+003;4.0893588867e+003;4.0975639648e+003;4.0988461914e+003;4.1020512695e+003;4.1078203125e+003;4.1041025391e+003;4.0994873047e+003;4.0965385742e+003;4.1034614258e+003;4.1015385742e+003;4.0876923828e+003;
3.0781250000e+000;4.1303847656e+003;4.1057690430e+003;4.1166665039e+003;4.1171796875e+003;4.0958974609e+003;4.1048715820e+003;4.1035898438e+003;4.1035898438e+003;4.0888461914e+003;4.1043588867e+003;4.1073076172e+003;4.1284614258e+003;4.1091025391e+003;4.1132050781e+003;
3.0859375000e+000;4.1676923828e+003;4.1511538086e+003;4.1525639648e+003;4.1576923828e+003;4.1346152344e+003;4.1401284180e+003;4.1396152344e+003;4.1405126953e+003;4.1265385742e+003;4.1475639648e+003;4.1458974609e+003;4.1666665039e+003;4.1557690430e+003;4.1528203125e+003;
3.0937500000e+000;4.1593588867e+003;4.1482050781e+003;4.1584614258e+003;4.1510258789e+003;4.1629487305e+003;4.1283334961e+003;4.1251284180e+003;4.1216665039e+003;4.1220512695e+003;4.1520512695e+003;4.1533334961e+003;4.1615385742e+003;4.1756411133e+003;4.1491025391e+003;
3.1015625000e+000;4.2724360352e+003;4.2453847656e+003;4.2667949219e+003;4.2469228516e+003;4.2584614258e+003;4.2155126953e+003;4.2208974609e+003;4.2162822266e+003;4.2242309570e+003;4.2594873047e+003;4.2571796875e+003;4.2688461914e+003;4.2606411133e+003;4.2506411133e+003;
3.1093750000e+000;4.2260258789e+003;4.2023076172e+003;4.2219228516e+003;4.2057690430e+003;4.2061538086e+003;4.1801284180e+003;4.1864101563e+003;4.1798715820e+003;4.1900000000e+003;4.2176923828e+003;4.2082050781e+003;4.2276923828e+003;4.2126923828e+003;4.2073076172e+003;
3.1171875000e+000;4.1755126953e+003;4.1543588867e+003;4.1711538086e+003;4.1680771484e+003;4.1771796875e+003;4.1666665039e+003;4.1750000000e+003;4.1565385742e+003;4.1750000000e+003;4.1835898438e+003;4.1705126953e+003;4.1830771484e+003;4.1785898438e+003;4.1623076172e+003;
3.1250000000e+000;4.1833334961e+003;4.1639741211e+003;4.1794873047e+003;4.1808974609e+003;4.1916665039e+003;4.1819228516e+003;4.1894873047e+003;4.1769228516e+003;4.1925639648e+003;4.2005126953e+003;4.1874360352e+003;4.1942309570e+003;4.1932050781e+003;4.1719228516e+003;
3.1328125000e+000;4.1492309570e+003;4.1434614258e+003;4.1507690430e+003;4.1570512695e+003;4.1565385742e+003;4.1635898438e+003;4.1726923828e+003;4.1683334961e+003;4.1750000000e+003;4.1737177734e+003;4.1623076172e+003;4.1653847656e+003;4.1684614258e+003;4.1417949219e+003;
3.1406250000e+000;4.1717949219e+003;4.1715385742e+003;4.1733334961e+003;4.1764101563e+003;4.1744873047e+003;4.1894873047e+003;4.2002563477e+003;4.1987177734e+003;4.2035898438e+003;4.1965385742e+003;4.1860258789e+003;4.1874360352e+003;4.1920512695e+003;4.1657690430e+003;
3.1484375000e+000;4.2158974609e+003;4.2028203125e+003;4.2126923828e+003;4.1994873047e+003;4.2224360352e+003;4.2367949219e+003;4.2391025391e+003;4.2591025391e+003;4.2567949219e+003;4.2505126953e+003;4.2325639648e+003;4.2282050781e+003;4.2308974609e+003;4.2094873047e+003;
3.1562500000e+000;4.1882050781e+003;4.1692309570e+003;4.1857690430e+003;4.1712822266e+003;4.2053847656e+003;4.2082050781e+003;4.2101284180e+003;4.2298715820e+003;4.2234614258e+003;4.2193588867e+003;4.1984614258e+003;4.1966665039e+003;4.2030771484e+003;4.1778203125e+003;
3.1640625000e+000;4.2244873047e+003;4.2052563477e+003;4.2253847656e+003;4.2056411133e+003;4.2542309570e+003;4.2296152344e+003;4.2393588867e+003;4.2565385742e+003;4.2483334961e+003;4.2471796875e+003;4.2221796875e+003;4.2294873047e+003;4.2419228516e+003;4.2128203125e+003;
3.1718750000e+000;4.2374360352e+003;4.2202563477e+003;4.2397436523e+003;4.2192309570e+003;4.2623076172e+003;4.2366665039e+003;4.2476923828e+003;4.2661538086e+003;4.2585898438e+003;4.2593588867e+003;4.2357690430e+003;4.2456411133e+003;4.2528203125e+003;4.2297436523e+003;
3.1796875000e+000;4.1866665039e+003;4.1693588867e+003;4.1752563477e+003;4.1780771484e+003;4.1802563477e+003;4.1748715820e+003;4.1811538086e+003;4.1852563477e+003;4.1752563477e+003;4.1887177734e+003;4.1846152344e+003;4.1888461914e+003;4.1821796875e+003;4.1755126953e+003;
3.1875000000e+000;4.2179487305e+003;4.2001284180e+003;4.2026923828e+003;4.2034614258e+003;4.2098715820e+003;4.1957690430e+003;4.2024360352e+003;4.2056411133e+003;4.1970512695e+003;4.2157690430e+003;4.2130771484e+003;4.2171796875e+003;4.2134614258e+003;4.2058974609e+003;
3.1953125000e+000;4.2333334961e+003;4.2142309570e+003;4.2203847656e+003;4.2123076172e+003;4.2273076172e+003;4.2029487305e+003;4.2091025391e+003;4.2150000000e+003;4.2089741211e+003;4.2317949219e+003;4.2289741211e+003;4.2360258789e+003;4.2332050781e+003;4.2258974609e+003;
3.2031250000e+000;4.2412822266e+003;4.2110258789e+003;4.2320512695e+003;4.2135898438e+003;4.1911538086e+003;4.1956411133e+003;4.2014101563e+003;4.1911538086e+003;4.1992309570e+003;4.2380771484e+003;4.2441025391e+003;4.2546152344e+003;4.2492309570e+003;4.2465385742e+003;
3.2109375000e+000;4.2288461914e+003;4.2026923828e+003;4.2200000000e+003;4.2060258789e+003;4.1953847656e+003;4.1896152344e+003;4.1960258789e+003;4.1885898438e+003;4.2026923828e+003;4.2367949219e+003;4.2361538086e+003;4.2467949219e+003;4.2426923828e+003;4.2376923828e+003;
3.2187500000e+000;4.2212822266e+003;4.2130771484e+003;4.2103847656e+003;4.2037177734e+003;4.2444873047e+003;4.2012822266e+003;4.2102563477e+003;4.2157690430e+003;4.2369228516e+003;4.2439741211e+003;4.2411538086e+003;4.2332050781e+003;4.2482050781e+003;4.2302563477e+003;
3.2265625000e+000;4.2174360352e+003;4.2082050781e+003;4.2069228516e+003;4.1962822266e+003;4.2310258789e+003;4.2010258789e+003;4.2079487305e+003;4.2248715820e+003;4.2412822266e+003;4.2443588867e+003;4.2374360352e+003;4.2256411133e+003;4.2448715820e+003;4.2248715820e+003;
3.2343750000e+000;4.1041025391e+003;4.0844870605e+003;4.1006411133e+003;4.0910256348e+003;4.0938461914e+003;4.1030771484e+003;4.1092309570e+003;4.1302563477e+003;4.1369228516e+003;4.1321796875e+003;4.1176923828e+003;4.1125639648e+003;4.1264101563e+003;4.1120512695e+003;
3.2421875000e+000;4.1819228516e+003;4.1698715820e+003;4.1675639648e+003;4.1797436523e+003;4.1901284180e+003;4.1846152344e+003;4.2006411133e+003;4.2212822266e+003;4.2119228516e+003;4.2120512695e+003;4.1942309570e+003;4.1885898438e+003;4.2051284180e+003;4.1844873047e+003;
3.2500000000e+000;4.1451284180e+003;4.1330771484e+003;4.1333334961e+003;4.1360258789e+003;4.1483334961e+003;4.1591025391e+003;4.1674360352e+003;4.1876923828e+003;4.1760258789e+003;4.1750000000e+003;4.1564101563e+003;4.1507690430e+003;4.1652563477e+003;4.1491025391e+003;
3.2578125000e+000;4.1361538086e+003;4.1220512695e+003;4.1283334961e+003;4.1143588867e+003;4.1456411133e+003;4.1561538086e+003;4.1571796875e+003;4.1669228516e+003;4.1608974609e+003;4.1603847656e+003;4.1453847656e+003;4.1335898438e+003;4.1471796875e+003;4.1397436523e+003;
3.2656250000e+000;4.1610258789e+003;4.1482050781e+003;4.1524360352e+003;4.1426923828e+003;4.1785898438e+003;4.1758974609e+003;4.1779487305e+003;4.1846152344e+003;4.1819228516e+003;4.1862822266e+003;4.1724360352e+003;4.1591025391e+003;4.1729487305e+003;4.1638461914e+003;
3.2734375000e+000;4.1242309570e+003;4.1246152344e+003;4.1147436523e+003;4.1314101563e+003;4.1265385742e+003;4.1355126953e+003;4.1373076172e+003;4.1329487305e+003;4.1251284180e+003;4.1414101563e+003;4.1370512695e+003;4.1307690430e+003;4.1398715820e+003;4.1241025391e+003;
3.2812500000e+000;4.1485898438e+003;4.1461538086e+003;4.1389741211e+003;4.1484614258e+003;4.1416665039e+003;4.1492309570e+003;4.1503847656e+003;4.1448715820e+003;4.1367949219e+003;4.1555126953e+003;4.1553847656e+003;4.1496152344e+003;4.1557690430e+003;4.1448715820e+003;
3.2890625000e+000;4.1698715820e+003;4.1446152344e+003;4.1658974609e+003;4.1505126953e+003;4.1629487305e+003;4.1415385742e+003;4.1417949219e+003;4.1365385742e+003;4.1341025391e+003;4.1579487305e+003;4.1555126953e+003;4.1628203125e+003;4.1591025391e+003;4.1603847656e+003;
3.2968750000e+000;4.1373076172e+003;4.1042309570e+003;4.1371796875e+003;4.1183334961e+003;4.1387177734e+003;4.1030771484e+003;4.1042309570e+003;4.0919230957e+003;4.0920512695e+003;4.1184614258e+003;4.1143588867e+003;4.1310258789e+003;4.1250000000e+003;4.1271796875e+003;
3.3046875000e+000;4.1544873047e+003;4.1394873047e+003;4.1466665039e+003;4.1412822266e+003;4.1511538086e+003;4.1207690430e+003;4.1262822266e+003;4.0982050781e+003;4.1015385742e+003;4.1398715820e+003;4.1487177734e+003;4.1534614258e+003;4.1533334961e+003;4.1487177734e+003;
3.3125000000e+000;4.1419228516e+003;4.1300000000e+003;4.1317949219e+003;4.1253847656e+003;4.1264101563e+003;4.1112822266e+003;4.1153847656e+003;4.0911538086e+003;4.0951281738e+003;4.1315385742e+003;4.1433334961e+003;4.1428203125e+003;4.1396152344e+003;4.1385898438e+003;
3.3203125000e+000;4.1053847656e+003;4.0911538086e+003;4.0960258789e+003;4.0879487305e+003;4.0839743652e+003;4.0788461914e+003;4.0823076172e+003;4.0614101563e+003;4.0647436523e+003;4.0946154785e+003;4.1062822266e+003;4.1071796875e+003;4.1005126953e+003;4.1038461914e+003;
3.3281250000e+000;4.0900000000e+003;4.0710256348e+003;4.0814101563e+003;4.0746154785e+003;4.0703845215e+003;4.0641025391e+003;4.0692307129e+003;4.0517949219e+003;4.0537180176e+003;4.0758974609e+003;4.0844870605e+003;4.0901281738e+003;4.0835898438e+003;4.0889743652e+003;
3.3359375000e+000;4.1089741211e+003;4.0892307129e+003;4.0934614258e+003;4.0993588867e+003;4.0953845215e+003;4.0794870605e+003;4.0871794434e+003;4.1032050781e+003;4.1035898438e+003;4.1046152344e+003;4.1000000000e+003;4.1028203125e+003;4.0997436523e+003;4.1060258789e+003;
3.3437500000e+000;4.0725642090e+003;4.0558974609e+003;4.0565385742e+003;4.0592307129e+003;4.0623076172e+003;4.0538461914e+003;4.0619230957e+003;4.0767949219e+003;4.0748718262e+003;4.0691025391e+003;4.0633332520e+003;4.0660256348e+003;4.0624357910e+003;4.0648718262e+003;
3.3515625000e+000;4.0921794434e+003;4.0792307129e+003;4.0869230957e+003;4.0735898438e+003;4.0788461914e+003;4.0988461914e+003;4.1046152344e+003;4.1285898438e+003;4.1220512695e+003;4.1096152344e+003;4.0978203125e+003;4.1008974609e+003;4.1078203125e+003;4.0946154785e+003;
3.3593750000e+000;4.0261538086e+003;4.0148718262e+003;4.0194870605e+003;4.0291025391e+003;4.0269230957e+003;4.0342307129e+003;4.0378205566e+003;4.0480769043e+003;4.0464101563e+003;4.0384614258e+003;4.0351281738e+003;4.0306411133e+003;4.0333332520e+003;4.0370512695e+003;
3.3671875000e+000;4.0456411133e+003;4.0362819824e+003;4.0341025391e+003;4.0473076172e+003;4.0571794434e+003;4.0485898438e+003;4.0526923828e+003;4.0596154785e+003;4.0579487305e+003;4.0548718262e+003;4.0482050781e+003;4.0453845215e+003;4.0450000000e+003;4.0520512695e+003;
3.3750000000e+000;4.0126923828e+003;4.0037180176e+003;4.0078205566e+003;4.0144870605e+003;4.0220512695e+003;4.0189743652e+003;4.0152563477e+003;4.0092307129e+003;4.0061538086e+003;4.0102563477e+003;3.9988461914e+003;4.0092307129e+003;4.0126923828e+003;4.0087180176e+003;
3.3828125000e+000;4.1194873047e+003;4.1125639648e+003;4.1108974609e+003;4.1130771484e+003;4.1119228516e+003;4.0892307129e+003;4.0902563477e+003;4.0807692871e+003;4.0873076172e+003;4.1043588867e+003;4.1041025391e+003;4.1192309570e+003;4.1102563477e+003;4.1175639648e+003;
3.3906250000e+000;4.0901281738e+003;4.0797436523e+003;4.0841025391e+003;4.0811538086e+003;4.0756411133e+003;4.0543588867e+003;4.0526923828e+003;4.0420512695e+003;4.0478205566e+003;4.0689743652e+003;4.0789743652e+003;4.0929487305e+003;4.0746154785e+003;4.0891025391e+003;
3.3984375000e+000;4.0574357910e+003;4.0407692871e+003;4.0539743652e+003;4.0467949219e+003;4.0350000000e+003;4.0191025391e+003;4.0143588867e+003;3.9971794434e+003;4.0006411133e+003;4.0255129395e+003;4.0470512695e+003;4.0580769043e+003;4.0383332520e+003;4.0534614258e+003;
3.4062500000e+000;4.0951281738e+003;4.0714101563e+003;4.0901281738e+003;4.0825642090e+003;4.0683332520e+003;4.0488461914e+003;4.0453845215e+003;4.0188461914e+003;4.0183332520e+003;4.0537180176e+003;4.0833332520e+003;4.0894870605e+003;4.0819230957e+003;4.0884614258e+003;
3.4140625000e+000;4.1051284180e+003;4.0842307129e+003;4.0992309570e+003;4.0948718262e+003;4.0821794434e+003;4.0611538086e+003;4.0600000000e+003;4.0353845215e+003;4.0338461914e+003;4.0717949219e+003;4.0973076172e+003;4.1053847656e+003;4.0985898438e+003;4.1044873047e+003;
3.4218750000e+000;4.0406411133e+003;4.0251281738e+003;4.0378205566e+003;4.0351281738e+003;4.0126923828e+003;4.0173076172e+003;4.0197436523e+003;3.9984614258e+003;3.9998718262e+003;4.0251281738e+003;4.0383332520e+003;4.0547436523e+003;4.0419230957e+003;4.0491025391e+003;
3.4296875000e+000;4.0421794434e+003;4.0239743652e+003;4.0405129395e+003;4.0325642090e+003;4.0056411133e+003;4.0256411133e+003;4.0297436523e+003;4.0141025391e+003;4.0180769043e+003;4.0339743652e+003;4.0376923828e+003;4.0560256348e+003;4.0433332520e+003;4.0480769043e+003;
