Time (s),AF3,F7,F3,FC5,T7,P7,O1,O2,P8,T8,FC6,F4,F8,AF4,Sampling Rate
0.0000000000e+000,7.5028203125e+003,7.6085898438e+003,7.6079487305e+003,7.6160258789e+003,7.6124360352e+003,7.6058974609e+003,7.6179487305e+003,7.6076923828e+003,7.6187177734e+003,7.6267949219e+003,7.6074360352e+003,7.6183334961e+003,7.6125639648e+003,7.6106411133e+003,128
7.8125000000e-003,7.4100000000e+003,7.5992309570e+003,7.5989741211e+003,7.5753847656e+003,7.5998715820e+003,7.5973076172e+003,7.6005126953e+003,7.5989741211e+003,7.5991025391e+003,7.6006411133e+003,7.5983334961e+003,7.5983334961e+003,7.6000000000e+003,7.5978203125e+003,
1.5625000000e-002,7.3197436523e+003,7.5888461914e+003,7.5892309570e+003,7.5171796875e+003,7.5815385742e+003,7.5876923828e+003,7.5717949219e+003,7.5893588867e+003,7.5655126953e+003,7.5512822266e+003,7.5891025391e+003,7.5650000000e+003,7.5814101563e+003,7.5811538086e+003,
2.3437500000e-002,7.3205126953e+003,7.6112822266e+003,7.6083334961e+003,7.4961538086e+003,7.5911538086e+003,7.6089741211e+003,7.5655126953e+003,7.6101284180e+003,7.5542309570e+003,7.5161538086e+003,7.6111538086e+003,7.5539741211e+003,7.5933334961e+003,7.5953847656e+003,
3.1250000000e-002,7.3948715820e+003,7.6305126953e+003,7.6266665039e+003,7.5453847656e+003,7.6134614258e+003,7.6287177734e+003,7.5923076172e+003,7.6301284180e+003,7.5846152344e+003,7.5535898438e+003,7.6300000000e+003,7.5853847656e+003,7.6180771484e+003,7.6192309570e+003,
3.9062500000e-002,7.4276923828e+003,7.6192309570e+003,7.6196152344e+003,7.5724360352e+003,7.6084614258e+003,7.6203847656e+003,7.5982050781e+003,7.6228203125e+003,7.5943588867e+003,7.5766665039e+003,7.6201284180e+003,7.5982050781e+003,7.6144873047e+003,7.6173076172e+003,
4.6875000000e-002,7.1388461914e+003,7.5096152344e+003,7.5138461914e+003,7.3641025391e+003,7.4769228516e+003,7.5058974609e+003,7.4400000000e+003,7.5078203125e+003,7.4289741211e+003,7.3705126953e+003,7.5192309570e+003,7.4187177734e+003,7.4752563477e+003,7.4884614258e+003,
5.4687500000e-002,7.1907690430e+003,7.5374360352e+003,7.5425639648e+003,7.4153847656e+003,7.5067949219e+003,7.5352563477e+003,7.4737177734e+003,7.5396152344e+003,7.4688461914e+003,7.4133334961e+003,7.5482050781e+003,7.4556411133e+003,7.5133334961e+003,7.5225639648e+003,
6.2500000000e-002,7.2103847656e+003,7.5289741211e+003,7.5462822266e+003,7.4452563477e+003,7.5069228516e+003,7.5330771484e+003,7.4897436523e+003,7.5375639648e+003,7.4832050781e+003,7.4402563477e+003,7.5379487305e+003,7.4751284180e+003,7.5201284180e+003,7.5312822266e+003,
7.0312500000e-002,7.1839741211e+003,7.5160258789e+003,7.5335898438e+003,7.4205126953e+003,7.4944873047e+003,7.5182050781e+003,7.4741025391e+003,7.5237177734e+003,7.4657690430e+003,7.4237177734e+003,7.5238461914e+003,7.4574360352e+003,7.5023076172e+003,7.5165385742e+003,
7.8125000000e-002,6.9469228516e+003,7.3275639648e+003,7.3565385742e+003,7.1778203125e+003,7.2916665039e+003,7.3339741211e+003,7.2628203125e+003,7.3482050781e+003,7.2533334961e+003,7.1743588867e+003,7.3501284180e+003,7.2339741211e+003,7.2966665039e+003,7.3311538086e+003,
8.5937500000e-002,6.8925639648e+003,7.2762822266e+003,7.3111538086e+003,7.1242309570e+003,7.2339741211e+003,7.2880771484e+003,7.2139741211e+003,7.2980771484e+003,7.1973076172e+003,7.1025639648e+003,7.2992309570e+003,7.1756411133e+003,7.2470512695e+003,7.2835898438e+003,
9.3750000000e-002,6.9641025391e+003,7.3184614258e+003,7.3587177734e+003,7.1779487305e+003,7.2787177734e+003,7.3374360352e+003,7.2680771484e+003,7.3452563477e+003,7.2447436523e+003,7.1498715820e+003,7.3375639648e+003,7.2273076172e+003,7.2903847656e+003,7.3260258789e+003,
1.0156250000e-001,6.8538461914e+003,7.1979487305e+003,7.2543588867e+003,7.0641025391e+003,7.1633334961e+003,7.2256411133e+003,7.1542309570e+003,7.2388461914e+003,7.1361538086e+003,7.0396152344e+003,7.2264101563e+003,7.1189741211e+003,7.1712822266e+003,7.2183334961e+003,
1.0937500000e-001,6.6326923828e+003,6.9893588867e+003,7.0634614258e+003,6.8532050781e+003,6.9533334961e+003,7.0283334961e+003,6.9494873047e+003,7.0443588867e+003,6.9353847656e+003,6.8225639648e+003,7.0270512695e+003,6.9100000000e+003,6.9641025391e+003,7.0244873047e+003,
1.1718750000e-001,6.3825639648e+003,6.7767949219e+003,6.8602563477e+003,6.6267949219e+003,6.7308974609e+003,6.8256411133e+003,6.7355126953e+003,6.8397436523e+003,6.7208974609e+003,6.5796152344e+003,6.8165385742e+003,6.6796152344e+003,6.7507690430e+003,6.8208974609e+003,
1.2500000000e-001,6.4593588867e+003,6.8416665039e+003,6.9048715820e+003,6.6997436523e+003,6.7948715820e+003,6.8878203125e+003,6.8041025391e+003,6.8911538086e+003,6.7716665039e+003,6.6042309570e+003,6.8575639648e+003,6.7192309570e+003,6.8143588867e+003,6.8791025391e+003,
1.3281250000e-001,6.0450000000e+003,6.4030771484e+003,6.5019228516e+003,6.2825639648e+003,6.3585898438e+003,6.4674360352e+003,6.3747436523e+003,6.4911538086e+003,6.3789741211e+003,6.1978203125e+003,6.4700000000e+003,6.3087177734e+003,6.3984614258e+003,6.4753847656e+003,
1.4062500000e-001,5.7721796875e+003,6.1157690430e+003,6.2293588867e+003,6.0074360352e+003,6.0647436523e+003,6.2003847656e+003,6.1070512695e+003,6.2164101563e+003,6.1082050781e+003,5.9011538086e+003,6.1824360352e+003,6.0305126953e+003,6.1197436523e+003,6.2047436523e+003,
1.4843750000e-001,5.5316665039e+003,5.7898715820e+003,5.9258974609e+003,5.7282050781e+003,5.7551284180e+003,5.9037177734e+003,5.8288461914e+003,5.9069228516e+003,5.8157690430e+003,5.5719228516e+003,5.8387177734e+003,5.7350000000e+003,5.8144873047e+003,5.9160258789e+003,
1.5625000000e-001,5.3460258789e+003,5.5558974609e+003,5.7083334961e+003,5.5293588867e+003,5.5216665039e+003,5.6810258789e+003,5.6126923828e+003,5.6898715820e+003,5.5976923828e+003,5.3414101563e+003,5.6103847656e+003,5.5151284180e+003,5.5805126953e+003,5.7007690430e+003,
1.6406250000e-001,5.2694873047e+003,5.4629487305e+003,5.6132050781e+003,5.4410258789e+003,5.4200000000e+003,5.5896152344e+003,5.5233334961e+003,5.5938461914e+003,5.5043588867e+003,5.2402563477e+003,5.5092309570e+003,5.4191025391e+003,5.4793588867e+003,5.6043588867e+003,
1.7187500000e-001,5.2323076172e+003,5.4129487305e+003,5.5602563477e+003,5.3900000000e+003,5.3633334961e+003,5.5384614258e+003,5.4737177734e+003,5.5374360352e+003,5.4496152344e+003,5.1798715820e+003,5.4517949219e+003,5.3629487305e+003,5.4219228516e+003,5.5503847656e+003,
1.7968750000e-001,5.3073076172e+003,5.4587177734e+003,5.6093588867e+003,5.4380771484e+003,5.4094873047e+003,5.5770512695e+003,5.5164101563e+003,5.5719228516e+003,5.4848715820e+003,5.2184614258e+003,5.4997436523e+003,5.4015385742e+003,5.4716665039e+003,5.6029487305e+003,
1.8750000000e-001,5.3664101563e+003,5.4988461914e+003,5.6541025391e+003,5.4871796875e+003,5.4525639648e+003,5.6138461914e+003,5.5557690430e+003,5.6119228516e+003,5.5250000000e+003,5.2639741211e+003,5.5466665039e+003,5.4425639648e+003,5.5220512695e+003,5.6530771484e+003,
1.9531250000e-001,5.3835898438e+003,5.4988461914e+003,5.6560258789e+003,5.4969228516e+003,5.4534614258e+003,5.6126923828e+003,5.5555126953e+003,5.6143588867e+003,5.5274360352e+003,5.2696152344e+003,5.5507690430e+003,5.4441025391e+003,5.5311538086e+003,5.6623076172e+003,
2.0312500000e-001,5.0238461914e+003,5.0793588867e+003,5.2339741211e+003,5.0805126953e+003,5.0132050781e+003,5.1910258789e+003,5.1288461914e+003,5.2001284180e+003,5.1201284180e+003,4.8387177734e+003,5.1265385742e+003,5.0423076172e+003,5.1066665039e+003,5.2720512695e+003,
2.1093750000e-001,4.8832050781e+003,4.9144873047e+003,5.0852563477e+003,4.9326923828e+003,4.8496152344e+003,5.0332050781e+003,4.9730771484e+003,5.0453847656e+003,4.9684614258e+003,4.6802563477e+003,4.9670512695e+003,4.8900000000e+003,4.9529487305e+003,5.1244873047e+003,
2.1875000000e-001,4.4048715820e+003,4.3565385742e+003,4.5650000000e+003,4.4350000000e+003,4.2934614258e+003,4.5085898438e+003,4.4637177734e+003,4.5111538086e+003,4.4435898438e+003,4.1257690430e+003,4.4111538086e+003,4.3584614258e+003,4.4239741211e+003,4.6110258789e+003,
2.2656250000e-001,4.2803847656e+003,4.2096152344e+003,4.4257690430e+003,4.2996152344e+003,4.1492309570e+003,4.3732050781e+003,4.3294873047e+003,4.3746152344e+003,4.3092309570e+003,3.9835898438e+003,4.2723076172e+003,4.2217949219e+003,4.2837177734e+003,4.4782050781e+003,
2.3437500000e-001,3.9425642090e+003,3.8251281738e+003,4.0643588867e+003,3.9385898438e+003,3.7788461914e+003,4.0151281738e+003,3.9724357910e+003,4.0207692871e+003,3.9630769043e+003,3.6166667480e+003,3.9126923828e+003,3.8676923828e+003,3.9208974609e+003,4.1328203125e+003,
2.4218750000e-001,3.3062819824e+003,3.0839743652e+003,3.3539743652e+003,3.2626923828e+003,3.0162819824e+003,3.3171794434e+003,3.3011538086e+003,3.3083332520e+003,3.2734614258e+003,2.8687180176e+003,3.1682050781e+003,3.1473076172e+003,3.2107692871e+003,3.4376923828e+003,
2.5000000000e-001,3.2734614258e+003,3.0256411133e+003,3.3034614258e+003,3.2161538086e+003,2.9705129395e+003,3.2651281738e+003,3.2521794434e+003,3.2592307129e+003,3.2265385742e+003,2.8170512695e+003,3.1157692871e+003,3.0975642090e+003,3.1565385742e+003,3.3875642090e+003,
2.5781250000e-001,3.0251281738e+003,2.7229487305e+003,3.0258974609e+003,2.9421794434e+003,2.7198718262e+003,2.9838461914e+003,2.9725642090e+003,2.9912819824e+003,2.9633332520e+003,2.5380769043e+003,2.8362819824e+003,2.8252563477e+003,2.8728205566e+003,3.1152563477e+003,
2.6562500000e-001,2.8002563477e+003,2.4680769043e+003,2.7847436523e+003,2.7085898438e+003,2.4825642090e+003,2.7461538086e+003,2.7364101563e+003,2.7541025391e+003,2.7300000000e+003,2.2900000000e+003,2.5880769043e+003,2.5851281738e+003,2.6297436523e+003,2.8782050781e+003,
2.7343750000e-001,2.5857692871e+003,2.2223076172e+003,2.5516667480e+003,2.4862819824e+003,2.2402563477e+003,2.5183332520e+003,2.5120512695e+003,2.5206411133e+003,2.5008974609e+003,2.0460256348e+003,2.3432050781e+003,2.3515385742e+003,2.3932050781e+003,2.6476923828e+003,
2.8125000000e-001,2.4346154785e+003,2.0416666260e+003,2.3806411133e+003,2.3251281738e+003,2.0521794434e+003,2.3505129395e+003,2.3493588867e+003,2.3456411133e+003,2.3298718262e+003,1.8644871826e+003,2.1596154785e+003,2.1792307129e+003,2.2169230957e+003,2.4771794434e+003,
2.8906250000e-001,2.1643588867e+003,1.6760256348e+003,2.0189743652e+003,1.9941025391e+003,1.6800000000e+003,1.9935897217e+003,2.0062821045e+003,1.9901281738e+003,1.9852564697e+003,1.4984615479e+003,1.7933333740e+003,1.8192307129e+003,1.8601281738e+003,2.1265385742e+003,
2.9687500000e-001,2.0894870605e+003,1.5779487305e+003,1.9217949219e+003,1.9042307129e+003,1.5838461914e+003,1.8992307129e+003,1.9139743652e+003,1.8956409912e+003,1.8926922607e+003,1.4058974609e+003,1.6979487305e+003,1.7243590088e+003,1.7682050781e+003,2.0352564697e+003,
3.0468750000e-001,2.0332050781e+003,1.4570512695e+003,1.8035897217e+003,1.7925640869e+003,1.4550000000e+003,1.7803846436e+003,1.8002564697e+003,1.7700000000e+003,1.7789743652e+003,1.3061538086e+003,1.5767949219e+003,1.6120512695e+003,1.6550000000e+003,1.9233333740e+003,
3.1250000000e-001,1.9167949219e+003,1.2815384521e+003,1.6402564697e+003,1.6456409912e+003,1.2855128174e+003,1.6100000000e+003,1.6358974609e+003,1.6006409912e+003,1.6164102783e+003,1.1339743652e+003,1.3975640869e+003,1.4456409912e+003,1.4820512695e+003,1.7547435303e+003,
3.2031250000e-001,1.8674359131e+003,1.2341025391e+003,1.5767949219e+003,1.5867949219e+003,1.2365384521e+003,1.5458974609e+003,1.5710256348e+003,1.5357692871e+003,1.5502564697e+003,1.1065384521e+003,1.3382050781e+003,1.3829487305e+003,1.4198718262e+003,1.6907692871e+003,
3.2812500000e-001,1.8374359131e+003,1.1832050781e+003,1.4917949219e+003,1.5157692871e+003,1.1801281738e+003,1.4679487305e+003,1.4962821045e+003,1.4553846436e+003,1.4706409912e+003,1.0837178955e+003,1.2753846436e+003,1.3115384521e+003,1.3507692871e+003,1.6115384521e+003,
3.3593750000e-001,1.8542307129e+003,1.1755128174e+003,1.4910256348e+003,1.5262821045e+003,1.1739743652e+003,1.4706409912e+003,1.5011538086e+003,1.4561538086e+003,1.4726922607e+003,1.0641025391e+003,1.2715384521e+003,1.3116666260e+003,1.3479487305e+003,1.6111538086e+003,
3.4375000000e-001,1.9635897217e+003,1.2271794434e+003,1.5594871826e+003,1.6114102783e+003,1.2347435303e+003,1.5406409912e+003,1.5688461914e+003,1.5270512695e+003,1.5451281738e+003,1.1269230957e+003,1.3292307129e+003,1.3741025391e+003,1.4153846436e+003,1.6771794434e+003,
3.5156250000e-001,1.9651281738e+003,1.2141025391e+003,1.5497435303e+003,1.5982050781e+003,1.2238461914e+003,1.5285897217e+003,1.5582050781e+003,1.5173077393e+003,1.5358974609e+003,1.1215384521e+003,1.3211538086e+003,1.3661538086e+003,1.4093590088e+003,1.6660256348e+003,
3.5937500000e-001,1.9555128174e+003,1.1867949219e+003,1.5155128174e+003,1.5670512695e+003,1.2021794434e+003,1.4973077393e+003,1.5315384521e+003,1.4789743652e+003,1.4991025391e+003,1.0830769043e+003,1.2951281738e+003,1.3332050781e+003,1.3784615479e+003,1.6284615479e+003,
3.6718750000e-001,2.0080769043e+003,1.2405128174e+003,1.5544871826e+003,1.6144871826e+003,1.2617949219e+003,1.5428205566e+003,1.5760256348e+003,1.5179487305e+003,1.5378205566e+003,1.1300000000e+003,1.3388461914e+003,1.3702564697e+003,1.4192307129e+003,1.6660256348e+003,
3.7500000000e-001,2.2926923828e+003,1.5214102783e+003,1.8120512695e+003,1.8787178955e+003,1.5479487305e+003,1.8069230957e+003,1.8291025391e+003,1.7893590088e+003,1.8011538086e+003,1.4017949219e+003,1.5884615479e+003,1.6284615479e+003,1.6775640869e+003,1.9123077393e+003,
3.8281250000e-001,2.3488461914e+003,1.5608974609e+003,1.8616666260e+003,1.9238461914e+003,1.5806409912e+003,1.8530769043e+003,1.8747435303e+003,1.8419230957e+003,1.8534615479e+003,1.4279487305e+003,1.6362821045e+003,1.6807692871e+003,1.7271794434e+003,1.9591025391e+003,
3.9062500000e-001,2.4156411133e+003,1.6066666260e+003,1.9158974609e+003,1.9774359131e+003,1.6184615479e+003,1.9057692871e+003,1.9319230957e+003,1.9028205566e+003,1.9161538086e+003,1.4674359131e+003,1.7135897217e+003,1.7439743652e+003,1.7951281738e+003,2.0175640869e+003,
3.9843750000e-001,2.4365385742e+003,1.6312821045e+003,1.9346153564e+003,1.9974359131e+003,1.6451281738e+003,1.9238461914e+003,1.9524359131e+003,1.9242307129e+003,1.9369230957e+003,1.5094871826e+003,1.7471794434e+003,1.7674359131e+003,1.8211538086e+003,2.0382050781e+003,
4.0625000000e-001,2.4497436523e+003,1.6491025391e+003,1.9482050781e+003,2.0098718262e+003,1.6656409912e+003,1.9339743652e+003,1.9637178955e+003,1.9371794434e+003,1.9480769043e+003,1.5462821045e+003,1.7665384521e+003,1.7832050781e+003,1.8356409912e+003,2.0493588867e+003,
4.1406250000e-001,2.4625642090e+003,1.6596153564e+003,1.9602564697e+003,2.0189743652e+003,1.6766666260e+003,1.9403846436e+003,1.9697435303e+003,1.9447435303e+003,1.9542307129e+003,1.5641025391e+003,1.7741025391e+003,1.7942307129e+003,1.8421794434e+003,2.0555129395e+003,
4.2187500000e-001,2.5323076172e+003,1.7271794434e+003,2.0046153564e+003,2.0666667480e+003,1.7338461914e+003,1.9873077393e+003,2.0138461914e+003,1.9852564697e+003,2.0005128174e+003,1.6135897217e+003,1.8201281738e+003,1.8384615479e+003,1.9025640869e+003,2.1023076172e+003,
4.2968750000e-001,2.6861538086e+003,1.8821794434e+003,2.1511538086e+003,2.2093588867e+003,1.8784615479e+003,2.1270512695e+003,2.1514101563e+003,2.1223076172e+003,2.1346154785e+003,1.7646153564e+003,1.9628205566e+003,1.9821794434e+003,2.0411538086e+003,2.2347436523e+003,
4.3750000000e-001,2.7332050781e+003,1.9323077393e+003,2.1952563477e+003,2.2608974609e+003,1.9320512695e+003,2.1697436523e+003,2.1916667480e+003,2.1620512695e+003,2.1742307129e+003,1.8128205566e+003,2.0103846436e+003,2.0256409912e+003,2.0850000000e+003,2.2779487305e+003,
4.4531250000e-001,2.8342307129e+003,2.0470512695e+003,2.2869230957e+003,2.3738461914e+003,2.0569230957e+003,2.2682050781e+003,2.2878205566e+003,2.2575642090e+003,2.2666667480e+003,1.9276922607e+003,2.1225642090e+003,2.1243588867e+003,2.1962819824e+003,2.3758974609e+003,
4.5312500000e-001,2.8889743652e+003,2.1089743652e+003,2.3398718262e+003,2.4317949219e+003,2.1201281738e+003,2.3232050781e+003,2.3420512695e+003,2.3144870605e+003,2.3203845215e+003,1.9901281738e+003,2.1828205566e+003,2.1810256348e+003,2.2550000000e+003,2.4282050781e+003,
4.6093750000e-001,2.8941025391e+003,2.1176923828e+003,2.3556411133e+003,2.4417949219e+003,2.1242307129e+003,2.3334614258e+003,2.3506411133e+003,2.3332050781e+003,2.3384614258e+003,2.0150000000e+003,2.1952563477e+003,2.2034614258e+003,2.2562819824e+003,2.4300000000e+003,
4.6875000000e-001,2.6841025391e+003,1.9184615479e+003,2.1391025391e+003,2.2403845215e+003,1.9088461914e+003,2.1357692871e+003,2.1529487305e+003,2.1220512695e+003,2.1293588867e+003,1.8000000000e+003,1.9679487305e+003,1.9876922607e+003,2.0374359131e+003,2.2107692871e+003,
4.7656250000e-001,2.7730769043e+003,2.0066666260e+003,2.2255129395e+003,2.3228205566e+003,2.0061538086e+003,2.2157692871e+003,2.2337180176e+003,2.2021794434e+003,2.2080769043e+003,1.8838461914e+003,2.0519230957e+003,2.0716667480e+003,2.1230769043e+003,2.2957692871e+003,
4.8437500000e-001,2.9226923828e+003,2.1521794434e+003,2.3743588867e+003,2.4692307129e+003,2.1719230957e+003,2.3553845215e+003,2.3750000000e+003,2.3564101563e+003,2.3616667480e+003,2.0526923828e+003,2.2179487305e+003,2.2294870605e+003,2.2861538086e+003,2.4533332520e+003,
4.9218750000e-001,2.8964101563e+003,2.1248718262e+003,2.3489743652e+003,2.4453845215e+003,2.1435898438e+003,2.3317949219e+003,2.3515385742e+003,2.3369230957e+003,2.3429487305e+003,2.0398718262e+003,2.2035898438e+003,2.2098718262e+003,2.2678205566e+003,2.4325642090e+003,
5.0000000000e-001,2.8288461914e+003,2.0567949219e+003,2.2817949219e+003,2.3782050781e+003,2.0678205566e+003,2.2673076172e+003,2.2867949219e+003,2.2691025391e+003,2.2764101563e+003,1.9762821045e+003,2.1396154785e+003,2.1430769043e+003,2.2014101563e+003,2.3655129395e+003,
5.0781250000e-001,2.7769230957e+003,2.0039743652e+003,2.2293588867e+003,2.3237180176e+003,2.0078205566e+003,2.2153845215e+003,2.2337180176e+003,2.2087180176e+003,2.2184614258e+003,1.9173077393e+003,2.0816667480e+003,2.0851281738e+003,2.1447436523e+003,2.3093588867e+003,
5.1562500000e-001,2.6284614258e+003,1.8593590088e+003,2.0801281738e+003,2.1821794434e+003,1.8561538086e+003,2.0650000000e+003,2.0761538086e+003,2.0619230957e+003,2.0778205566e+003,1.7720512695e+003,1.9251281738e+003,1.9444871826e+003,1.9948718262e+003,2.1617949219e+003,
5.2343750000e-001,2.4619230957e+003,1.6991025391e+003,1.9164102783e+003,2.0205128174e+003,1.6912821045e+003,1.9052564697e+003,1.9183333740e+003,1.9043590088e+003,1.9212821045e+003,1.6285897217e+003,1.7667949219e+003,1.7882050781e+003,1.8339743652e+003,1.9992307129e+003,
5.3125000000e-001,2.0641025391e+003,1.2519230957e+003,1.5017949219e+003,1.6067949219e+003,1.2676922607e+003,1.4882050781e+003,1.5165384521e+003,1.4739743652e+003,1.5102564697e+003,1.1917949219e+003,1.3229487305e+003,1.3600000000e+003,1.4015384521e+003,1.5841025391e+003,
5.3906250000e-001,1.8593590088e+003,1.1207692871e+003,1.3082050781e+003,1.4117949219e+003,1.1317949219e+003,1.2989743652e+003,1.3230769043e+003,1.2917949219e+003,1.3250000000e+003,1.0685897217e+003,1.1708974609e+003,1.1953846436e+003,1.2312821045e+003,1.3846153564e+003,
5.4687500000e-001,1.7694871826e+003,1.0600000000e+003,1.2146153564e+003,1.3094871826e+003,1.0641025391e+003,1.2114102783e+003,1.2352564697e+003,1.2079487305e+003,1.2360256348e+003,1.0248718262e+003,1.1042307129e+003,1.1242307129e+003,1.1519230957e+003,1.2843590088e+003,
5.5468750000e-001,1.5008974609e+003,8.5371795654e+002,9.8115386963e+002,1.0617949219e+003,8.5820513916e+002,9.8397436523e+002,1.0147435913e+003,9.7833331299e+002,1.0071795044e+003,8.2628204346e+002,8.8410253906e+002,9.2153845215e+002,9.2743591309e+002,1.0439743652e+003,
5.6250000000e-001,1.3720512695e+003,8.6794873047e+002,9.4846154785e+002,1.0205128174e+003,8.7153845215e+002,9.5358972168e+002,9.8128204346e+002,9.5512823486e+002,9.7858972168e+002,8.5397436523e+002,8.8294873047e+002,8.9435894775e+002,9.2012823486e+002,9.9423077393e+002,
5.7031250000e-001,1.3737178955e+003,8.5410253906e+002,9.3423077393e+002,1.0014102783e+003,8.6192309570e+002,9.3833331299e+002,9.6820513916e+002,9.3987176514e+002,9.6051281738e+002,8.4871795654e+002,8.7064105225e+002,8.8307690430e+002,9.0679486084e+002,9.7500000000e+002,
5.7812500000e-001,1.3967949219e+003,8.4589746094e+002,9.3179486084e+002,9.9820513916e+002,8.5807690430e+002,9.3538464355e+002,9.6692309570e+002,9.3461535645e+002,9.5666668701e+002,8.4307690430e+002,8.6410253906e+002,8.8166668701e+002,9.0307690430e+002,9.7371795654e+002,
5.8593750000e-001,1.4773077393e+003,8.8025640869e+002,9.7641027832e+002,1.0565384521e+003,8.9012823486e+002,9.8153845215e+002,1.0100000000e+003,9.7615386963e+002,1.0098717651e+003,8.7012823486e+002,8.9794873047e+002,9.2192309570e+002,9.4884613037e+002,1.0312821045e+003,
5.9375000000e-001,1.4988461914e+003,8.8820513916e+002,9.8961535645e+002,1.0750000000e+003,8.9346154785e+002,9.9358972168e+002,1.0194871826e+003,9.8717950439e+002,1.0246153564e+003,8.7602563477e+002,9.0653845215e+002,9.3230767822e+002,9.6102563477e+002,1.0470512695e+003,
6.0156250000e-001,1.5324359131e+003,8.6769232178e+002,9.8294873047e+002,1.0612821045e+003,8.7538464355e+002,9.7794873047e+002,1.0050000000e+003,9.6717950439e+002,9.9807690430e+002,8.4525640869e+002,8.9320513916e+002,9.2602563477e+002,9.4474359131e+002,1.0324359131e+003,
6.0937500000e-001,1.6961538086e+003,9.7217950439e+002,1.0902564697e+003,1.1957692871e+003,9.8538464355e+002,1.0821794434e+003,1.1134615479e+003,1.0821794434e+003,1.1114102783e+003,9.5371795654e+002,9.9948718262e+002,1.0333333740e+003,1.0557692871e+003,1.1487178955e+003,
6.1718750000e-001,1.7192307129e+003,9.7333331299e+002,1.0934615479e+003,1.1985897217e+003,9.8564105225e+002,1.0841025391e+003,1.1185897217e+003,1.0848718262e+003,1.1130769043e+003,9.5923077393e+002,1.0012820435e+003,1.0369230957e+003,1.0566666260e+003,1.1498718262e+003,
6.2500000000e-001,1.7638461914e+003,9.8410253906e+002,1.1119230957e+003,1.2133333740e+003,9.9717950439e+002,1.1019230957e+003,1.1416666260e+003,1.1002564697e+003,1.1266666260e+003,9.6910253906e+002,1.0144871826e+003,1.0533333740e+003,1.0712821045e+003,1.1661538086e+003,
6.3281250000e-001,1.8593590088e+003,1.0392307129e+003,1.1806409912e+003,1.2833333740e+003,1.0547435303e+003,1.1712821045e+003,1.2169230957e+003,1.1673077393e+003,1.1932050781e+003,1.0193589478e+003,1.0735897217e+003,1.1165384521e+003,1.1379487305e+003,1.2369230957e+003,
6.4062500000e-001,2.0426922607e+003,1.2248718262e+003,1.3820512695e+003,1.5029487305e+003,1.2435897217e+003,1.3793590088e+003,1.4232050781e+003,1.3978205566e+003,1.4264102783e+003,1.2110256348e+003,1.2650000000e+003,1.3165384521e+003,1.3534615479e+003,1.4528205566e+003,
6.4843750000e-001,1.9143590088e+003,1.1258974609e+003,1.2664102783e+003,1.3738461914e+003,1.1410256348e+003,1.2651281738e+003,1.3042307129e+003,1.2823077393e+003,1.3078205566e+003,1.1148718262e+003,1.1610256348e+003,1.2106409912e+003,1.2389743652e+003,1.3283333740e+003,
6.5625000000e-001,1.6473077393e+003,9.0666668701e+002,1.0147435913e+003,1.1074359131e+003,9.0089746094e+002,1.0160256348e+003,1.0485897217e+003,1.0134615479e+003,1.0396153564e+003,8.9884613037e+002,9.3064105225e+002,9.7230767822e+002,9.8641027832e+002,1.0648718262e+003,
6.6406250000e-001,1.8150000000e+003,1.0788461914e+003,1.2023077393e+003,1.3235897217e+003,1.0889743652e+003,1.2112821045e+003,1.2411538086e+003,1.1987178955e+003,1.2338461914e+003,1.0530769043e+003,1.1091025391e+003,1.1456409912e+003,1.1721794434e+003,1.2617949219e+003,
6.7187500000e-001,1.9396153564e+003,1.1824359131e+003,1.3135897217e+003,1.4438461914e+003,1.2046153564e+003,1.3239743652e+003,1.3551281738e+003,1.3115384521e+003,1.3471794434e+003,1.1525640869e+003,1.2147435303e+003,1.2556409912e+003,1.2866666260e+003,1.3779487305e+003,
6.7968750000e-001,2.1170512695e+003,1.2308974609e+003,1.3925640869e+003,1.5550000000e+003,1.2585897217e+003,1.3869230957e+003,1.4339743652e+003,1.3816666260e+003,1.4232050781e+003,1.2221794434e+003,1.2651281738e+003,1.3293590088e+003,1.3530769043e+003,1.4798718262e+003,
6.8750000000e-001,2.0757692871e+003,1.1897435303e+003,1.3512821045e+003,1.5138461914e+003,1.2108974609e+003,1.3441025391e+003,1.3929487305e+003,1.3380769043e+003,1.3814102783e+003,1.1851281738e+003,1.2234615479e+003,1.2850000000e+003,1.3093590088e+003,1.4388461914e+003,
6.9531250000e-001,2.0383333740e+003,1.1974359131e+003,1.3491025391e+003,1.4997435303e+003,1.2105128174e+003,1.3493590088e+003,1.3956409912e+003,1.3382050781e+003,1.3761538086e+003,1.1785897217e+003,1.2296153564e+003,1.2814102783e+003,1.3142307129e+003,1.4253846436e+003,
7.0312500000e-001,2.0765385742e+003,1.2385897217e+003,1.3892307129e+003,1.5383333740e+003,1.2517949219e+003,1.3919230957e+003,1.4387178955e+003,1.3802564697e+003,1.4134615479e+003,1.2108974609e+003,1.2700000000e+003,1.3235897217e+003,1.3564102783e+003,1.4621794434e+003,
7.1093750000e-001,2.1814101563e+003,1.3291025391e+003,1.4734615479e+003,1.6198718262e+003,1.3482050781e+003,1.4732050781e+003,1.5289743652e+003,1.4746153564e+003,1.5033333740e+003,1.3191025391e+003,1.3644871826e+003,1.4211538086e+003,1.4446153564e+003,1.5498718262e+003,
7.1875000000e-001,2.2026923828e+003,1.3553846436e+003,1.5052564697e+003,1.6464102783e+003,1.3766666260e+003,1.5026922607e+003,1.5589743652e+003,1.5085897217e+003,1.5394871826e+003,1.3547435303e+003,1.3962821045e+003,1.4523077393e+003,1.4775640869e+003,1.5783333740e+003,
7.2656250000e-001,2.2179487305e+003,1.3442307129e+003,1.5382050781e+003,1.6892307129e+003,1.3628205566e+003,1.5297435303e+003,1.5766666260e+003,1.5371794434e+003,1.5755128174e+003,1.3396153564e+003,1.3873077393e+003,1.4724359131e+003,1.4975640869e+003,1.5982050781e+003,
7.3437500000e-001,2.1524357910e+003,1.2853846436e+003,1.4735897217e+003,1.6288461914e+003,1.2979487305e+003,1.4692307129e+003,1.5121794434e+003,1.4730769043e+003,1.5073077393e+003,1.2769230957e+003,1.3205128174e+003,1.4120512695e+003,1.4300000000e+003,1.5338461914e+003,
7.4218750000e-001,2.0150000000e+003,1.1870512695e+003,1.3401281738e+003,1.4920512695e+003,1.1882050781e+003,1.3444871826e+003,1.3883333740e+003,1.3411538086e+003,1.3646153564e+003,1.1775640869e+003,1.2130769043e+003,1.2916666260e+003,1.2984615479e+003,1.4065384521e+003,
7.5000000000e-001,1.9858974609e+003,1.1716666260e+003,1.3114102783e+003,1.4601281738e+003,1.1716666260e+003,1.3167949219e+003,1.3642307129e+003,1.3110256348e+003,1.3360256348e+003,1.1637178955e+003,1.1994871826e+003,1.2647435303e+003,1.2738461914e+003,1.3801281738e+003,
7.5781250000e-001,1.9880769043e+003,1.1789743652e+003,1.3138461914e+003,1.4601281738e+003,1.1825640869e+003,1.3193590088e+003,1.3694871826e+003,1.3100000000e+003,1.3414102783e+003,1.1729487305e+003,1.2101281738e+003,1.2651281738e+003,1.2812821045e+003,1.3821794434e+003,
7.6562500000e-001,3.4229487305e+003,2.6278205566e+003,2.7328205566e+003,2.8635898438e+003,2.6534614258e+003,2.7335898438e+003,2.7769230957e+003,2.7020512695e+003,2.7243588867e+003,2.5765385742e+003,2.6308974609e+003,2.6751281738e+003,2.7243588867e+003,2.7851281738e+003,
7.7343750000e-001,4.0030769043e+003,3.2539743652e+003,3.3146154785e+003,3.4451281738e+003,3.2708974609e+003,3.3108974609e+003,3.3480769043e+003,3.2888461914e+003,3.3002563477e+003,3.1982050781e+003,3.2434614258e+003,3.2619230957e+003,3.3219230957e+003,3.3667949219e+003,
7.8125000000e-001,5.4319228516e+003,4.8285898438e+003,4.7929487305e+003,4.8943588867e+003,4.8133334961e+003,4.7748715820e+003,4.7912822266e+003,4.7808974609e+003,4.7562822266e+003,4.7893588867e+003,4.7992309570e+003,4.7591025391e+003,4.8516665039e+003,4.8391025391e+003,
7.8906250000e-001,6.2950000000e+003,5.8243588867e+003,5.7408974609e+003,5.7811538086e+003,5.7926923828e+003,5.7102563477e+003,5.7020512695e+003,5.7412822266e+003,5.6771796875e+003,5.7994873047e+003,5.8007690430e+003,5.7301284180e+003,5.8219228516e+003,5.7717949219e+003,
7.9687500000e-001,6.3893588867e+003,5.9632050781e+003,5.8694873047e+003,5.8938461914e+003,5.9242309570e+003,5.8348715820e+003,5.8203847656e+003,5.8693588867e+003,5.7973076172e+003,5.9410258789e+003,5.9379487305e+003,5.8573076172e+003,5.9443588867e+003,5.8905126953e+003,
8.0468750000e-001,6.6811538086e+003,6.3728203125e+003,6.2507690430e+003,6.2591025391e+003,6.3062822266e+003,6.2150000000e+003,6.1911538086e+003,6.2344873047e+003,6.1542309570e+003,6.3278203125e+003,6.3294873047e+003,6.2250000000e+003,6.3217949219e+003,6.2517949219e+003,
8.1250000000e-001,6.9361538086e+003,6.7337177734e+003,6.5985898438e+003,6.5846152344e+003,6.6779487305e+003,6.5535898438e+003,6.5100000000e+003,6.5915385742e+003,6.4994873047e+003,6.7025639648e+003,6.7055126953e+003,6.5905126953e+003,6.6794873047e+003,6.5969228516e+003,
8.2031250000e-001,6.7253847656e+003,6.5466665039e+003,6.4234614258e+003,6.3938461914e+003,6.4965385742e+003,6.3776923828e+003,6.3279487305e+003,6.4216665039e+003,6.3283334961e+003,6.5285898438e+003,6.5294873047e+003,6.4155126953e+003,6.4996152344e+003,6.4162822266e+003,
8.2812500000e-001,6.4143588867e+003,6.2512822266e+003,6.1450000000e+003,6.1011538086e+003,6.2047436523e+003,6.1008974609e+003,6.0496152344e+003,6.1434614258e+003,6.0521796875e+003,6.2396152344e+003,6.2400000000e+003,6.1330771484e+003,6.2121796875e+003,6.1312822266e+003,
8.3593750000e-001,5.9983334961e+003,5.8548715820e+003,5.7723076172e+003,5.7146152344e+003,5.8119228516e+003,5.7302563477e+003,5.6888461914e+003,5.7560258789e+003,5.6739741211e+003,5.8274360352e+003,5.8337177734e+003,5.7498715820e+003,5.8219228516e+003,5.7515385742e+003,
8.4375000000e-001,6.0239741211e+003,5.8932050781e+003,5.8096152344e+003,5.7508974609e+003,5.8512822266e+003,5.7655126953e+003,5.7287177734e+003,5.7883334961e+003,5.7083334961e+003,5.8555126953e+003,5.8653847656e+003,5.7844873047e+003,5.8579487305e+003,5.7905126953e+003,
8.5156250000e-001,6.1193588867e+003,6.0393588867e+003,5.9466665039e+003,5.8794873047e+003,5.9920512695e+003,5.9041025391e+003,5.8621796875e+003,5.9401284180e+003,5.8556411133e+003,6.0169228516e+003,6.0205126953e+003,5.9229487305e+003,6.0010258789e+003,5.9321796875e+003,
8.5937500000e-001,5.9965385742e+003,5.9270512695e+003,5.8401284180e+003,5.7696152344e+003,5.8778203125e+003,5.8039741211e+003,5.7602563477e+003,5.8346152344e+003,5.7512822266e+003,5.9076923828e+003,5.9061538086e+003,5.8141025391e+003,5.8915385742e+003,5.8215385742e+003,
8.6718750000e-001,5.8407690430e+003,5.7857690430e+003,5.7078203125e+003,5.6433334961e+003,5.7448715820e+003,5.6823076172e+003,5.6392309570e+003,5.6996152344e+003,5.6226923828e+003,5.7564101563e+003,5.7547436523e+003,5.6760258789e+003,5.7525639648e+003,5.6825639648e+003,
8.7500000000e-001,5.8324360352e+003,5.7878203125e+003,5.7094873047e+003,5.6516665039e+003,5.7535898438e+003,5.6850000000e+003,5.6435898438e+003,5.7043588867e+003,5.6292309570e+003,5.7538461914e+003,5.7602563477e+003,5.6780771484e+003,5.7511538086e+003,5.6851284180e+003,
8.8281250000e-001,5.8142309570e+003,5.7814101563e+003,5.7026923828e+003,5.6480771484e+003,5.7498715820e+003,5.6762822266e+003,5.6376923828e+003,5.7015385742e+003,5.6275639648e+003,5.7458974609e+003,5.7628203125e+003,5.6725639648e+003,5.7403847656e+003,5.6801284180e+003,
8.9062500000e-001,5.2926923828e+003,5.2688461914e+003,5.2252563477e+003,5.1551284180e+003,5.2378203125e+003,5.2125639648e+003,5.1756411133e+003,5.2252563477e+003,5.1591025391e+003,5.2475639648e+003,5.2514101563e+003,5.1900000000e+003,5.2587177734e+003,5.2042309570e+003,
8.9843750000e-001,5.2353847656e+003,5.2115385742e+003,5.1698715820e+003,5.1119228516e+003,5.1876923828e+003,5.1600000000e+003,5.1252563477e+003,5.1692309570e+003,5.1002563477e+003,5.1808974609e+003,5.1960258789e+003,5.1360258789e+003,5.2001284180e+003,5.1530771484e+003,
9.0625000000e-001,5.2602563477e+003,5.2360258789e+003,5.1964101563e+003,5.1476923828e+003,5.2003847656e+003,5.1760258789e+003,5.1443588867e+003,5.1826923828e+003,5.1060258789e+003,5.1864101563e+003,5.2237177734e+003,5.1546152344e+003,5.2135898438e+003,5.1811538086e+003,
9.1406250000e-001,5.2247436523e+003,5.2014101563e+003,5.1675639648e+003,5.1110258789e+003,5.1625639648e+003,5.1453847656e+003,5.1116665039e+003,5.1523076172e+003,5.0765385742e+003,5.1605126953e+003,5.1879487305e+003,5.1233334961e+003,5.1847436523e+003,5.1497436523e+003,
9.2187500000e-001,5.0319228516e+003,5.0148715820e+003,4.9878203125e+003,4.9282050781e+003,4.9889741211e+003,4.9720512695e+003,4.9360258789e+003,4.9788461914e+003,4.9133334961e+003,4.9858974609e+003,5.0043588867e+003,4.9476923828e+003,5.0088461914e+003,4.9730771484e+003,
9.2968750000e-001,4.6148715820e+003,4.5843588867e+003,4.5753847656e+003,4.5211538086e+003,4.5552563477e+003,4.5544873047e+003,4.5239741211e+003,4.5787177734e+003,4.5355126953e+003,4.5624360352e+003,4.5806411133e+003,4.5308974609e+003,4.5805126953e+003,4.5598715820e+003,
9.3750000000e-001,4.4371796875e+003,4.3958974609e+003,4.4021796875e+003,4.3469228516e+003,4.3691025391e+003,4.3821796875e+003,4.3552563477e+003,4.4010258789e+003,4.3619228516e+003,4.3771796875e+003,4.3911538086e+003,4.3502563477e+003,4.3984614258e+003,4.3834614258e+003,
9.4531250000e-001,4.4508974609e+003,4.4014101563e+003,4.4025639648e+003,4.3612822266e+003,4.3896152344e+003,4.3996152344e+003,4.3824360352e+003,4.3878203125e+003,4.3566665039e+003,4.3579487305e+003,4.3843588867e+003,4.3433334961e+003,4.4030771484e+003,4.3875639648e+003,
9.5312500000e-001,4.7348715820e+003,4.6902563477e+003,4.6726923828e+003,4.6373076172e+003,4.6762822266e+003,4.6717949219e+003,4.6565385742e+003,4.6529487305e+003,4.6223076172e+003,4.6326923828e+003,4.6666665039e+003,4.6150000000e+003,4.6843588867e+003,4.6606411133e+003,
9.6093750000e-001,5.2197436523e+003,5.1975639648e+003,5.1607690430e+003,5.1129487305e+003,5.1544873047e+003,5.1332050781e+003,5.1023076172e+003,5.1597436523e+003,5.1132050781e+003,5.1748715820e+003,5.1906411133e+003,5.1135898438e+003,5.1869228516e+003,5.1438461914e+003,
9.6875000000e-001,4.9382050781e+003,4.9188461914e+003,4.8953847656e+003,4.8452563477e+003,4.8791025391e+003,4.8700000000e+003,4.8360258789e+003,4.9069228516e+003,4.8576923828e+003,4.9130771484e+003,4.9207690430e+003,4.8493588867e+003,4.9166665039e+003,4.8773076172e+003,
9.7656250000e-001,4.5589741211e+003,4.5369228516e+003,4.5300000000e+003,4.4810258789e+003,4.5065385742e+003,4.5139741211e+003,4.4825639648e+003,4.5480771484e+003,4.4993588867e+003,4.5342309570e+003,4.5411538086e+003,4.4825639648e+003,4.5419228516e+003,4.5121796875e+003,
9.8437500000e-001,4.2597436523e+003,4.2301284180e+003,4.2364101563e+003,4.1900000000e+003,4.2096152344e+003,4.2308974609e+003,4.2070512695e+003,4.2512822266e+003,4.2041025391e+003,4.2142309570e+003,4.2282050781e+003,4.1850000000e+003,4.2357690430e+003,4.2188461914e+003,
9.9218750000e-001,4.8167949219e+003,4.7752563477e+003,4.7637177734e+003,4.7302563477e+003,4.7587177734e+003,4.7484614258e+003,4.7387177734e+003,4.7473076172e+003,4.6889741211e+003,4.7070512695e+003,4.7444873047e+003,4.7000000000e+003,4.7580771484e+003,4.7411538086e+003,
1.0000000000e+000,4.9487177734e+003,4.9141025391e+003,4.8992309570e+003,4.8651284180e+003,4.8894873047e+003,4.8773076172e+003,4.8620512695e+003,4.8885898438e+003,4.8278203125e+003,4.8585898438e+003,4.8906411133e+003,4.8389741211e+003,4.9037177734e+003,4.8792309570e+003,
1.0078125000e+000,4.5665385742e+003,4.5329487305e+003,4.5375639648e+003,4.4938461914e+003,4.5041025391e+003,4.5197436523e+003,4.4933334961e+003,4.5374360352e+003,4.4892309570e+003,4.5080771484e+003,4.5330771484e+003,4.4846152344e+003,4.5326923828e+003,4.5220512695e+003,
1.0156250000e+000,4.1771796875e+003,4.1169228516e+003,4.1480771484e+003,4.1267949219e+003,4.1047436523e+003,4.1358974609e+003,4.1175639648e+003,4.1373076172e+003,4.1024360352e+003,4.0843588867e+003,4.1255126953e+003,4.0902563477e+003,4.1246152344e+003,4.1321796875e+003,
1.0234375000e+000,4.1257690430e+003,4.0612819824e+003,4.0933332520e+003,4.0834614258e+003,4.0437180176e+003,4.0803845215e+003,4.0639743652e+003,4.0848718262e+003,4.0534614258e+003,4.0315385742e+003,4.0675642090e+003,4.0342307129e+003,4.0803845215e+003,4.0807692871e+003,
1.0312500000e+000,3.9832050781e+003,3.9061538086e+003,3.9384614258e+003,3.9384614258e+003,3.8885898438e+003,3.9225642090e+003,3.9039743652e+003,3.9170512695e+003,3.9007692871e+003,3.8705129395e+003,3.8916667480e+003,3.8683332520e+003,3.9203845215e+003,3.9208974609e+003,
1.0390625000e+000,4.0447436523e+003,3.9617949219e+003,3.9943588867e+003,3.9910256348e+003,3.9544870605e+003,3.9796154785e+003,3.9620512695e+003,3.9662819824e+003,3.9530769043e+003,3.9180769043e+003,3.9457692871e+003,3.9206411133e+003,3.9691025391e+003,3.9741025391e+003,
1.0468750000e+000,4.2373076172e+003,4.1485898438e+003,4.1765385742e+003,4.1723076172e+003,4.1507690430e+003,4.1687177734e+003,4.1533334961e+003,4.1646152344e+003,4.1519228516e+003,4.1184614258e+003,4.1458974609e+003,4.1093588867e+003,4.1653847656e+003,4.1617949219e+003,
1.0546875000e+000,4.2129487305e+003,4.1235898438e+003,4.1507690430e+003,4.1500000000e+003,4.1220512695e+003,4.1461538086e+003,4.1303847656e+003,4.1550000000e+003,4.1408974609e+003,4.1105126953e+003,4.1279487305e+003,4.0911538086e+003,4.1480771484e+003,4.1398715820e+003,
1.0625000000e+000,3.7129487305e+003,3.6043588867e+003,3.6546154785e+003,3.6516667480e+003,3.5910256348e+003,3.6423076172e+003,3.6324357910e+003,3.6576923828e+003,3.6406411133e+003,3.5893588867e+003,3.6039743652e+003,3.5885898438e+003,3.6210256348e+003,3.6356411133e+003,
1.0703125000e+000,3.6152563477e+003,3.4947436523e+003,3.5533332520e+003,3.5457692871e+003,3.4808974609e+003,3.5374357910e+003,3.5330769043e+003,3.5482050781e+003,3.5291025391e+003,3.4688461914e+003,3.4924357910e+003,3.4794870605e+003,3.5115385742e+003,3.5323076172e+003,
1.0781250000e+000,3.5874357910e+003,3.4552563477e+003,3.5175642090e+003,3.5076923828e+003,3.4414101563e+003,3.5003845215e+003,3.5017949219e+003,3.5093588867e+003,3.4873076172e+003,3.4239743652e+003,3.4534614258e+003,3.4415385742e+003,3.4774357910e+003,3.4982050781e+003,
1.0859375000e+000,3.5948718262e+003,3.4523076172e+003,3.5142307129e+003,3.5056411133e+003,3.4383332520e+003,3.4971794434e+003,3.5034614258e+003,3.5073076172e+003,3.4825642090e+003,3.4219230957e+003,3.4526923828e+003,3.4426923828e+003,3.4814101563e+003,3.4992307129e+003,
1.0937500000e+000,3.5356411133e+003,3.3666667480e+003,3.4315385742e+003,3.4355129395e+003,3.3579487305e+003,3.4129487305e+003,3.4198718262e+003,3.4185898438e+003,3.3917949219e+003,3.3401281738e+003,3.3835898438e+003,3.3758974609e+003,3.4034614258e+003,3.4316667480e+003,
1.1015625000e+000,3.5673076172e+003,3.3802563477e+003,3.4397436523e+003,3.4403845215e+003,3.3450000000e+003,3.4206411133e+003,3.4303845215e+003,3.4155129395e+003,3.3997436523e+003,3.3412819824e+003,3.3723076172e+003,3.3787180176e+003,3.4170512695e+003,3.4383332520e+003,
1.1093750000e+000,3.5964101563e+003,3.4053845215e+003,3.4637180176e+003,3.4664101563e+003,3.3675642090e+003,3.4435898438e+003,3.4515385742e+003,3.4385898438e+003,3.4274357910e+003,3.3691025391e+003,3.3965385742e+003,3.4030769043e+003,3.4389743652e+003,3.4617949219e+003,
1.1171875000e+000,3.6858974609e+003,3.4905129395e+003,3.5489743652e+003,3.5661538086e+003,3.4848718262e+003,3.5365385742e+003,3.5352563477e+003,3.5308974609e+003,3.5206411133e+003,3.4651281738e+003,3.4969230957e+003,3.4935898438e+003,3.5267949219e+003,3.5566667480e+003,
1.1250000000e+000,3.8279487305e+003,3.6480769043e+003,3.6774357910e+003,3.7065385742e+003,3.6467949219e+003,3.6743588867e+003,3.6625642090e+003,3.6610256348e+003,3.6642307129e+003,3.6203845215e+003,3.6447436523e+003,3.6216667480e+003,3.6701281738e+003,3.6846154785e+003,
1.1328125000e+000,3.8720512695e+003,3.6956411133e+003,3.7205129395e+003,3.7482050781e+003,3.6820512695e+003,3.7153845215e+003,3.7050000000e+003,3.6993588867e+003,3.7035898438e+003,3.6629487305e+003,3.6883332520e+003,3.6608974609e+003,3.7119230957e+003,3.7248718262e+003,
1.1406250000e+000,4.0642307129e+003,3.8948718262e+003,3.9100000000e+003,3.9388461914e+003,3.8814101563e+003,3.9044870605e+003,3.8955129395e+003,3.8900000000e+003,3.8871794434e+003,3.8585898438e+003,3.8875642090e+003,3.8507692871e+003,3.9060256348e+003,3.9158974609e+003,
1.1484375000e+000,4.1869228516e+003,4.0237180176e+003,4.0320512695e+003,4.0589743652e+003,4.0115385742e+003,4.0258974609e+003,4.0162819824e+003,4.0166667480e+003,4.0102563477e+003,3.9889743652e+003,4.0155129395e+003,3.9771794434e+003,4.0332050781e+003,4.0394870605e+003,
1.1562500000e+000,4.3146152344e+003,4.1720512695e+003,4.1760258789e+003,4.1902563477e+003,4.1478203125e+003,4.1579487305e+003,4.1483334961e+003,4.1667949219e+003,4.1508974609e+003,4.1398715820e+003,4.1526923828e+003,4.1243588867e+003,4.1770512695e+003,4.1752563477e+003,
1.1640625000e+000,4.2885898438e+003,4.1524360352e+003,4.1551284180e+003,4.1723076172e+003,4.1280771484e+003,4.1365385742e+003,4.1287177734e+003,4.1478203125e+003,4.1257690430e+003,4.1157690430e+003,4.1298715820e+003,4.1023076172e+003,4.1541025391e+003,4.1521796875e+003,
1.1718750000e+000,4.2833334961e+003,4.1548715820e+003,4.1530771484e+003,4.1764101563e+003,4.1216665039e+003,4.1374360352e+003,4.1334614258e+003,4.1479487305e+003,4.1137177734e+003,4.1105126953e+003,4.1339741211e+003,4.1033334961e+003,4.1498715820e+003,4.1512822266e+003,
1.1796875000e+000,4.3248715820e+003,4.1967949219e+003,4.1958974609e+003,4.2167949219e+003,4.1556411133e+003,4.1798715820e+003,4.1757690430e+003,4.1874360352e+003,4.1501284180e+003,4.1523076172e+003,4.1793588867e+003,4.1476923828e+003,4.1901284180e+003,4.1941025391e+003,
1.1875000000e+000,4.5753847656e+003,4.4656411133e+003,4.4569228516e+003,4.4737177734e+003,4.4425639648e+003,4.4403847656e+003,4.4316665039e+003,4.4371796875e+003,4.3939741211e+003,4.4157690430e+003,4.4469228516e+003,4.4093588867e+003,4.4511538086e+003,4.4487177734e+003,
1.1953125000e+000,4.6562822266e+003,4.5579487305e+003,4.5420512695e+003,4.5619228516e+003,4.5466665039e+003,4.5269228516e+003,4.5166665039e+003,4.5255126953e+003,4.4780771484e+003,4.5079487305e+003,4.5375639648e+003,4.4983334961e+003,4.5408974609e+003,4.5337177734e+003,
1.2031250000e+000,4.7078203125e+003,4.6183334961e+003,4.5980771484e+003,4.6200000000e+003,4.6111538086e+003,4.5826923828e+003,4.5711538086e+003,4.5867949219e+003,4.5364101563e+003,4.5724360352e+003,4.5974360352e+003,4.5594873047e+003,4.6008974609e+003,4.5911538086e+003,
1.2109375000e+000,4.7197436523e+003,4.6350000000e+003,4.6147436523e+003,4.6370512695e+003,4.6229487305e+003,4.5971796875e+003,4.5837177734e+003,4.6078203125e+003,4.5588461914e+003,4.5960258789e+003,4.6146152344e+003,4.5793588867e+003,4.6192309570e+003,4.6093588867e+003,
1.2187500000e+000,4.3828203125e+003,4.3024360352e+003,4.3024360352e+003,4.3214101563e+003,4.2787177734e+003,4.2858974609e+003,4.2673076172e+003,4.2947436523e+003,4.2748715820e+003,4.2770512695e+003,4.2897436523e+003,4.2521796875e+003,4.3032050781e+003,4.2898715820e+003,
1.2265625000e+000,4.2979487305e+003,4.2179487305e+003,4.2198715820e+003,4.2384614258e+003,4.2006411133e+003,4.2071796875e+003,4.1892309570e+003,4.2096152344e+003,4.1898715820e+003,4.1891025391e+003,4.2034614258e+003,4.1664101563e+003,4.2196152344e+003,4.2033334961e+003,
1.2343750000e+000,4.2453847656e+003,4.1630771484e+003,4.1669228516e+003,4.2097436523e+003,4.1511538086e+003,4.1653847656e+003,4.1430771484e+003,4.1561538086e+003,4.1353847656e+003,4.1317949219e+003,4.1457690430e+003,4.1142309570e+003,4.1620512695e+003,4.1547436523e+003,
1.2421875000e+000,4.2070512695e+003,4.1191025391e+003,4.1261538086e+003,4.1871796875e+003,4.0993588867e+003,4.1216665039e+003,4.1016665039e+003,4.1071796875e+003,4.0971796875e+003,4.0866667480e+003,4.0941025391e+003,4.0744870605e+003,4.1260258789e+003,4.1147436523e+003,
1.2500000000e+000,4.2305126953e+003,4.1393588867e+003,4.1424360352e+003,4.1962822266e+003,4.1214101563e+003,4.1426923828e+003,4.1300000000e+003,4.1412822266e+003,4.1161538086e+003,4.1089741211e+003,4.1384614258e+003,4.1069228516e+003,4.1519228516e+003,4.1385898438e+003,
1.2578125000e+000,4.2570512695e+003,4.1643588867e+003,4.1683334961e+003,4.2193588867e+003,4.1507690430e+003,4.1698715820e+003,4.1574360352e+003,4.1674360352e+003,4.1387177734e+003,4.1300000000e+003,4.1652563477e+003,4.1326923828e+003,4.1767949219e+003,4.1676923828e+003,
1.2656250000e+000,4.4323076172e+003,4.3475639648e+003,4.3430771484e+003,4.3898715820e+003,4.3415385742e+003,4.3437177734e+003,4.3314101563e+003,4.3387177734e+003,4.3042309570e+003,4.3051284180e+003,4.3343588867e+003,4.3089741211e+003,4.3580771484e+003,4.3448715820e+003,
1.2734375000e+000,4.5588461914e+003,4.4829487305e+003,4.4705126953e+003,4.5164101563e+003,4.4776923828e+003,4.4701284180e+003,4.4574360352e+003,4.4665385742e+003,4.4284614258e+003,4.4393588867e+003,4.4635898438e+003,4.4415385742e+003,4.4914101563e+003,4.4721796875e+003,
1.2812500000e+000,4.5880771484e+003,4.5287177734e+003,4.5111538086e+003,4.5496152344e+003,4.5076923828e+003,4.5044873047e+003,4.4853847656e+003,4.5187177734e+003,4.4703847656e+003,4.4988461914e+003,4.5194873047e+003,4.4943588867e+003,4.5385898438e+003,4.5116665039e+003,
1.2890625000e+000,4.4105126953e+003,4.3497436523e+003,4.3419228516e+003,4.3757690430e+003,4.3241025391e+003,4.3312822266e+003,4.3125639648e+003,4.3501284180e+003,4.3024360352e+003,4.3248715820e+003,4.3446152344e+003,4.3241025391e+003,4.3643588867e+003,4.3412822266e+003,
1.2968750000e+000,4.0029487305e+003,3.9329487305e+003,3.9512819824e+003,3.9807692871e+003,3.9071794434e+003,3.9361538086e+003,3.9233332520e+003,3.9505129395e+003,3.9184614258e+003,3.9087180176e+003,3.9324357910e+003,3.9280769043e+003,3.9584614258e+003,3.9478205566e+003,
1.3046875000e+000,3.8662819824e+003,3.7885898438e+003,3.8173076172e+003,3.8496154785e+003,3.7643588867e+003,3.8039743652e+003,3.7930769043e+003,3.8141025391e+003,3.7941025391e+003,3.7673076172e+003,3.7951281738e+003,3.7928205566e+003,3.8202563477e+003,3.8142307129e+003,
1.3125000000e+000,3.4852563477e+003,3.3723076172e+003,3.4228205566e+003,3.4741025391e+003,3.3543588867e+003,3.4208974609e+003,3.4076923828e+003,3.4310256348e+003,3.4366667480e+003,3.3828205566e+003,3.4075642090e+003,3.4030769043e+003,3.4255129395e+003,3.4273076172e+003,
1.3203125000e+000,3.2780769043e+003,3.1512819824e+003,3.2091025391e+003,3.2684614258e+003,3.1408974609e+003,3.2111538086e+003,3.1980769043e+003,3.2170512695e+003,3.2279487305e+003,3.1632050781e+003,3.1856411133e+003,3.1889743652e+003,3.2100000000e+003,3.2164101563e+003,
1.3281250000e+000,3.0653845215e+003,2.9238461914e+003,2.9885898438e+003,3.0564101563e+003,2.9243588867e+003,2.9952563477e+003,2.9838461914e+003,2.9933332520e+003,3.0092307129e+003,2.9293588867e+003,2.9528205566e+003,2.9658974609e+003,2.9871794434e+003,2.9991025391e+003,
1.3359375000e+000,2.8835898438e+003,2.7261538086e+003,2.7980769043e+003,2.8734614258e+003,2.7378205566e+003,2.8087180176e+003,2.7996154785e+003,2.7980769043e+003,2.8189743652e+003,2.7229487305e+003,2.7493588867e+003,2.7714101563e+003,2.7933332520e+003,2.8116667480e+003,
1.3437500000e+000,2.4996154785e+003,2.2798718262e+003,2.3750000000e+003,2.4721794434e+003,2.2821794434e+003,2.3910256348e+003,2.3873076172e+003,2.3596154785e+003,2.3983332520e+003,2.2706411133e+003,2.2943588867e+003,2.3300000000e+003,2.3529487305e+003,2.3867949219e+003,
1.3515625000e+000,2.1239743652e+003,1.8303846436e+003,1.9552564697e+003,2.0805129395e+003,1.8666666260e+003,1.9861538086e+003,2.0002564697e+003,1.9687178955e+003,2.0033333740e+003,1.8460256348e+003,1.8697435303e+003,1.9152564697e+003,1.9343590088e+003,1.9762821045e+003,
1.3593750000e+000,2.0035897217e+003,1.6897435303e+003,1.8234615479e+003,1.9583333740e+003,1.7261538086e+003,1.8567949219e+003,1.8765384521e+003,1.8425640869e+003,1.8738461914e+003,1.7069230957e+003,1.7352564697e+003,1.7851281738e+003,1.7994871826e+003,1.8479487305e+003,
1.3671875000e+000,1.9691025391e+003,1.6250000000e+003,1.7543590088e+003,1.8993590088e+003,1.6452564697e+003,1.7941025391e+003,1.8237178955e+003,1.7737178955e+003,1.8047435303e+003,1.6274359131e+003,1.6629487305e+003,1.7162821045e+003,1.7302564697e+003,1.7797435303e+003,
1.3750000000e+000,2.1001281738e+003,1.7462821045e+003,1.8682050781e+003,2.0092307129e+003,1.7658974609e+003,1.9080769043e+003,1.9415384521e+003,1.8858974609e+003,1.9152564697e+003,1.7420512695e+003,1.7762821045e+003,1.8307692871e+003,1.8457692871e+003,1.8914102783e+003,
1.3828125000e+000,2.6594870605e+003,2.2974357910e+003,2.3965385742e+003,2.5367949219e+003,2.3396154785e+003,2.4244870605e+003,2.4632050781e+003,2.4235898438e+003,2.4371794434e+003,2.3011538086e+003,2.3288461914e+003,2.3691025391e+003,2.3888461914e+003,2.4230769043e+003,
1.3906250000e+000,2.9492307129e+003,2.5880769043e+003,2.6705129395e+003,2.8214101563e+003,2.5989743652e+003,2.6919230957e+003,2.7255129395e+003,2.6947436523e+003,2.7069230957e+003,2.5957692871e+003,2.6197436523e+003,2.6464101563e+003,2.6696154785e+003,2.6971794434e+003,
1.3984375000e+000,3.0344870605e+003,2.6744870605e+003,2.7535898438e+003,2.8987180176e+003,2.6801281738e+003,2.7721794434e+003,2.8043588867e+003,2.7715385742e+003,2.7853845215e+003,2.6796154785e+003,2.6987180176e+003,2.7269230957e+003,2.7488461914e+003,2.7757692871e+003,
1.4062500000e+000,3.4103845215e+003,3.0789743652e+003,3.1248718262e+003,3.2692307129e+003,3.0869230957e+003,3.1379487305e+003,3.1634614258e+003,3.1364101563e+003,3.1451281738e+003,3.0701281738e+003,3.0823076172e+003,3.1005129395e+003,3.1292307129e+003,3.1423076172e+003,
1.4140625000e+000,3.5329487305e+003,3.2115385742e+003,3.2489743652e+003,3.3911538086e+003,3.2134614258e+003,3.2560256348e+003,3.2780769043e+003,3.2574357910e+003,3.2623076172e+003,3.2028205566e+003,3.2155129395e+003,3.2273076172e+003,3.2557692871e+003,3.2656411133e+003,
1.4218750000e+000,3.6685898438e+003,3.3592307129e+003,3.3925642090e+003,3.5203845215e+003,3.3493588867e+003,3.3906411133e+003,3.4041025391e+003,3.3939743652e+003,3.3964101563e+003,3.3589743652e+003,3.3687180176e+003,3.3717949219e+003,3.3939743652e+003,3.4033332520e+003,
1.4296875000e+000,3.7083332520e+003,3.4058974609e+003,3.4362819824e+003,3.5608974609e+003,3.3967949219e+003,3.4362819824e+003,3.4480769043e+003,3.4358974609e+003,3.4401281738e+003,3.4046154785e+003,3.4117949219e+003,3.4134614258e+003,3.4357692871e+003,3.4432050781e+003,
1.4375000000e+000,4.2597436523e+003,3.9960256348e+003,3.9921794434e+003,4.1230771484e+003,4.0042307129e+003,3.9915385742e+003,4.0085898438e+003,3.9753845215e+003,3.9746154785e+003,3.9621794434e+003,3.9694870605e+003,3.9619230957e+003,4.0041025391e+003,3.9901281738e+003,
1.4453125000e+000,4.5846152344e+003,4.3397436523e+003,4.3202563477e+003,4.4461538086e+003,4.3483334961e+003,4.3143588867e+003,4.3261538086e+003,4.3015385742e+003,4.2908974609e+003,4.3048715820e+003,4.3112822266e+003,4.2920512695e+003,4.3400000000e+003,4.3178203125e+003,
1.4531250000e+000,4.8632050781e+003,4.6397436523e+003,4.6066665039e+003,4.7234614258e+003,4.6443588867e+003,4.5985898438e+003,4.6007690430e+003,4.5925639648e+003,4.5703847656e+003,4.6120512695e+003,4.6155126953e+003,4.5838461914e+003,4.6333334961e+003,4.6042309570e+003,
1.4609375000e+000,5.0497436523e+003,4.8498715820e+003,4.8048715820e+003,4.9123076172e+003,4.8475639648e+003,4.8001284180e+003,4.7925639648e+003,4.7988461914e+003,4.7667949219e+003,4.8292309570e+003,4.8291025391e+003,4.7884614258e+003,4.8369228516e+003,4.8015385742e+003,
1.4687500000e+000,5.5502563477e+003,5.4579487305e+003,5.3578203125e+003,5.4353847656e+003,5.4276923828e+003,5.3592309570e+003,5.3400000000e+003,5.3655126953e+003,5.3173076172e+003,5.4300000000e+003,5.4178203125e+003,5.3530771484e+003,5.4092309570e+003,5.3441025391e+003,
1.4765625000e+000,5.5419228516e+003,5.4676923828e+003,5.3719228516e+003,5.4380771484e+003,5.4355126953e+003,5.3652563477e+003,5.3407690430e+003,5.3829487305e+003,5.3317949219e+003,5.4525639648e+003,5.4397436523e+003,5.3692309570e+003,5.4188461914e+003,5.3551284180e+003,
1.4843750000e+000,4.9728203125e+003,4.9158974609e+003,4.8680771484e+003,4.9266665039e+003,4.8852563477e+003,4.8606411133e+003,4.8384614258e+003,4.8811538086e+003,4.8374360352e+003,4.9214101563e+003,4.9167949219e+003,4.8582050781e+003,4.8993588867e+003,4.8385898438e+003,
1.4921875000e+000,4.7746152344e+003,4.7284614258e+003,4.6858974609e+003,4.7594873047e+003,4.6915385742e+003,4.6880771484e+003,4.6728203125e+003,4.7012822266e+003,4.6655126953e+003,4.7300000000e+003,4.7197436523e+003,4.6710258789e+003,4.7252563477e+003,4.6689741211e+003,
1.5000000000e+000,4.7548715820e+003,4.7110258789e+003,4.6719228516e+003,4.7441025391e+003,4.6808974609e+003,4.6685898438e+003,4.6514101563e+003,4.6903847656e+003,4.6537177734e+003,4.7151284180e+003,4.7056411133e+003,4.6583334961e+003,4.7043588867e+003,4.6570512695e+003,
1.5078125000e+000,4.2346152344e+003,4.1873076172e+003,4.1792309570e+003,4.2488461914e+003,4.1941025391e+003,4.1744873047e+003,4.1589741211e+003,4.2105126953e+003,4.1828203125e+003,4.1997436523e+003,4.1978203125e+003,4.1702563477e+003,4.1903847656e+003,4.1552563477e+003,
1.5156250000e+000,4.0007692871e+003,3.9314101563e+003,3.9376923828e+003,4.0197436523e+003,3.9320512695e+003,3.9460256348e+003,3.9401281738e+003,3.9397436523e+003,3.9187180176e+003,3.9158974609e+003,3.9294870605e+003,3.9119230957e+003,3.9338461914e+003,3.9141025391e+003,
1.5234375000e+000,4.1930771484e+003,4.1233334961e+003,4.1215385742e+003,4.2101284180e+003,4.1188461914e+003,4.1270512695e+003,4.1226923828e+003,4.1180771484e+003,4.0970512695e+003,4.1017949219e+003,4.1167949219e+003,4.0919230957e+003,4.1205126953e+003,4.0989741211e+003,
1.5312500000e+000,4.3976923828e+003,4.3320512695e+003,4.3207690430e+003,4.4147436523e+003,4.3255126953e+003,4.3215385742e+003,4.3178203125e+003,4.3188461914e+003,4.2980771484e+003,4.3125639648e+003,4.3238461914e+003,4.2924360352e+003,4.3273076172e+003,4.2980771484e+003,
1.5390625000e+000,4.5151284180e+003,4.4637177734e+003,4.4398715820e+003,4.5364101563e+003,4.4567949219e+003,4.4397436523e+003,4.4343588867e+003,4.4491025391e+003,4.4301284180e+003,4.4567949219e+003,4.4519228516e+003,4.4205126953e+003,4.4616665039e+003,4.4160258789e+003,
1.5468750000e+000,4.4411538086e+003,4.3960258789e+003,4.3688461914e+003,4.4639741211e+003,4.3857690430e+003,4.3753847656e+003,4.3678203125e+003,4.3796152344e+003,4.3621796875e+003,4.3900000000e+003,4.3785898438e+003,4.3514101563e+003,4.3917949219e+003,4.3453847656e+003,
1.5546875000e+000,4.3343588867e+003,4.2976923828e+003,4.2678203125e+003,4.3608974609e+003,4.2760258789e+003,4.2888461914e+003,4.2771796875e+003,4.2720512695e+003,4.2561538086e+003,4.2846152344e+003,4.2711538086e+003,4.2479487305e+003,4.2835898438e+003,4.2450000000e+003,
1.5625000000e+000,4.3402563477e+003,4.3058974609e+003,4.2787177734e+003,4.3694873047e+003,4.2839741211e+003,4.3015385742e+003,4.2887177734e+003,4.2791025391e+003,4.2630771484e+003,4.2916665039e+003,4.2817949219e+003,4.2570512695e+003,4.2907690430e+003,4.2547436523e+003,
1.5703125000e+000,4.3275639648e+003,4.2921796875e+003,4.2766665039e+003,4.3493588867e+003,4.2901284180e+003,4.2898715820e+003,4.2770512695e+003,4.2726923828e+003,4.2574360352e+003,4.2798715820e+003,4.2824360352e+003,4.2526923828e+003,4.2833334961e+003,4.2516665039e+003,
1.5781250000e+000,4.3343588867e+003,4.2971796875e+003,4.2812822266e+003,4.3529487305e+003,4.2935898438e+003,4.2914101563e+003,4.2810258789e+003,4.2756411133e+003,4.2592309570e+003,4.2806411133e+003,4.2876923828e+003,4.2570512695e+003,4.2867949219e+003,4.2574360352e+003,
1.5859375000e+000,4.3948715820e+003,4.3579487305e+003,4.3393588867e+003,4.4150000000e+003,4.3471796875e+003,4.3473076172e+003,4.3397436523e+003,4.3315385742e+003,4.3117949219e+003,4.3362822266e+003,4.3470512695e+003,4.3141025391e+003,4.3453847656e+003,4.3155126953e+003,
1.5937500000e+000,4.8826923828e+003,4.8896152344e+003,4.8348715820e+003,4.9115385742e+003,4.8734614258e+003,4.8289741211e+003,4.8133334961e+003,4.8484614258e+003,4.8183334961e+003,4.8720512695e+003,4.8608974609e+003,4.8237177734e+003,4.8593588867e+003,4.8125639648e+003,
1.6015625000e+000,4.8005126953e+003,4.8144873047e+003,4.7616665039e+003,4.8315385742e+003,4.7951284180e+003,4.7492309570e+003,4.7338461914e+003,4.7750000000e+003,4.7464101563e+003,4.7952563477e+003,4.7866665039e+003,4.7517949219e+003,4.7798715820e+003,4.7374360352e+003,
1.6093750000e+000,4.6810258789e+003,4.6962822266e+003,4.6575639648e+003,4.7067949219e+003,4.6600000000e+003,4.6417949219e+003,4.6316665039e+003,4.6507690430e+003,4.6283334961e+003,4.6755126953e+003,4.6793588867e+003,4.6333334961e+003,4.6755126953e+003,4.6271796875e+003,
1.6171875000e+000,4.8475639648e+003,4.8655126953e+003,4.8283334961e+003,4.8667949219e+003,4.8339741211e+003,4.8078203125e+003,4.7889741211e+003,4.8205126953e+003,4.7933334961e+003,4.8470512695e+003,4.8489741211e+003,4.8102563477e+003,4.8466665039e+003,4.8025639648e+003,
1.6250000000e+000,4.8756411133e+003,4.8984614258e+003,4.8579487305e+003,4.8985898438e+003,4.8698715820e+003,4.8332050781e+003,4.8138461914e+003,4.8507690430e+003,4.8230771484e+003,4.8762822266e+003,4.8771796875e+003,4.8412822266e+003,4.8742309570e+003,4.8333334961e+003,
1.6328125000e+000,4.9100000000e+003,4.9530771484e+003,4.9026923828e+003,4.9292309570e+003,4.9252563477e+003,4.8802563477e+003,4.8633334961e+003,4.8928203125e+003,4.8652563477e+003,4.9276923828e+003,4.9228203125e+003,4.8882050781e+003,4.9185898438e+003,4.8800000000e+003,
1.6406250000e+000,4.7719228516e+003,4.8169228516e+003,4.7824360352e+003,4.7957690430e+003,4.8007690430e+003,4.7807690430e+003,4.7598715820e+003,4.7814101563e+003,4.7456411133e+003,4.8024360352e+003,4.8046152344e+003,4.7601284180e+003,4.7929487305e+003,4.7498715820e+003,
1.6484375000e+000,4.7391025391e+003,4.7820512695e+003,4.7532050781e+003,4.7680771484e+003,4.7661538086e+003,4.7555126953e+003,4.7362822266e+003,4.7496152344e+003,4.7139741211e+003,4.7647436523e+003,4.7732050781e+003,4.7273076172e+003,4.7603847656e+003,4.7184614258e+003,
1.6562500000e+000,4.7473076172e+003,4.7898715820e+003,4.7625639648e+003,4.7792309570e+003,4.7716665039e+003,4.7671796875e+003,4.7493588867e+003,4.7537177734e+003,4.7196152344e+003,4.7688461914e+003,4.7826923828e+003,4.7371796875e+003,4.7689741211e+003,4.7293588867e+003,
1.6640625000e+000,4.7906411133e+003,4.8384614258e+003,4.8062822266e+003,4.8280771484e+003,4.8200000000e+003,4.8150000000e+003,4.7907690430e+003,4.7957690430e+003,4.7608974609e+003,4.8192309570e+003,4.8344873047e+003,4.7911538086e+003,4.8221796875e+003,4.7820512695e+003,
1.6718750000e+000,4.3607690430e+003,4.4032050781e+003,4.3933334961e+003,4.4152563477e+003,4.3930771484e+003,4.3970512695e+003,4.3671796875e+003,4.3970512695e+003,4.3602563477e+003,4.3971796875e+003,4.4005126953e+003,4.3791025391e+003,4.4006411133e+003,4.3688461914e+003,
1.6796875000e+000,4.1302563477e+003,4.1647436523e+003,4.1646152344e+003,4.1858974609e+003,4.1529487305e+003,4.1674360352e+003,4.1447436523e+003,4.1700000000e+003,4.1396152344e+003,4.1587177734e+003,4.1617949219e+003,4.1493588867e+003,4.1638461914e+003,4.1412822266e+003,
1.6875000000e+000,3.9373076172e+003,3.9625642090e+003,3.9691025391e+003,3.9924357910e+003,3.9507692871e+003,3.9744870605e+003,3.9596154785e+003,3.9762819824e+003,3.9547436523e+003,3.9582050781e+003,3.9621794434e+003,3.9543588867e+003,3.9646154785e+003,3.9491025391e+003,
1.6953125000e+000,3.7039743652e+003,3.7042307129e+003,3.7279487305e+003,3.7606411133e+003,3.7105129395e+003,3.7401281738e+003,3.7328205566e+003,3.7452563477e+003,3.7380769043e+003,3.7184614258e+003,3.7184614258e+003,3.7134614258e+003,3.7241025391e+003,3.7116667480e+003,
1.7031250000e+000,3.6116667480e+003,3.5967949219e+003,3.6329487305e+003,3.6700000000e+003,3.6141025391e+003,3.6453845215e+003,3.6389743652e+003,3.6578205566e+003,3.6548718262e+003,3.6234614258e+003,3.6185898438e+003,3.6162819824e+003,3.6274357910e+003,3.6156411133e+003,
1.7109375000e+000,3.5002563477e+003,3.4706411133e+003,3.5167949219e+003,3.5574357910e+003,3.4915385742e+003,3.5293588867e+003,3.5242307129e+003,3.5491025391e+003,3.5501281738e+003,3.5050000000e+003,3.4969230957e+003,3.4978205566e+003,3.5084614258e+003,3.4989743652e+003,
1.7187500000e+000,3.2252563477e+003,3.1332050781e+003,3.1923076172e+003,3.2457692871e+003,3.1439743652e+003,3.2051281738e+003,3.2162819824e+003,3.2175642090e+003,3.2320512695e+003,3.1537180176e+003,3.1532050781e+003,3.1616667480e+003,3.1800000000e+003,3.1839743652e+003,
1.7265625000e+000,3.2726923828e+003,3.1719230957e+003,3.2314101563e+003,3.2873076172e+003,3.1851281738e+003,3.2383332520e+003,3.2492307129e+003,3.2575642090e+003,3.2700000000e+003,3.1953845215e+003,3.1908974609e+003,3.2026923828e+003,3.2203845215e+003,3.2260256348e+003,
1.7343750000e+000,3.0755129395e+003,2.9539743652e+003,3.0146154785e+003,3.0683332520e+003,2.9462819824e+003,3.0214101563e+003,3.0376923828e+003,3.0408974609e+003,3.0520512695e+003,2.9758974609e+003,2.9733332520e+003,3.0008974609e+003,3.0030769043e+003,3.0188461914e+003,
1.7421875000e+000,3.0693588867e+003,2.9176923828e+003,2.9906411133e+003,3.0517949219e+003,2.9408974609e+003,3.0070512695e+003,3.0301281738e+003,2.9944870605e+003,3.0024357910e+003,2.9162819824e+003,2.9298718262e+003,2.9632050781e+003,2.9711538086e+003,2.9874357910e+003,
1.7500000000e+000,3.2250000000e+003,3.0687180176e+003,3.1351281738e+003,3.2053845215e+003,3.1048718262e+003,3.1524357910e+003,3.1730769043e+003,3.1426923828e+003,3.1494870605e+003,3.0707692871e+003,3.0834614258e+003,3.1112819824e+003,3.1215385742e+003,3.1352563477e+003,
1.7578125000e+000,3.2611538086e+003,3.0928205566e+003,3.1526923828e+003,3.2237180176e+003,3.1178205566e+003,3.1678205566e+003,3.1819230957e+003,3.1761538086e+003,3.1808974609e+003,3.1252563477e+003,3.1262819824e+003,3.1457692871e+003,3.1458974609e+003,3.1582050781e+003,
1.7656250000e+000,2.8955129395e+003,2.6991025391e+003,2.7848718262e+003,2.8453845215e+003,2.7251281738e+003,2.8075642090e+003,2.8273076172e+003,2.8020512695e+003,2.8021794434e+003,2.7296154785e+003,2.7389743652e+003,2.7661538086e+003,2.7658974609e+003,2.7848718262e+003,
1.7734375000e+000,2.8793588867e+003,2.6726923828e+003,2.7588461914e+003,2.8224357910e+003,2.7006411133e+003,2.7824357910e+003,2.8050000000e+003,2.7751281738e+003,2.7784614258e+003,2.6984614258e+003,2.7070512695e+003,2.7402563477e+003,2.7426923828e+003,2.7643588867e+003,
1.7812500000e+000,2.8867949219e+003,2.6716667480e+003,2.7547436523e+003,2.8216667480e+003,2.6957692871e+003,2.7766667480e+003,2.8019230957e+003,2.7726923828e+003,2.7814101563e+003,2.6964101563e+003,2.7005129395e+003,2.7403845215e+003,2.7421794434e+003,2.7665385742e+003,
1.7890625000e+000,2.7969230957e+003,2.5669230957e+003,2.6529487305e+003,2.7232050781e+003,2.5796154785e+003,2.6693588867e+003,2.6962819824e+003,2.6779487305e+003,2.6943588867e+003,2.6034614258e+003,2.5988461914e+003,2.6466667480e+003,2.6364101563e+003,2.6674357910e+003,
1.7968750000e+000,2.6950000000e+003,2.4550000000e+003,2.5505129395e+003,2.6216667480e+003,2.4678205566e+003,2.5653845215e+003,2.5905129395e+003,2.5742307129e+003,2.5932050781e+003,2.4975642090e+003,2.4942307129e+003,2.5405129395e+003,2.5262819824e+003,2.5603845215e+003,
1.8046875000e+000,2.5603845215e+003,2.2982050781e+003,2.4079487305e+003,2.4858974609e+003,2.3121794434e+003,2.4207692871e+003,2.4419230957e+003,2.4193588867e+003,2.4480769043e+003,2.3398718262e+003,2.3437180176e+003,2.3811538086e+003,2.3743588867e+003,2.4097436523e+003,
1.8125000000e+000,2.5444870605e+003,2.2733332520e+003,2.3825642090e+003,2.4656411133e+003,2.2828205566e+003,2.3933332520e+003,2.4147436523e+003,2.3898718262e+003,2.4238461914e+003,2.3119230957e+003,2.3164101563e+003,2.3530769043e+003,2.3488461914e+003,2.3848718262e+003,
1.8203125000e+000,2.4169230957e+003,2.1175642090e+003,2.2305129395e+003,2.3208974609e+003,2.1383332520e+003,2.2367949219e+003,2.2666667480e+003,2.2391025391e+003,2.2755129395e+003,2.1602563477e+003,2.1616667480e+003,2.2120512695e+003,2.1946154785e+003,2.2383332520e+003,
1.8281250000e+000,2.3610256348e+003,2.0485898438e+003,2.1679487305e+003,2.2587180176e+003,2.0844870605e+003,2.1739743652e+003,2.2062819824e+003,2.1776923828e+003,2.2142307129e+003,2.0958974609e+003,2.0944870605e+003,2.1467949219e+003,2.1329487305e+003,2.1750000000e+003,
1.8359375000e+000,2.3208974609e+003,1.9957692871e+003,2.1201281738e+003,2.2117949219e+003,2.0416666260e+003,2.1253845215e+003,2.1606411133e+003,2.1323076172e+003,2.1696154785e+003,2.0470512695e+003,2.0398718262e+003,2.0939743652e+003,2.0871794434e+003,2.1265385742e+003,
1.8437500000e+000,2.2937180176e+003,1.9371794434e+003,2.0457692871e+003,2.1617949219e+003,1.9519230957e+003,2.0539743652e+003,2.1066667480e+003,2.0639743652e+003,2.1051281738e+003,1.9770512695e+003,1.9739743652e+003,2.0323077393e+003,2.0200000000e+003,2.0614101563e+003,
1.8515625000e+000,2.3308974609e+003,1.9689743652e+003,2.0761538086e+003,2.1952563477e+003,1.9892307129e+003,2.0882050781e+003,2.1360256348e+003,2.0952563477e+003,2.1339743652e+003,2.0103846436e+003,2.0117949219e+003,2.0628205566e+003,2.0567949219e+003,2.0914101563e+003,
1.8593750000e+000,2.3325642090e+003,1.9571794434e+003,2.0646154785e+003,2.1821794434e+003,1.9789743652e+003,2.0823076172e+003,2.1257692871e+003,2.0894870605e+003,2.1212819824e+003,2.0044871826e+003,2.0016666260e+003,2.0591025391e+003,2.0457692871e+003,2.0875642090e+003,
1.8671875000e+000,2.1878205566e+003,1.7925640869e+003,1.9066666260e+003,2.0269230957e+003,1.8167949219e+003,1.9319230957e+003,1.9741025391e+003,1.9278205566e+003,1.9593590088e+003,1.8434615479e+003,1.8334615479e+003,1.9076922607e+003,1.8802564697e+003,1.9258974609e+003,
1.8750000000e+000,2.1465385742e+003,1.7446153564e+003,1.8664102783e+003,1.9853846436e+003,1.7755128174e+003,1.8910256348e+003,1.9330769043e+003,1.8844871826e+003,1.9166666260e+003,1.8000000000e+003,1.7884615479e+003,1.8638461914e+003,1.8383333740e+003,1.8807692871e+003,
1.8828125000e+000,1.9589743652e+003,1.5383333740e+003,1.6638461914e+003,1.7884615479e+003,1.5705128174e+003,1.6961538086e+003,1.7383333740e+003,1.6842307129e+003,1.7323077393e+003,1.6024359131e+003,1.5860256348e+003,1.6650000000e+003,1.6414102783e+003,1.6862821045e+003,
1.8906250000e+000,1.9296153564e+003,1.4760256348e+003,1.6085897217e+003,1.7383333740e+003,1.5015384521e+003,1.6350000000e+003,1.6796153564e+003,1.6075640869e+003,1.6733333740e+003,1.5282050781e+003,1.5242307129e+003,1.6074359131e+003,1.5829487305e+003,1.6350000000e+003,
1.8984375000e+000,2.0439743652e+003,1.5844871826e+003,1.7165384521e+003,1.8437178955e+003,1.6155128174e+003,1.7373077393e+003,1.7817949219e+003,1.7105128174e+003,1.7750000000e+003,1.6337178955e+003,1.6291025391e+003,1.7117949219e+003,1.6919230957e+003,1.7405128174e+003,
1.9062500000e+000,2.1864101563e+003,1.7262821045e+003,1.8519230957e+003,1.9773077393e+003,1.7633333740e+003,1.8682050781e+003,1.9112821045e+003,1.8465384521e+003,1.9082050781e+003,1.7761538086e+003,1.7652564697e+003,1.8479487305e+003,1.8320512695e+003,1.8747435303e+003,
1.9140625000e+000,2.3496154785e+003,1.8957692871e+003,2.0019230957e+003,2.1294870605e+003,1.9351281738e+003,2.0132050781e+003,2.0534614258e+003,2.0088461914e+003,2.0639743652e+003,1.9521794434e+003,1.9279487305e+003,2.0092307129e+003,1.9941025391e+003,2.0273077393e+003,
1.9218750000e+000,2.3429487305e+003,1.8923077393e+003,1.9905128174e+003,2.1215385742e+003,1.9269230957e+003,2.0015384521e+003,2.0439743652e+003,2.0032050781e+003,2.0551281738e+003,1.9473077393e+003,1.9238461914e+003,2.0012821045e+003,1.9866666260e+003,2.0178205566e+003,
1.9296875000e+000,2.4219230957e+003,1.9775640869e+003,2.0652563477e+003,2.2014101563e+003,2.0034615479e+003,2.0766667480e+003,2.1320512695e+003,2.0793588867e+003,2.1220512695e+003,2.0171794434e+003,2.0035897217e+003,2.0724357910e+003,2.0657692871e+003,2.0903845215e+003,
1.9375000000e+000,2.6091025391e+003,2.1692307129e+003,2.2516667480e+003,2.3866667480e+003,2.1944870605e+003,2.2608974609e+003,2.3220512695e+003,2.2620512695e+003,2.2984614258e+003,2.2024357910e+003,2.1898718262e+003,2.2570512695e+003,2.2550000000e+003,2.2726923828e+003,
1.9453125000e+000,3.3179487305e+003,2.9089743652e+003,2.9603845215e+003,3.0806411133e+003,2.9210256348e+003,2.9596154785e+003,3.0089743652e+003,2.9703845215e+003,2.9908974609e+003,2.9533332520e+003,2.9287180176e+003,2.9780769043e+003,2.9797436523e+003,2.9738461914e+003,
1.9531250000e+000,3.3601281738e+003,2.9639743652e+003,3.0094870605e+003,3.1248718262e+003,2.9676923828e+003,3.0083332520e+003,3.0489743652e+003,3.0243588867e+003,3.0426923828e+003,3.0164101563e+003,2.9878205566e+003,3.0303845215e+003,3.0283332520e+003,3.0215385742e+003,
1.9609375000e+000,3.2856411133e+003,2.8985898438e+003,2.9456411133e+003,3.0579487305e+003,2.8982050781e+003,2.9457692871e+003,2.9810256348e+003,2.9630769043e+003,2.9791025391e+003,2.9539743652e+003,2.9215385742e+003,2.9658974609e+003,2.9579487305e+003,2.9543588867e+003,
1.9687500000e+000,3.1828205566e+003,2.8008974609e+003,2.8535898438e+003,2.9650000000e+003,2.8034614258e+003,2.8566667480e+003,2.8897436523e+003,2.8676923828e+003,2.8812819824e+003,2.8515385742e+003,2.8158974609e+003,2.8691025391e+003,2.8569230957e+003,2.8565385742e+003,
1.9765625000e+000,3.6282050781e+003,3.2880769043e+003,3.3039743652e+003,3.4293588867e+003,3.3151281738e+003,3.3250000000e+003,3.3426923828e+003,3.3016667480e+003,3.3085898438e+003,3.3207692871e+003,3.2910256348e+003,3.3196154785e+003,3.3273076172e+003,3.3058974609e+003,
1.9843750000e+000,3.5857692871e+003,3.2874357910e+003,3.2952563477e+003,3.4061538086e+003,3.2924357910e+003,3.3183332520e+003,3.3278205566e+003,3.2921794434e+003,3.3083332520e+003,3.3256411133e+003,3.2712819824e+003,3.3120512695e+003,3.3221794434e+003,3.2928205566e+003,
1.9921875000e+000,3.6417949219e+003,3.3564101563e+003,3.3548718262e+003,3.4648718262e+003,3.3603845215e+003,3.3819230957e+003,3.3915385742e+003,3.3483332520e+003,3.3683332520e+003,3.3856411133e+003,3.3324357910e+003,3.3700000000e+003,3.3834614258e+003,3.3503845215e+003,
2.0000000000e+000,4.0861538086e+003,3.8371794434e+003,3.8032050781e+003,3.9035898438e+003,3.8461538086e+003,3.8315385742e+003,3.8402563477e+003,3.7947436523e+003,3.8128205566e+003,3.8538461914e+003,3.8097436523e+003,3.8211538086e+003,3.8417949219e+003,3.7961538086e+003,
2.0078125000e+000,4.8238461914e+003,4.6534614258e+003,4.5889741211e+003,4.6548715820e+003,4.6324360352e+003,4.5806411133e+003,4.5787177734e+003,4.5957690430e+003,4.5943588867e+003,4.7003847656e+003,4.6352563477e+003,4.6207690430e+003,4.6461538086e+003,4.5726923828e+003,
2.0156250000e+000,4.7308974609e+003,4.5747436523e+003,4.5129487305e+003,4.5683334961e+003,4.5482050781e+003,4.4998715820e+003,4.4965385742e+003,4.5161538086e+003,4.5115385742e+003,4.6176923828e+003,4.5564101563e+003,4.5448715820e+003,4.5644873047e+003,4.4947436523e+003,
2.0234375000e+000,4.8355126953e+003,4.7119228516e+003,4.6394873047e+003,4.6774360352e+003,4.6985898438e+003,4.6280771484e+003,4.6300000000e+003,4.6317949219e+003,4.6180771484e+003,4.7230771484e+003,4.6800000000e+003,4.6655126953e+003,4.6860258789e+003,4.6165385742e+003,
2.0312500000e+000,5.1716665039e+003,5.0717949219e+003,4.9821796875e+003,5.0171796875e+003,5.0662822266e+003,4.9723076172e+003,4.9785898438e+003,4.9734614258e+003,4.9516665039e+003,5.0685898438e+003,5.0308974609e+003,5.0065385742e+003,5.0364101563e+003,4.9566665039e+003,
2.0390625000e+000,6.3874360352e+003,6.3866665039e+003,6.2346152344e+003,6.2576923828e+003,6.3567949219e+003,6.2100000000e+003,6.2100000000e+003,6.2441025391e+003,6.1933334961e+003,6.3967949219e+003,6.3353847656e+003,6.2719228516e+003,6.3248715820e+003,6.2053847656e+003,
2.0468750000e+000,6.4920512695e+003,6.5243588867e+003,6.3628203125e+003,6.3716665039e+003,6.4858974609e+003,6.3339741211e+003,6.3235898438e+003,6.3787177734e+003,6.3207690430e+003,6.5460258789e+003,6.4715385742e+003,6.4044873047e+003,6.4550000000e+003,6.3320512695e+003,
2.0546875000e+000,6.3803847656e+003,6.4669228516e+003,6.3046152344e+003,6.2867949219e+003,6.4301284180e+003,6.2829487305e+003,6.2555126953e+003,6.3162822266e+003,6.2484614258e+003,6.4848715820e+003,6.4102563477e+003,6.3429487305e+003,6.3853847656e+003,6.2648715820e+003,
2.0625000000e+000,6.3897436523e+003,6.4997436523e+003,6.3362822266e+003,6.3133334961e+003,6.4646152344e+003,6.3206411133e+003,6.2897436523e+003,6.3396152344e+003,6.2680771484e+003,6.5050000000e+003,6.4439741211e+003,6.3703847656e+003,6.4138461914e+003,6.2908974609e+003,
2.0703125000e+000,6.5832050781e+003,6.7606411133e+003,6.5856411133e+003,6.5369228516e+003,6.7175639648e+003,6.5733334961e+003,6.5293588867e+003,6.5855126953e+003,6.5078203125e+003,6.7603847656e+003,6.7242309570e+003,6.6221796875e+003,6.6708974609e+003,6.5378203125e+003,
2.0781250000e+000,6.4803847656e+003,6.6762822266e+003,6.5060258789e+003,6.4405126953e+003,6.6346152344e+003,6.4966665039e+003,6.4470512695e+003,6.5076923828e+003,6.4335898438e+003,6.6835898438e+003,6.6432050781e+003,6.5434614258e+003,6.5875639648e+003,6.4605126953e+003,
2.0859375000e+000,6.3330771484e+003,6.5433334961e+003,6.3803847656e+003,6.3042309570e+003,6.5061538086e+003,6.3769228516e+003,6.3244873047e+003,6.3810258789e+003,6.3133334961e+003,6.5550000000e+003,6.5079487305e+003,6.4156411133e+003,6.4561538086e+003,6.3357690430e+003,
2.0937500000e+000,6.4967949219e+003,6.7741025391e+003,6.5956411133e+003,6.5348715820e+003,6.7441025391e+003,6.5982050781e+003,6.5385898438e+003,6.6019228516e+003,6.5493588867e+003,6.7852563477e+003,6.7176923828e+003,6.6235898438e+003,6.6712822266e+003,6.5442309570e+003,
2.1015625000e+000,6.4316665039e+003,6.7215385742e+003,6.5455126953e+003,6.4806411133e+003,6.6903847656e+003,6.5465385742e+003,6.4814101563e+003,6.5561538086e+003,6.5058974609e+003,6.7397436523e+003,6.6712822266e+003,6.5747436523e+003,6.6207690430e+003,6.4971796875e+003,
2.1093750000e+000,6.1873076172e+003,6.4979487305e+003,6.3398715820e+003,6.2767949219e+003,6.4573076172e+003,6.3339741211e+003,6.2765385742e+003,6.3396152344e+003,6.2891025391e+003,6.5055126953e+003,6.4476923828e+003,6.3562822266e+003,6.4112822266e+003,6.2862822266e+003,
2.1171875000e+000,6.2293588867e+003,6.5482050781e+003,6.3905126953e+003,6.3242309570e+003,6.5056411133e+003,6.3767949219e+003,6.3252563477e+003,6.3848715820e+003,6.3310258789e+003,6.5460258789e+003,6.4939741211e+003,6.4015385742e+003,6.4588461914e+003,6.3330771484e+003,
2.1250000000e+000,6.2664101563e+003,6.6025639648e+003,6.4444873047e+003,6.3676923828e+003,6.5589741211e+003,6.4219228516e+003,6.3719228516e+003,6.4429487305e+003,6.3817949219e+003,6.5961538086e+003,6.5582050781e+003,6.4535898438e+003,6.5073076172e+003,6.3896152344e+003,
2.1328125000e+000,6.2400000000e+003,6.5900000000e+003,6.4426923828e+003,6.3765385742e+003,6.5457690430e+003,6.4244873047e+003,6.3801284180e+003,6.4350000000e+003,6.3616665039e+003,6.5676923828e+003,6.5448715820e+003,6.4553847656e+003,6.5033334961e+003,6.3889741211e+003,
2.1406250000e+000,6.3752563477e+003,6.7385898438e+003,6.5817949219e+003,6.5150000000e+003,6.6925639648e+003,6.5628203125e+003,6.5189741211e+003,6.5742309570e+003,6.4989741211e+003,6.7115385742e+003,6.6856411133e+003,6.5957690430e+003,6.6469228516e+003,6.5285898438e+003,
2.1484375000e+000,6.5388461914e+003,6.9287177734e+003,6.7644873047e+003,6.6905126953e+003,6.8774360352e+003,6.7467949219e+003,6.6970512695e+003,6.7611538086e+003,6.6810258789e+003,6.9085898438e+003,6.8867949219e+003,6.7829487305e+003,6.8323076172e+003,6.7155126953e+003,
2.1562500000e+000,6.5308974609e+003,6.9287177734e+003,6.7696152344e+003,6.6912822266e+003,6.8805126953e+003,6.7548715820e+003,6.7010258789e+003,6.7662822266e+003,6.6816665039e+003,6.9119228516e+003,6.8965385742e+003,6.7880771484e+003,6.8350000000e+003,6.7206411133e+003,
2.1640625000e+000,6.5112822266e+003,6.9346152344e+003,6.7721796875e+003,6.6774360352e+003,6.9092309570e+003,6.7734614258e+003,6.7114101563e+003,6.7728203125e+003,6.6814101563e+003,6.9087177734e+003,6.8873076172e+003,6.7853847656e+003,6.8405126953e+003,6.7232050781e+003,
2.1718750000e+000,6.5078203125e+003,6.9415385742e+003,6.7755126953e+003,6.6757690430e+003,6.9175639648e+003,6.7806411133e+003,6.7178203125e+003,6.7806411133e+003,6.6925639648e+003,6.9182050781e+003,6.8911538086e+003,6.7905126953e+003,6.8455126953e+003,6.7298715820e+003,
2.1796875000e+000,6.3629487305e+003,6.8091025391e+003,6.6517949219e+003,6.5492309570e+003,6.7801284180e+003,6.6593588867e+003,6.5984614258e+003,6.6630771484e+003,6.5839741211e+003,6.7992309570e+003,6.7765385742e+003,6.6688461914e+003,6.7196152344e+003,6.6112822266e+003,
2.1875000000e+000,6.2339741211e+003,6.6820512695e+003,6.5332050781e+003,6.4319228516e+003,6.6506411133e+003,6.5416665039e+003,6.4806411133e+003,6.5452563477e+003,6.4697436523e+003,6.6761538086e+003,6.6583334961e+003,6.5470512695e+003,6.5989741211e+003,6.4923076172e+003,
2.1953125000e+000,5.9378203125e+003,6.3808974609e+003,6.2501284180e+003,6.1488461914e+003,6.3448715820e+003,6.2670512695e+003,6.2008974609e+003,6.2579487305e+003,6.1915385742e+003,6.3614101563e+003,6.3450000000e+003,6.2498715820e+003,6.3025639648e+003,6.2034614258e+003,
2.2031250000e+000,5.9625639648e+003,6.4023076172e+003,6.2725639648e+003,6.1694873047e+003,6.3664101563e+003,6.2907690430e+003,6.2262822266e+003,6.2779487305e+003,6.2147436523e+003,6.3752563477e+003,6.3614101563e+003,6.2694873047e+003,6.3200000000e+003,6.2250000000e+003,
2.2109375000e+000,6.0605126953e+003,6.4994873047e+003,6.3673076172e+003,6.2611538086e+003,6.4644873047e+003,6.3826923828e+003,6.3220512695e+003,6.3708974609e+003,6.3101284180e+003,6.4683334961e+003,6.4576923828e+003,6.3616665039e+003,6.4125639648e+003,6.3188461914e+003,
2.2187500000e+000,6.1903847656e+003,6.6333334961e+003,6.4961538086e+003,6.3857690430e+003,6.5973076172e+003,6.5043588867e+003,6.4482050781e+003,6.4998715820e+003,6.4397436523e+003,6.6029487305e+003,6.5930771484e+003,6.4891025391e+003,6.5426923828e+003,6.4467949219e+003,
2.2265625000e+000,6.0961538086e+003,6.5596152344e+003,6.4298715820e+003,6.3211538086e+003,6.5048715820e+003,6.4188461914e+003,6.3669228516e+003,6.4488461914e+003,6.3806411133e+003,6.5457690430e+003,6.5296152344e+003,6.4365385742e+003,6.4769228516e+003,6.3887177734e+003,
2.2343750000e+000,5.7733334961e+003,6.2214101563e+003,6.1223076172e+003,6.0244873047e+003,6.1994873047e+003,6.1000000000e+003,6.0526923828e+003,6.1257690430e+003,6.0610258789e+003,6.1964101563e+003,6.2002563477e+003,6.1162822266e+003,6.1543588867e+003,6.0770512695e+003,
2.2421875000e+000,5.6179487305e+003,6.0543588867e+003,5.9703847656e+003,5.8716665039e+003,6.0328203125e+003,5.9430771484e+003,5.8938461914e+003,5.9726923828e+003,5.9088461914e+003,6.0403847656e+003,6.0423076172e+003,5.9632050781e+003,5.9955126953e+003,5.9253847656e+003,
2.2500000000e+000,5.0592309570e+003,5.4646152344e+003,5.4155126953e+003,5.3221796875e+003,5.4358974609e+003,5.3960258789e+003,5.3458974609e+003,5.4202563477e+003,5.3598715820e+003,5.4621796875e+003,5.4660258789e+003,5.4067949219e+003,5.4196152344e+003,5.3743588867e+003,
2.2578125000e+000,4.8552563477e+003,5.2111538086e+003,5.1676923828e+003,5.0966665039e+003,5.1882050781e+003,5.1657690430e+003,5.1329487305e+003,5.1442309570e+003,5.0894873047e+003,5.1480771484e+003,5.1785898438e+003,5.1373076172e+003,5.1629487305e+003,5.1307690430e+003,
2.2656250000e+000,4.9819228516e+003,5.3308974609e+003,5.2830771484e+003,5.2148715820e+003,5.3112822266e+003,5.2839741211e+003,5.2492309570e+003,5.2628203125e+003,5.2069228516e+003,5.2744873047e+003,5.3012822266e+003,5.2574360352e+003,5.2870512695e+003,5.2503847656e+003,
2.2734375000e+000,4.9860258789e+003,5.3239741211e+003,5.2801284180e+003,5.2126923828e+003,5.3025639648e+003,5.2887177734e+003,5.2502563477e+003,5.2689741211e+003,5.2170512695e+003,5.2926923828e+003,5.3110258789e+003,5.2628203125e+003,5.2866665039e+003,5.2534614258e+003,
2.2812500000e+000,4.9217949219e+003,5.2538461914e+003,5.2147436523e+003,5.1467949219e+003,5.2308974609e+003,5.2256411133e+003,5.1880771484e+003,5.2014101563e+003,5.1560258789e+003,5.2251284180e+003,5.2456411133e+003,5.1933334961e+003,5.2152563477e+003,5.1870512695e+003,
2.2890625000e+000,4.9993588867e+003,5.3165385742e+003,5.2756411133e+003,5.2117949219e+003,5.3064101563e+003,5.2829487305e+003,5.2475639648e+003,5.2485898438e+003,5.2174360352e+003,5.2651284180e+003,5.2941025391e+003,5.2342309570e+003,5.2739741211e+003,5.2379487305e+003,
2.2968750000e+000,5.0655126953e+003,5.3812822266e+003,5.3347436523e+003,5.2741025391e+003,5.3716665039e+003,5.3414101563e+003,5.3038461914e+003,5.3121796875e+003,5.2792309570e+003,5.3294873047e+003,5.3514101563e+003,5.2934614258e+003,5.3388461914e+003,5.2960258789e+003,
2.3046875000e+000,5.0358974609e+003,5.3470512695e+003,5.2947436523e+003,5.2410258789e+003,5.3228203125e+003,5.3061538086e+003,5.2665385742e+003,5.2965385742e+003,5.2600000000e+003,5.3120512695e+003,5.3196152344e+003,5.2621796875e+003,5.3061538086e+003,5.2637177734e+003,
2.3125000000e+000,4.9347436523e+003,5.2387177734e+003,5.1916665039e+003,5.1380771484e+003,5.2084614258e+003,5.2044873047e+003,5.1674360352e+003,5.2043588867e+003,5.1688461914e+003,5.2115385742e+003,5.2196152344e+003,5.1635898438e+003,5.1998715820e+003,5.1665385742e+003,
2.3203125000e+000,4.7215385742e+003,4.9939741211e+003,4.9711538086e+003,4.9053847656e+003,4.9775639648e+003,4.9694873047e+003,4.9500000000e+003,4.9819228516e+003,4.9520512695e+003,4.9576923828e+003,4.9810258789e+003,4.9416665039e+003,4.9621796875e+003,4.9515385742e+003,
2.3281250000e+000,4.7565385742e+003,5.0225639648e+003,4.9989741211e+003,4.9330771484e+003,5.0084614258e+003,4.9916665039e+003,4.9758974609e+003,5.0065385742e+003,4.9762822266e+003,4.9826923828e+003,5.0066665039e+003,4.9684614258e+003,4.9933334961e+003,4.9796152344e+003,
2.3359375000e+000,4.8087177734e+003,5.0700000000e+003,5.0438461914e+003,4.9791025391e+003,5.0519228516e+003,5.0319228516e+003,5.0178203125e+003,5.0511538086e+003,5.0191025391e+003,5.0321796875e+003,5.0566665039e+003,5.0153847656e+003,5.0444873047e+003,5.0262822266e+003,
2.3437500000e+000,4.8279487305e+003,5.0841025391e+003,5.0584614258e+003,4.9921796875e+003,5.0579487305e+003,5.0416665039e+003,5.0274360352e+003,5.0680771484e+003,5.0328203125e+003,5.0530771484e+003,5.0800000000e+003,5.0346152344e+003,5.0637177734e+003,5.0444873047e+003,
2.3515625000e+000,4.0923076172e+003,4.3076923828e+003,4.3271796875e+003,4.2515385742e+003,4.2830771484e+003,4.3021796875e+003,4.2874360352e+003,4.3458974609e+003,4.3110258789e+003,4.3023076172e+003,4.3273076172e+003,4.3098715820e+003,4.3073076172e+003,4.3226923828e+003,
2.3593750000e+000,3.7983332520e+003,3.9934614258e+003,4.0282050781e+003,3.9652563477e+003,3.9823076172e+003,4.0112819824e+003,3.9974357910e+003,4.0434614258e+003,4.0150000000e+003,3.9870512695e+003,4.0094870605e+003,4.0070512695e+003,3.9996154785e+003,4.0221794434e+003,
2.3671875000e+000,3.1812819824e+003,3.3008974609e+003,3.3748718262e+003,3.3371794434e+003,3.3169230957e+003,3.3855129395e+003,3.3775642090e+003,3.3792307129e+003,3.3691025391e+003,3.2894870605e+003,3.3246154785e+003,3.3420512695e+003,3.3326923828e+003,3.3697436523e+003,
2.3750000000e+000,2.7126923828e+003,2.7601281738e+003,2.8651281738e+003,2.8353845215e+003,2.7801281738e+003,2.8980769043e+003,2.8921794434e+003,2.8693588867e+003,2.8802563477e+003,2.7635898438e+003,2.7996154785e+003,2.8284614258e+003,2.8093588867e+003,2.8678205566e+003,
2.3828125000e+000,2.5779487305e+003,2.6023076172e+003,2.7133332520e+003,2.6956411133e+003,2.6220512695e+003,2.7517949219e+003,2.7466667480e+003,2.7110256348e+003,2.7328205566e+003,2.6038461914e+003,2.6392307129e+003,2.6706411133e+003,2.6582050781e+003,2.7171794434e+003,
2.3906250000e+000,2.4207692871e+003,2.3820512695e+003,2.5006411133e+003,2.5132050781e+003,2.4126923828e+003,2.5420512695e+003,2.5460256348e+003,2.4937180176e+003,2.5333332520e+003,2.3806411133e+003,2.4126923828e+003,2.4526923828e+003,2.4580769043e+003,2.5148718262e+003,
2.3984375000e+000,2.2333332520e+003,2.1325642090e+003,2.2648718262e+003,2.2824357910e+003,2.1669230957e+003,2.3087180176e+003,2.3194870605e+003,2.2785898438e+003,2.3256411133e+003,2.1512819824e+003,2.1785898438e+003,2.2270512695e+003,2.2079487305e+003,2.2867949219e+003,
2.4062500000e+000,2.1782050781e+003,2.0596154785e+003,2.1930769043e+003,2.2161538086e+003,2.0891025391e+003,2.2362819824e+003,2.2505129395e+003,2.2079487305e+003,2.2574357910e+003,2.0761538086e+003,2.1016667480e+003,2.1505129395e+003,2.1358974609e+003,2.2134614258e+003,
2.4140625000e+000,2.3120512695e+003,2.1451281738e+003,2.2775642090e+003,2.3210256348e+003,2.1835898438e+003,2.3032050781e+003,2.3341025391e+003,2.2929487305e+003,2.3379487305e+003,2.1511538086e+003,2.1694870605e+003,2.2308974609e+003,2.2301281738e+003,2.2967949219e+003,
2.4218750000e+000,2.4000000000e+003,2.2210256348e+003,2.3502563477e+003,2.3984614258e+003,2.2648718262e+003,2.3728205566e+003,2.4046154785e+003,2.3710256348e+003,2.4146154785e+003,2.2316667480e+003,2.2478205566e+003,2.3102563477e+003,2.3053845215e+003,2.3733332520e+003,
2.4296875000e+000,2.4858974609e+003,2.2889743652e+003,2.4134614258e+003,2.4634614258e+003,2.3260256348e+003,2.4312819824e+003,2.4606411133e+003,2.4396154785e+003,2.4815385742e+003,2.3078205566e+003,2.3246154785e+003,2.3811538086e+003,2.3676923828e+003,2.4430769043e+003,
2.4375000000e+000,2.5029487305e+003,2.2988461914e+003,2.4217949219e+003,2.4698718262e+003,2.3264101563e+003,2.4341025391e+003,2.4647436523e+003,2.4446154785e+003,2.4842307129e+003,2.3151281738e+003,2.3350000000e+003,2.3892307129e+003,2.3751281738e+003,2.4523076172e+003,
2.4453125000e+000,2.5730769043e+003,2.3439743652e+003,2.4619230957e+003,2.5052563477e+003,2.3653845215e+003,2.4596154785e+003,2.4998718262e+003,2.4797436523e+003,2.5108974609e+003,2.3543588867e+003,2.3789743652e+003,2.4348718262e+003,2.4238461914e+003,2.4885898438e+003,
2.4531250000e+000,2.5323076172e+003,2.2917949219e+003,2.4142307129e+003,2.4542307129e+003,2.3161538086e+003,2.4106411133e+003,2.4512819824e+003,2.4308974609e+003,2.4626923828e+003,2.3069230957e+003,2.3306411133e+003,2.3883332520e+003,2.3737180176e+003,2.4378205566e+003,
2.4609375000e+000,2.4456411133e+003,2.1934614258e+003,2.3228205566e+003,2.3603845215e+003,2.2166667480e+003,2.3180769043e+003,2.3584614258e+003,2.3347436523e+003,2.3691025391e+003,2.2126923828e+003,2.2355129395e+003,2.2952563477e+003,2.2753845215e+003,2.3450000000e+003,
2.4687500000e+000,2.3483332520e+003,2.0857692871e+003,2.2202563477e+003,2.2594870605e+003,2.1023076172e+003,2.2147436523e+003,2.2548718262e+003,2.2247436523e+003,2.2625642090e+003,2.1058974609e+003,2.1278205566e+003,2.1897436523e+003,2.1664101563e+003,2.2444870605e+003,
2.4765625000e+000,2.2687180176e+003,1.9702564697e+003,2.1034614258e+003,2.1689743652e+003,1.9946153564e+003,2.1143588867e+003,2.1452563477e+003,2.0880769043e+003,2.1348718262e+003,1.9851281738e+003,1.9944871826e+003,2.0726923828e+003,2.0567949219e+003,2.1225642090e+003,
2.4843750000e+000,2.2403845215e+003,1.9310256348e+003,2.0692307129e+003,2.1351281738e+003,1.9743590088e+003,2.0853845215e+003,2.1117949219e+003,2.0505129395e+003,2.1012819824e+003,1.9496153564e+003,1.9543590088e+003,2.0358974609e+003,2.0191025391e+003,2.0798718262e+003,
2.4921875000e+000,2.0258974609e+003,1.6910256348e+003,1.8278205566e+003,1.9165384521e+003,1.7476922607e+003,1.8652564697e+003,1.8848718262e+003,1.8097435303e+003,1.8797435303e+003,1.7129487305e+003,1.7232050781e+003,1.7956409912e+003,1.7793590088e+003,1.8542307129e+003,
2.5000000000e+000,2.0124359131e+003,1.6400000000e+003,1.7800000000e+003,1.8720512695e+003,1.6816666260e+003,1.8247435303e+003,1.8492307129e+003,1.7717949219e+003,1.8434615479e+003,1.6689743652e+003,1.6667949219e+003,1.7496153564e+003,1.7325640869e+003,1.8167949219e+003,
2.5078125000e+000,2.0179487305e+003,1.6365384521e+003,1.7783333740e+003,1.8706409912e+003,1.6848718262e+003,1.8253846436e+003,1.8508974609e+003,1.7778205566e+003,1.8466666260e+003,1.6714102783e+003,1.6623077393e+003,1.7467949219e+003,1.7287178955e+003,1.8108974609e+003,
2.5156250000e+000,1.9741025391e+003,1.5761538086e+003,1.7138461914e+003,1.8260256348e+003,1.6265384521e+003,1.7614102783e+003,1.7952564697e+003,1.7284615479e+003,1.7853846436e+003,1.6021794434e+003,1.5993590088e+003,1.6812821045e+003,1.6637178955e+003,1.7442307129e+003,
2.5234375000e+000,1.9775640869e+003,1.5553846436e+003,1.6975640869e+003,1.8008974609e+003,1.5825640869e+003,1.7267949219e+003,1.7692307129e+003,1.7241025391e+003,1.7692307129e+003,1.5906409912e+003,1.5787178955e+003,1.6693590088e+003,1.6411538086e+003,1.7282050781e+003,
2.5312500000e+000,1.9162821045e+003,1.4878205566e+003,1.6333333740e+003,1.7355128174e+003,1.5139743652e+003,1.6569230957e+003,1.7033333740e+003,1.6637178955e+003,1.7080769043e+003,1.5293590088e+003,1.5189743652e+003,1.6093590088e+003,1.5756409912e+003,1.6648718262e+003,
2.5390625000e+000,1.8366666260e+003,1.4019230957e+003,1.5496153564e+003,1.6553846436e+003,1.4289743652e+003,1.5694871826e+003,1.6198718262e+003,1.5796153564e+003,1.6255128174e+003,1.4441025391e+003,1.4384615479e+003,1.5283333740e+003,1.4944871826e+003,1.5821794434e+003,
2.5468750000e+000,1.7514102783e+003,1.3005128174e+003,1.4498718262e+003,1.5634615479e+003,1.3328205566e+003,1.4682050781e+003,1.5205128174e+003,1.4698718262e+003,1.5207692871e+003,1.3351281738e+003,1.3351281738e+003,1.4282050781e+003,1.4061538086e+003,1.4833333740e+003,
2.5546875000e+000,1.8719230957e+003,1.4011538086e+003,1.5498718262e+003,1.6534615479e+003,1.4450000000e+003,1.5579487305e+003,1.6078205566e+003,1.5533333740e+003,1.6023077393e+003,1.4370512695e+003,1.4296153564e+003,1.5291025391e+003,1.5065384521e+003,1.5855128174e+003,
2.5625000000e+000,1.9094871826e+003,1.4382050781e+003,1.5805128174e+003,1.6865384521e+003,1.4806409912e+003,1.5844871826e+003,1.6339743652e+003,1.5803846436e+003,1.6307692871e+003,1.4712821045e+003,1.4637178955e+003,1.5628205566e+003,1.5388461914e+003,1.6170512695e+003,
2.5703125000e+000,1.9096153564e+003,1.4387178955e+003,1.5738461914e+003,1.6864102783e+003,1.4774359131e+003,1.5778205566e+003,1.6251281738e+003,1.5710256348e+003,1.6260256348e+003,1.4682050781e+003,1.4603846436e+003,1.5598718262e+003,1.5366666260e+003,1.6100000000e+003,
2.5781250000e+000,1.8374359131e+003,1.3592307129e+003,1.4893590088e+003,1.6158974609e+003,1.3962821045e+003,1.5084615479e+003,1.5482050781e+003,1.4793590088e+003,1.5470512695e+003,1.3876922607e+003,1.3783333740e+003,1.4788461914e+003,1.4612821045e+003,1.5224359131e+003,
2.5859375000e+000,1.8608974609e+003,1.3756409912e+003,1.5047435303e+003,1.6353846436e+003,1.4162821045e+003,1.5350000000e+003,1.5719230957e+003,1.4884615479e+003,1.5605128174e+003,1.4039743652e+003,1.3973077393e+003,1.4928205566e+003,1.4802564697e+003,1.5370512695e+003,
2.5937500000e+000,1.9875640869e+003,1.4983333740e+003,1.6211538086e+003,1.7534615479e+003,1.5416666260e+003,1.6605128174e+003,1.6960256348e+003,1.5985897217e+003,1.6724359131e+003,1.5239743652e+003,1.5217949219e+003,1.6080769043e+003,1.6021794434e+003,1.6539743652e+003,
2.6015625000e+000,3.0170512695e+003,2.5857692871e+003,2.6387180176e+003,2.7573076172e+003,2.6225642090e+003,2.6770512695e+003,2.6906411133e+003,2.6187180176e+003,2.6817949219e+003,2.6080769043e+003,2.5794870605e+003,2.6510256348e+003,2.6551281738e+003,2.6738461914e+003,
2.6093750000e+000,3.1026923828e+003,2.6824357910e+003,2.7315385742e+003,2.8453845215e+003,2.7241025391e+003,2.7658974609e+003,2.7779487305e+003,2.7156411133e+003,2.7723076172e+003,2.7112819824e+003,2.6773076172e+003,2.7429487305e+003,2.7474357910e+003,2.7639743652e+003,
2.6171875000e+000,3.2933332520e+003,2.8994870605e+003,2.9460256348e+003,3.0397436523e+003,2.9144870605e+003,2.9734614258e+003,2.9946154785e+003,2.9502563477e+003,2.9879487305e+003,2.9408974609e+003,2.9065385742e+003,2.9639743652e+003,2.9616667480e+003,2.9703845215e+003,
2.6250000000e+000,3.5870512695e+003,3.2305129395e+003,3.2575642090e+003,3.3493588867e+003,3.2635898438e+003,3.2808974609e+003,3.3098718262e+003,3.2820512695e+003,3.3006411133e+003,3.2653845215e+003,3.2355129395e+003,3.2752563477e+003,3.2816667480e+003,3.2746154785e+003,
2.6328125000e+000,3.7615385742e+003,3.4244870605e+003,3.4388461914e+003,3.5306411133e+003,3.4629487305e+003,3.4565385742e+003,3.4879487305e+003,3.4673076172e+003,3.4760256348e+003,3.4558974609e+003,3.4234614258e+003,3.4560256348e+003,3.4660256348e+003,3.4526923828e+003,
2.6406250000e+000,4.2216665039e+003,3.9360256348e+003,3.9225642090e+003,4.0035898438e+003,3.9360256348e+003,3.9253845215e+003,3.9552563477e+003,3.9528205566e+003,3.9482050781e+003,3.9655129395e+003,3.9188461914e+003,3.9494870605e+003,3.9548718262e+003,3.9262819824e+003,
2.6484375000e+000,4.3270512695e+003,4.0532050781e+003,4.0355129395e+003,4.1128203125e+003,4.0465385742e+003,4.0360256348e+003,4.0626923828e+003,4.0623076172e+003,4.0547436523e+003,4.0802563477e+003,4.0357692871e+003,4.0641025391e+003,4.0670512695e+003,4.0357692871e+003,
2.6562500000e+000,4.5401284180e+003,4.2988461914e+003,4.2669228516e+003,4.3361538086e+003,4.2998715820e+003,4.2620512695e+003,4.2791025391e+003,4.2850000000e+003,4.2660258789e+003,4.3139741211e+003,4.2800000000e+003,4.2967949219e+003,4.2979487305e+003,4.2617949219e+003,
2.6640625000e+000,4.6344873047e+003,4.4162822266e+003,4.3732050781e+003,4.4358974609e+003,4.4188461914e+003,4.3656411133e+003,4.3767949219e+003,4.3884614258e+003,4.3652563477e+003,4.4284614258e+003,4.3934614258e+003,4.4046152344e+003,4.4080771484e+003,4.3669228516e+003,
2.6718750000e+000,4.6985898438e+003,4.5044873047e+003,4.4506411133e+003,4.5061538086e+003,4.5023076172e+003,4.4421796875e+003,4.4475639648e+003,4.4634614258e+003,4.4396152344e+003,4.5180771484e+003,4.4767949219e+003,4.4841025391e+003,4.4920512695e+003,4.4443588867e+003,
2.6796875000e+000,4.7365385742e+003,4.5642309570e+003,4.5021796875e+003,4.5514101563e+003,4.5535898438e+003,4.4947436523e+003,4.4952563477e+003,4.5103847656e+003,4.4893588867e+003,4.5802563477e+003,4.5324360352e+003,4.5374360352e+003,4.5498715820e+003,4.4962822266e+003,
2.6875000000e+000,5.0335898438e+003,4.9297436523e+003,4.8467949219e+003,4.8764101563e+003,4.9169228516e+003,4.8435898438e+003,4.8239741211e+003,4.8262822266e+003,4.8194873047e+003,4.9398715820e+003,4.9003847656e+003,4.8808974609e+003,4.9062822266e+003,4.8375639648e+003,
2.6953125000e+000,5.2244873047e+003,5.1869228516e+003,5.0908974609e+003,5.0914101563e+003,5.1701284180e+003,5.1070512695e+003,5.0678203125e+003,5.0625639648e+003,5.0719228516e+003,5.1996152344e+003,5.1578203125e+003,5.1235898438e+003,5.1555126953e+003,5.0753847656e+003,
2.7031250000e+000,5.3183334961e+003,5.3021796875e+003,5.1941025391e+003,5.1898715820e+003,5.2821796875e+003,5.2160258789e+003,5.1753847656e+003,5.1692309570e+003,5.1789741211e+003,5.3110258789e+003,5.2685898438e+003,5.2291025391e+003,5.2687177734e+003,5.1823076172e+003,
2.7109375000e+000,5.4287177734e+003,5.4523076172e+003,5.3279487305e+003,5.3161538086e+003,5.4226923828e+003,5.3492309570e+003,5.3069228516e+003,5.3137177734e+003,5.3203847656e+003,5.4642309570e+003,5.4102563477e+003,5.3691025391e+003,5.4126923828e+003,5.3196152344e+003,
2.7187500000e+000,5.4085898438e+003,5.4447436523e+003,5.3239741211e+003,5.3071796875e+003,5.4151284180e+003,5.3411538086e+003,5.2979487305e+003,5.3097436523e+003,5.3139741211e+003,5.4580771484e+003,5.4003847656e+003,5.3634614258e+003,5.4010258789e+003,5.3119228516e+003,
2.7265625000e+000,5.3947436523e+003,5.4542309570e+003,5.3533334961e+003,5.3324360352e+003,5.4557690430e+003,5.3696152344e+003,5.3255126953e+003,5.3464101563e+003,5.3312822266e+003,5.4620512695e+003,5.4198715820e+003,5.3776923828e+003,5.3992309570e+003,5.3214101563e+003,
2.7343750000e+000,5.4262822266e+003,5.4975639648e+003,5.3967949219e+003,5.3775639648e+003,5.5038461914e+003,5.4129487305e+003,5.3738461914e+003,5.4025639648e+003,5.3789741211e+003,5.5088461914e+003,5.4693588867e+003,5.4212822266e+003,5.4415385742e+003,5.3614101563e+003,
2.7421875000e+000,5.2710258789e+003,5.3701284180e+003,5.2802563477e+003,5.2453847656e+003,5.3596152344e+003,5.2862822266e+003,5.2666665039e+003,5.3097436523e+003,5.2701284180e+003,5.3979487305e+003,5.3524360352e+003,5.3066665039e+003,5.3197436523e+003,5.2410258789e+003,
2.7500000000e+000,5.0835898438e+003,5.1893588867e+003,5.1076923828e+003,5.0692309570e+003,5.1732050781e+003,5.1180771484e+003,5.1000000000e+003,5.1302563477e+003,5.0894873047e+003,5.1956411133e+003,5.1648715820e+003,5.1311538086e+003,5.1429487305e+003,5.0758974609e+003,
2.7578125000e+000,5.1370512695e+003,5.2496152344e+003,5.1632050781e+003,5.1243588867e+003,5.2300000000e+003,5.1715385742e+003,5.1548715820e+003,5.1832050781e+003,5.1424360352e+003,5.2494873047e+003,5.2217949219e+003,5.1883334961e+003,5.2042309570e+003,5.1347436523e+003,
2.7656250000e+000,5.2243588867e+003,5.3458974609e+003,5.2542309570e+003,5.2114101563e+003,5.3226923828e+003,5.2567949219e+003,5.2415385742e+003,5.2729487305e+003,5.2317949219e+003,5.3456411133e+003,5.3182050781e+003,5.2810258789e+003,5.3025639648e+003,5.2279487305e+003,
2.7734375000e+000,5.3044873047e+003,5.4389741211e+003,5.3510258789e+003,5.2943588867e+003,5.4126923828e+003,5.3374360352e+003,5.3178203125e+003,5.3660258789e+003,5.3232050781e+003,5.4530771484e+003,5.4253847656e+003,5.3782050781e+003,5.4012822266e+003,5.3258974609e+003,
2.7812500000e+000,4.8684614258e+003,5.0016665039e+003,4.9397436523e+003,4.8770512695e+003,4.9666665039e+003,4.9241025391e+003,4.8952563477e+003,4.9411538086e+003,4.9050000000e+003,5.0171796875e+003,4.9970512695e+003,4.9635898438e+003,4.9635898438e+003,4.9144873047e+003,
2.7890625000e+000,4.6908974609e+003,4.8256411133e+003,4.7635898438e+003,4.7057690430e+003,4.7921796875e+003,4.7573076172e+003,4.7297436523e+003,4.7635898438e+003,4.7302563477e+003,4.8308974609e+003,4.8094873047e+003,4.7855126953e+003,4.7864101563e+003,4.7400000000e+003,
2.7968750000e+000,4.5850000000e+003,4.7216665039e+003,4.6575639648e+003,4.6061538086e+003,4.6966665039e+003,4.6606411133e+003,4.6360258789e+003,4.6578203125e+003,4.6247436523e+003,4.7171796875e+003,4.6929487305e+003,4.6764101563e+003,4.6823076172e+003,4.6361538086e+003,
2.8046875000e+000,4.5700000000e+003,4.7060258789e+003,4.6423076172e+003,4.5965385742e+003,4.6937177734e+003,4.6507690430e+003,4.6291025391e+003,4.6428203125e+003,4.6092309570e+003,4.6973076172e+003,4.6715385742e+003,4.6574360352e+003,4.6679487305e+003,4.6232050781e+003,
2.8125000000e+000,4.5971796875e+003,4.7112822266e+003,4.6687177734e+003,4.6257690430e+003,4.7056411133e+003,4.6737177734e+003,4.6526923828e+003,4.6744873047e+003,4.6588461914e+003,4.7270512695e+003,4.7191025391e+003,4.6833334961e+003,4.6869228516e+003,4.6512822266e+003,
2.8203125000e+000,4.4906411133e+003,4.6035898438e+003,4.5630771484e+003,4.5250000000e+003,4.5900000000e+003,4.5726923828e+003,4.5516665039e+003,4.5683334961e+003,4.5558974609e+003,4.6151284180e+003,4.6069228516e+003,4.5741025391e+003,4.5815385742e+003,4.5424360352e+003,
2.8281250000e+000,4.7006411133e+003,4.8265385742e+003,4.7614101563e+003,4.7423076172e+003,4.8085898438e+003,4.7834614258e+003,4.7658974609e+003,4.7660258789e+003,4.7491025391e+003,4.8057690430e+003,4.7796152344e+003,4.7594873047e+003,4.7861538086e+003,4.7391025391e+003,
2.8359375000e+000,5.0583334961e+003,5.1947436523e+003,5.1206411133e+003,5.0952563477e+003,5.1773076172e+003,5.1284614258e+003,5.1116665039e+003,5.1455126953e+003,5.1211538086e+003,5.2001284180e+003,5.1746152344e+003,5.1407690430e+003,5.1529487305e+003,5.1032050781e+003,
2.8437500000e+000,4.9991025391e+003,5.1389741211e+003,5.0694873047e+003,5.0465385742e+003,5.1183334961e+003,5.0780771484e+003,5.0602563477e+003,5.0951284180e+003,5.0674360352e+003,5.1458974609e+003,5.1253847656e+003,5.0876923828e+003,5.1014101563e+003,5.0475639648e+003,
2.8515625000e+000,5.1970512695e+003,5.3652563477e+003,5.2683334961e+003,5.2528203125e+003,5.3421796875e+003,5.2911538086e+003,5.2726923828e+003,5.2875639648e+003,5.2433334961e+003,5.3343588867e+003,5.3294873047e+003,5.2794873047e+003,5.3048715820e+003,5.2453847656e+003,
2.8593750000e+000,5.4328203125e+003,5.6119228516e+003,5.5038461914e+003,5.4779487305e+003,5.5916665039e+003,5.5203847656e+003,5.5019228516e+003,5.5191025391e+003,5.4688461914e+003,5.5750000000e+003,5.5685898438e+003,5.5156411133e+003,5.5415385742e+003,5.4802563477e+003,
2.8671875000e+000,5.8471796875e+003,6.0578203125e+003,5.9497436523e+003,5.8951284180e+003,6.0219228516e+003,5.9347436523e+003,5.9035898438e+003,5.9574360352e+003,5.8939741211e+003,6.0441025391e+003,6.0138461914e+003,5.9558974609e+003,5.9882050781e+003,5.9075639648e+003,
2.8750000000e+000,5.8001284180e+003,6.0197436523e+003,5.9150000000e+003,5.8621796875e+003,5.9752563477e+003,5.8964101563e+003,5.8598715820e+003,5.9216665039e+003,5.8565385742e+003,6.0106411133e+003,5.9794873047e+003,5.9226923828e+003,5.9523076172e+003,5.8707690430e+003,
2.8828125000e+000,5.6601284180e+003,5.8933334961e+003,5.7862822266e+003,5.7424360352e+003,5.8511538086e+003,5.7676923828e+003,5.7289741211e+003,5.7865385742e+003,5.7208974609e+003,5.8711538086e+003,5.8601284180e+003,5.8026923828e+003,5.8200000000e+003,5.7530771484e+003,
2.8906250000e+000,5.6596152344e+003,5.8994873047e+003,5.7889741211e+003,5.7467949219e+003,5.8665385742e+003,5.7693588867e+003,5.7330771484e+003,5.7835898438e+003,5.7184614258e+003,5.8678203125e+003,5.8689741211e+003,5.8079487305e+003,5.8220512695e+003,5.7628203125e+003,
2.8984375000e+000,5.8707690430e+003,6.1332050781e+003,6.0269228516e+003,5.9652563477e+003,6.1053847656e+003,5.9965385742e+003,5.9580771484e+003,5.9992309570e+003,5.9388461914e+003,6.0946152344e+003,6.0961538086e+003,6.0365385742e+003,6.0593588867e+003,5.9928203125e+003,
2.9062500000e+000,5.9310258789e+003,6.2039741211e+003,6.0960258789e+003,6.0274360352e+003,6.1674360352e+003,6.0675639648e+003,6.0233334961e+003,6.0657690430e+003,6.0073076172e+003,6.1666665039e+003,6.1615385742e+003,6.1028203125e+003,6.1307690430e+003,6.0562822266e+003,
2.9140625000e+000,5.9712822266e+003,6.2692309570e+003,6.1480771484e+003,6.0834614258e+003,6.2207690430e+003,6.1352563477e+003,6.0814101563e+003,6.1273076172e+003,6.0730771484e+003,6.2365385742e+003,6.2280771484e+003,6.1566665039e+003,6.1920512695e+003,6.1087177734e+003,
2.9218750000e+000,5.9605126953e+003,6.2688461914e+003,6.1446152344e+003,6.0855126953e+003,6.2229487305e+003,6.1396152344e+003,6.0844873047e+003,6.1303847656e+003,6.0783334961e+003,6.2400000000e+003,6.2351284180e+003,6.1544873047e+003,6.1915385742e+003,6.1080771484e+003,
2.9296875000e+000,5.9471796875e+003,6.2630771484e+003,6.1398715820e+003,6.0837177734e+003,6.2241025391e+003,6.1400000000e+003,6.0860258789e+003,6.1311538086e+003,6.0803847656e+003,6.2388461914e+003,6.2378203125e+003,6.1501284180e+003,6.1884614258e+003,6.1051284180e+003,
2.9375000000e+000,5.8606411133e+003,6.2034614258e+003,6.0838461914e+003,6.0247436523e+003,6.1780771484e+003,6.0912822266e+003,6.0534614258e+003,6.1062822266e+003,6.0503847656e+003,6.1837177734e+003,6.1605126953e+003,6.0882050781e+003,6.1223076172e+003,6.0464101563e+003,
2.9453125000e+000,5.8288461914e+003,6.1750000000e+003,6.0588461914e+003,5.9993588867e+003,6.1484614258e+003,6.0644873047e+003,6.0284614258e+003,6.0826923828e+003,6.0264101563e+003,6.1532050781e+003,6.1324360352e+003,6.0587177734e+003,6.0910258789e+003,6.0194873047e+003,
2.9531250000e+000,5.8256411133e+003,6.1820512695e+003,6.0694873047e+003,5.9991025391e+003,6.1535898438e+003,6.0770512695e+003,6.0403847656e+003,6.0930771484e+003,6.0325639648e+003,6.1587177734e+003,6.1558974609e+003,6.0593588867e+003,6.1060258789e+003,6.0226923828e+003,
2.9609375000e+000,6.1132050781e+003,6.4874360352e+003,6.3553847656e+003,6.3002563477e+003,6.4474360352e+003,6.3647436523e+003,6.3232050781e+003,6.3747436523e+003,6.2987177734e+003,6.4416665039e+003,6.4461538086e+003,6.3532050781e+003,6.3983334961e+003,6.3202563477e+003,
2.9687500000e+000,6.2207690430e+003,6.6030771484e+003,6.4638461914e+003,6.4139741211e+003,6.5550000000e+003,6.4688461914e+003,6.4241025391e+003,6.4824360352e+003,6.4025639648e+003,6.5542309570e+003,6.5605126953e+003,6.4666665039e+003,6.5103847656e+003,6.4337177734e+003,
2.9765625000e+000,6.1180771484e+003,6.5160258789e+003,6.3908974609e+003,6.3146152344e+003,6.4658974609e+003,6.3775639648e+003,6.3228203125e+003,6.3912822266e+003,6.3125639648e+003,6.4739741211e+003,6.4828203125e+003,6.3912822266e+003,6.4339741211e+003,6.3514101563e+003,
2.9843750000e+000,6.0237177734e+003,6.4226923828e+003,6.3037177734e+003,6.2232050781e+003,6.3811538086e+003,6.2878203125e+003,6.2310258789e+003,6.2908974609e+003,6.2169228516e+003,6.3734614258e+003,6.3856411133e+003,6.2962822266e+003,6.3411538086e+003,6.2592309570e+003,
2.9921875000e+000,6.1093588867e+003,6.5164101563e+003,6.3920512695e+003,6.3215385742e+003,6.4826923828e+003,6.3666665039e+003,6.3069228516e+003,6.3575639648e+003,6.2917949219e+003,6.4473076172e+003,6.4669228516e+003,6.3748715820e+003,6.4265385742e+003,6.3547436523e+003,
3.0000000000e+000,6.0933334961e+003,6.5021796875e+003,6.3803847656e+003,6.3107690430e+003,6.4674360352e+003,6.3544873047e+003,6.2934614258e+003,6.3515385742e+003,6.2866665039e+003,6.4444873047e+003,6.4611538086e+003,6.3710258789e+003,6.4156411133e+003,6.3482050781e+003,
3.0078125000e+000,5.7723076172e+003,6.1756411133e+003,6.0756411133e+003,6.0075639648e+003,6.1480771484e+003,6.0652563477e+003,6.0011538086e+003,6.0588461914e+003,6.0025639648e+003,6.1434614258e+003,6.1565385742e+003,6.0787177734e+003,6.1015385742e+003,6.0439741211e+003,
3.0156250000e+000,5.5843588867e+003,5.9806411133e+003,5.8943588867e+003,5.8273076172e+003,5.9573076172e+003,5.8930771484e+003,5.8301284180e+003,5.8762822266e+003,5.8269228516e+003,5.9503847656e+003,5.9642309570e+003,5.8939741211e+003,5.9103847656e+003,5.8582050781e+003,
3.0234375000e+000,5.4670512695e+003,5.8552563477e+003,5.7798715820e+003,5.7129487305e+003,5.8328203125e+003,5.7825639648e+003,5.7234614258e+003,5.7573076172e+003,5.7143588867e+003,5.8208974609e+003,5.8346152344e+003,5.7701284180e+003,5.7857690430e+003,5.7389741211e+003,
3.0312500000e+000,5.4221796875e+003,5.8030771484e+003,5.7337177734e+003,5.6674360352e+003,5.7780771484e+003,5.7358974609e+003,5.6816665039e+003,5.7101284180e+003,5.6715385742e+003,5.7655126953e+003,5.7758974609e+003,5.7137177734e+003,5.7326923828e+003,5.6907690430e+003,
3.0390625000e+000,4.9283334961e+003,5.2702563477e+003,5.2262822266e+003,5.1944873047e+003,5.2587177734e+003,5.2479487305e+003,5.2067949219e+003,5.2579487305e+003,5.2191025391e+003,5.2683334961e+003,5.2698715820e+003,5.2170512695e+003,5.2256411133e+003,5.2003847656e+003,
3.0468750000e+000,4.5680771484e+003,4.8453847656e+003,4.8311538086e+003,4.7917949219e+003,4.8182050781e+003,4.8491025391e+003,4.8362822266e+003,4.8729487305e+003,4.8394873047e+003,4.8282050781e+003,4.8411538086e+003,4.8014101563e+003,4.8326923828e+003,4.8110258789e+003,
3.0546875000e+000,4.5579487305e+003,4.8197436523e+003,4.8139741211e+003,4.7766665039e+003,4.7997436523e+003,4.8246152344e+003,4.8124360352e+003,4.8519228516e+003,4.8178203125e+003,4.8057690430e+003,4.8200000000e+003,4.7823076172e+003,4.8117949219e+003,4.7948715820e+003,
3.0625000000e+000,4.4920512695e+003,4.7356411133e+003,4.7301284180e+003,4.7141025391e+003,4.7306411133e+003,4.7420512695e+003,4.7230771484e+003,4.7621796875e+003,4.7284614258e+003,4.7202563477e+003,4.7394873047e+003,4.7029487305e+003,4.7251284180e+003,4.7153847656e+003,
3.0703125000e+000,4.4496152344e+003,4.6896152344e+003,4.6774360352e+003,4.6684614258e+003,4.6832050781e+003,4.6944873047e+003,4.6711538086e+003,4.7064101563e+003,4.6738461914e+003,4.6662822266e+003,4.6866665039e+003,4.6488461914e+003,4.6735898438e+003,4.6616665039e+003,
3.0781250000e+000,4.6376923828e+003,4.8606411133e+003,4.8424360352e+003,4.8252563477e+003,4.8530771484e+003,4.8515385742e+003,4.8274360352e+003,4.8343588867e+003,4.8017949219e+003,4.7987177734e+003,4.8271796875e+003,4.7903847656e+003,4.8253847656e+003,4.8132050781e+003,
3.0859375000e+000,5.0366665039e+003,5.2652563477e+003,5.2253847656e+003,5.2239741211e+003,5.2553847656e+003,5.2212822266e+003,5.1861538086e+003,5.2143588867e+003,5.1814101563e+003,5.2192309570e+003,5.2448715820e+003,5.1969228516e+003,5.2252563477e+003,5.2210258789e+003,
3.0937500000e+000,4.8688461914e+003,5.0973076172e+003,5.0598715820e+003,5.0607690430e+003,5.0811538086e+003,5.0592309570e+003,5.0155126953e+003,5.0551284180e+003,5.0248715820e+003,5.0634614258e+003,5.0864101563e+003,5.0407690430e+003,5.0614101563e+003,5.0611538086e+003,
3.1015625000e+000,4.0901281738e+003,4.2669228516e+003,4.2808974609e+003,4.2748715820e+003,4.2573076172e+003,4.2882050781e+003,4.2467949219e+003,4.2573076172e+003,4.2447436523e+003,4.2319228516e+003,4.2584614258e+003,4.2410258789e+003,4.2485898438e+003,4.2646152344e+003,
3.1093750000e+000,4.0053845215e+003,4.1615385742e+003,4.1869228516e+003,4.1867949219e+003,4.1550000000e+003,4.1933334961e+003,4.1617949219e+003,4.1565385742e+003,4.1500000000e+003,4.1229487305e+003,4.1502563477e+003,4.1400000000e+003,4.1484614258e+003,4.1683334961e+003,
3.1171875000e+000,3.9910256348e+003,4.1329487305e+003,4.1628203125e+003,4.1719228516e+003,4.1252563477e+003,4.1669228516e+003,4.1442309570e+003,4.1307690430e+003,4.1288461914e+003,4.0935898438e+003,4.1224360352e+003,4.1156411133e+003,4.1237177734e+003,4.1471796875e+003,
3.1250000000e+000,3.9606411133e+003,4.0860256348e+003,4.1194873047e+003,4.1357690430e+003,4.0748718262e+003,4.1192309570e+003,4.1015385742e+003,4.0878205566e+003,4.0919230957e+003,4.0466667480e+003,4.0848718262e+003,4.0770512695e+003,4.0807692871e+003,4.1108974609e+003,
3.1328125000e+000,3.9488461914e+003,4.0384614258e+003,4.0819230957e+003,4.0837180176e+003,4.0494870605e+003,4.0862819824e+003,4.0716667480e+003,4.0505129395e+003,4.0542307129e+003,3.9978205566e+003,4.0428205566e+003,4.0303845215e+003,4.0421794434e+003,4.0674357910e+003,
3.1406250000e+000,3.9816667480e+003,4.0615385742e+003,4.1051284180e+003,4.1078203125e+003,4.0738461914e+003,4.1105126953e+003,4.1001284180e+003,4.0821794434e+003,4.0834614258e+003,4.0275642090e+003,4.0697436523e+003,4.0551281738e+003,4.0701281738e+003,4.0912819824e+003,
3.1484375000e+000,3.9750000000e+003,4.0476923828e+003,4.0907692871e+003,4.0974360352e+003,4.0555129395e+003,4.0970512695e+003,4.0901281738e+003,4.0812819824e+003,4.0802563477e+003,4.0233332520e+003,4.0605129395e+003,4.0469230957e+003,4.0614101563e+003,4.0802563477e+003,
3.1562500000e+000,3.9053845215e+003,3.9717949219e+003,4.0158974609e+003,4.0256411133e+003,3.9726923828e+003,4.0238461914e+003,4.0192307129e+003,4.0207692871e+003,4.0182050781e+003,3.9551281738e+003,3.9865385742e+003,3.9794870605e+003,3.9884614258e+003,4.0092307129e+003,
3.1640625000e+000,3.5869230957e+003,3.6075642090e+003,3.6703845215e+003,3.6633332520e+003,3.6243588867e+003,3.6897436523e+003,3.6952563477e+003,3.6935898438e+003,3.6879487305e+003,3.5858974609e+003,3.6164101563e+003,3.6312819824e+003,3.6234614258e+003,3.6661538086e+003,
3.1718750000e+000,3.6120512695e+003,3.6207692871e+003,3.6843588867e+003,3.6747436523e+003,3.6441025391e+003,3.7042307129e+003,3.7103845215e+003,3.7074357910e+003,3.7007692871e+003,3.6030769043e+003,3.6358974609e+003,3.6424357910e+003,3.6432050781e+003,3.6824357910e+003,
3.1796875000e+000,3.6155129395e+003,3.6048718262e+003,3.6682050781e+003,3.6634614258e+003,3.6160256348e+003,3.6838461914e+003,3.6844870605e+003,3.6864101563e+003,3.6783332520e+003,3.5941025391e+003,3.6194870605e+003,3.6265385742e+003,3.6350000000e+003,3.6747436523e+003,
3.1875000000e+000,3.4519230957e+003,3.4080769043e+003,3.4806411133e+003,3.4888461914e+003,3.4392307129e+003,3.4938461914e+003,3.4930769043e+003,3.4792307129e+003,3.4769230957e+003,3.3835898438e+003,3.4196154785e+003,3.4376923828e+003,3.4303845215e+003,3.4810256348e+003,
3.1953125000e+000,3.4075642090e+003,3.3533332520e+003,3.4285898438e+003,3.4388461914e+003,3.3875642090e+003,3.4394870605e+003,3.4380769043e+003,3.4189743652e+003,3.4176923828e+003,3.3273076172e+003,3.3688461914e+003,3.3851281738e+003,3.3775642090e+003,3.4276923828e+003,
3.2031250000e+000,3.3351281738e+003,3.2644870605e+003,3.3366667480e+003,3.3480769043e+003,3.2792307129e+003,3.3421794434e+003,3.3393588867e+003,3.3087180176e+003,3.3114101563e+003,3.2262819824e+003,3.2573076172e+003,3.2944870605e+003,3.2855129395e+003,3.3391025391e+003,
3.2109375000e+000,3.2915385742e+003,3.1935898438e+003,3.2673076172e+003,3.2962819824e+003,3.2097436523e+003,3.2812819824e+003,3.2802563477e+003,3.2432050781e+003,3.2561538086e+003,3.1582050781e+003,3.1935898438e+003,3.2307692871e+003,3.2247436523e+003,3.2742307129e+003,
3.2187500000e+000,3.2730769043e+003,3.1633332520e+003,3.2410256348e+003,3.2734614258e+003,3.1800000000e+003,3.2569230957e+003,3.2566667480e+003,3.2133332520e+003,3.2292307129e+003,3.1312819824e+003,3.1708974609e+003,3.2014101563e+003,3.2029487305e+003,3.2473076172e+003,
3.2265625000e+000,3.2902563477e+003,3.1670512695e+003,3.2384614258e+003,3.2621794434e+003,3.1933332520e+003,3.2665385742e+003,3.2658974609e+003,3.2147436523e+003,3.2394870605e+003,3.1420512695e+003,3.1711538086e+003,3.2076923828e+003,3.2073076172e+003,3.2515385742e+003,
3.2343750000e+000,3.2797436523e+003,3.1523076172e+003,3.2235898438e+003,3.2424357910e+003,3.1750000000e+003,3.2541025391e+003,3.2560256348e+003,3.2080769043e+003,3.2328205566e+003,3.1317949219e+003,3.1580769043e+003,3.2006411133e+003,3.1920512695e+003,3.2394870605e+003,
3.2421875000e+000,3.2606411133e+003,3.1261538086e+003,3.1997436523e+003,3.2167949219e+003,3.1391025391e+003,3.2305129395e+003,3.2366667480e+003,3.1917949219e+003,3.2146154785e+003,3.1097436523e+003,3.1356411133e+003,3.1803845215e+003,3.1697436523e+003,3.2160256348e+003,
3.2500000000e+000,3.2710256348e+003,3.1237180176e+003,3.1975642090e+003,3.2221794434e+003,3.1247436523e+003,3.2278205566e+003,3.2405129395e+003,3.2038461914e+003,3.2185898438e+003,3.1096154785e+003,3.1326923828e+003,3.1766667480e+003,3.1783332520e+003,3.2107692871e+003,
3.2578125000e+000,3.3702563477e+003,3.2166667480e+003,3.2794870605e+003,3.3057692871e+003,3.2480769043e+003,3.3123076172e+003,3.3255129395e+003,3.3153845215e+003,3.3187180176e+003,3.2085898438e+003,3.2261538086e+003,3.2703845215e+003,3.2602563477e+003,3.2996154785e+003,
3.2656250000e+000,3.3760256348e+003,3.2210256348e+003,3.2817949219e+003,3.3042307129e+003,3.2547436523e+003,3.3161538086e+003,3.3306411133e+003,3.3250000000e+003,3.3284614258e+003,3.2193588867e+003,3.2384614258e+003,3.2744870605e+003,3.2637180176e+003,3.3043588867e+003,
3.2734375000e+000,3.3748718262e+003,3.2175642090e+003,3.2778205566e+003,3.2987180176e+003,3.2479487305e+003,3.3138461914e+003,3.3297436523e+003,3.3238461914e+003,3.3274357910e+003,3.2207692871e+003,3.2411538086e+003,3.2688461914e+003,3.2653845215e+003,3.2994870605e+003,
3.2812500000e+000,3.3848718262e+003,3.2229487305e+003,3.2843588867e+003,3.3071794434e+003,3.2498718262e+003,3.3211538086e+003,3.3378205566e+003,3.3276923828e+003,3.3302563477e+003,3.2270512695e+003,3.2473076172e+003,3.2723076172e+003,3.2789743652e+003,3.3012819824e+003,
3.2890625000e+000,3.4347436523e+003,3.2548718262e+003,3.3235898438e+003,3.3362819824e+003,3.2757692871e+003,3.3394870605e+003,3.3458974609e+003,3.3423076172e+003,3.3432050781e+003,3.2544870605e+003,3.2674357910e+003,3.3094870605e+003,3.3008974609e+003,3.3276923828e+003,
3.2968750000e+000,3.3108974609e+003,3.1266667480e+003,3.2024357910e+003,3.2074357910e+003,3.1438461914e+003,3.2142307129e+003,3.2185898438e+003,3.2167949219e+003,3.2210256348e+003,3.1303845215e+003,3.1428205566e+003,3.1898718262e+003,3.1705129395e+003,3.2098718262e+003,
3.3046875000e+000,2.8944870605e+003,2.6848718262e+003,2.7761538086e+003,2.8008974609e+003,2.7023076172e+003,2.7915385742e+003,2.8020512695e+003,2.7678205566e+003,2.7874357910e+003,2.6756411133e+003,2.6969230957e+003,2.7669230957e+003,2.7446154785e+003,2.7928205566e+003,
3.3125000000e+000,2.8660256348e+003,2.6483332520e+003,2.7358974609e+003,2.7725642090e+003,2.6603845215e+003,2.7532050781e+003,2.7660256348e+003,2.7242307129e+003,2.7460256348e+003,2.6339743652e+003,2.6602563477e+003,2.7289743652e+003,2.7084614258e+003,2.7550000000e+003,
3.3203125000e+000,2.8456411133e+003,2.6093588867e+003,2.6978205566e+003,2.7361538086e+003,2.6139743652e+003,2.7137180176e+003,2.7269230957e+003,2.6798718262e+003,2.7079487305e+003,2.6003845215e+003,2.6321794434e+003,2.6908974609e+003,2.6647436523e+003,2.7173076172e+003,
3.3281250000e+000,2.7833332520e+003,2.5005129395e+003,2.6093588867e+003,2.6476923828e+003,2.5367949219e+003,2.6248718262e+003,2.6429487305e+003,2.5724357910e+003,2.6262819824e+003,2.4998718262e+003,2.5256411133e+003,2.5910256348e+003,2.5766667480e+003,2.6288461914e+003,
3.3359375000e+000,2.8252563477e+003,2.5391025391e+003,2.6438461914e+003,2.6850000000e+003,2.5779487305e+003,2.6606411133e+003,2.6815385742e+003,2.6114101563e+003,2.6660256348e+003,2.5425642090e+003,2.5643588867e+003,2.6284614258e+003,2.6173076172e+003,2.6652563477e+003,
3.3437500000e+000,2.8514101563e+003,2.5642307129e+003,2.6607692871e+003,2.6979487305e+003,2.6079487305e+003,2.6876923828e+003,2.7103845215e+003,2.6443588867e+003,2.6971794434e+003,2.5791025391e+003,2.5867949219e+003,2.6493588867e+003,2.6384614258e+003,2.6841025391e+003,
3.3515625000e+000,2.8466667480e+003,2.5570512695e+003,2.6524357910e+003,2.6875642090e+003,2.6030769043e+003,2.6870512695e+003,2.7094870605e+003,2.6453845215e+003,2.6962819824e+003,2.5750000000e+003,2.5776923828e+003,2.6407692871e+003,2.6284614258e+003,2.6758974609e+003,
3.3593750000e+000,2.9235898438e+003,2.6241025391e+003,2.7165385742e+003,2.7551281738e+003,2.6625642090e+003,2.7587180176e+003,2.7837180176e+003,2.7375642090e+003,2.7787180176e+003,2.6452563477e+003,2.6516667480e+003,2.7100000000e+003,2.6871794434e+003,2.7412819824e+003,
3.3671875000e+000,2.9184614258e+003,2.6174357910e+003,2.7085898438e+003,2.7498718262e+003,2.6528205566e+003,2.7507692871e+003,2.7760256348e+003,2.7392307129e+003,2.7762819824e+003,2.6439743652e+003,2.6497436523e+003,2.7044870605e+003,2.6805129395e+003,2.7328205566e+003,
3.3750000000e+000,2.8666667480e+003,2.5623076172e+003,2.6548718262e+003,2.6989743652e+003,2.5967949219e+003,2.6998718262e+003,2.7244870605e+003,2.6933332520e+003,2.7262819824e+003,2.5953845215e+003,2.5975642090e+003,2.6502563477e+003,2.6284614258e+003,2.6774357910e+003,
3.3828125000e+000,2.7962819824e+003,2.4856411133e+003,2.5829487305e+003,2.6282050781e+003,2.5211538086e+003,2.6328205566e+003,2.6573076172e+003,2.6246154785e+003,2.6542307129e+003,2.5221794434e+003,2.5200000000e+003,2.5739743652e+003,2.5558974609e+003,2.6024357910e+003,
3.3906250000e+000,3.0283332520e+003,2.7069230957e+003,2.7969230957e+003,2.8251281738e+003,2.7519230957e+003,2.8428205566e+003,2.8743588867e+003,2.8267949219e+003,2.8529487305e+003,2.7229487305e+003,2.7161538086e+003,2.7857692871e+003,2.7625642090e+003,2.8092307129e+003,
3.3984375000e+000,3.1735898438e+003,2.8552563477e+003,2.9307692871e+003,2.9647436523e+003,2.8928205566e+003,2.9662819824e+003,2.9912819824e+003,2.9425642090e+003,2.9539743652e+003,2.8630769043e+003,2.8698718262e+003,2.9226923828e+003,2.9044870605e+003,2.9443588867e+003,
3.4062500000e+000,3.2906411133e+003,2.9779487305e+003,3.0430769043e+003,3.0800000000e+003,3.0112819824e+003,3.0757692871e+003,3.1005129395e+003,3.0511538086e+003,3.0615385742e+003,2.9797436523e+003,2.9920512695e+003,3.0364101563e+003,3.0206411133e+003,3.0598718262e+003,
3.4140625000e+000,3.5046154785e+003,3.2062819824e+003,3.2552563477e+003,3.2930769043e+003,3.2346154785e+003,3.2750000000e+003,3.2921794434e+003,3.2592307129e+003,3.2723076172e+003,3.2111538086e+003,3.2157692871e+003,3.2570512695e+003,3.2370512695e+003,3.2774357910e+003,
3.4218750000e+000,3.4571794434e+003,3.1666667480e+003,3.2220512695e+003,3.2488461914e+003,3.1879487305e+003,3.2206411133e+003,3.2371794434e+003,3.1984614258e+003,3.2187180176e+003,3.1623076172e+003,3.1691025391e+003,3.2171794434e+003,3.1947436523e+003,3.2326923828e+003,
3.4296875000e+000,3.5925642090e+003,3.3100000000e+003,3.3543588867e+003,3.3769230957e+003,3.3256411133e+003,3.3546154785e+003,3.3742307129e+003,3.3300000000e+003,3.3547436523e+003,3.3035898438e+003,3.3110256348e+003,3.3524357910e+003,3.3351281738e+003,3.3660256348e+003,
