Time (s);AF3;F7;F3;FC5;T7;P7;O1;O2;P8;T8;FC6;F4;F8;AF4;Sampling Rate
0.0000000000e+000;4.3550000000e+003;4.3448715820e+003;4.3817949219e+003;4.3752563477e+003;4.3620512695e+003;4.3667949219e+003;4.3784614258e+003;4.3674360352e+003;4.3565385742e+003;4.3343588867e+003;4.3708974609e+003;4.3702563477e+003;4.3805126953e+003;4.3991025391e+003;128
7.8125000000e-003;4.4133334961e+003;4.3967949219e+003;4.4328203125e+003;4.4265385742e+003;4.4174360352e+003;4.4251284180e+003;4.4328203125e+003;4.4188461914e+003;4.4011538086e+003;4.3897436523e+003;4.4251284180e+003;4.4257690430e+003;4.4312822266e+003;4.4507690430e+003;
1.5625000000e-002;4.4343588867e+003;4.4165385742e+003;4.4538461914e+003;4.4470512695e+003;4.4419228516e+003;4.4480771484e+003;4.4548715820e+003;4.4419228516e+003;4.4184614258e+003;4.4098715820e+003;4.4456411133e+003;4.4476923828e+003;4.4526923828e+003;4.4705126953e+003;
2.3437500000e-002;4.4700000000e+003;4.4607690430e+003;4.4910258789e+003;4.4830771484e+003;4.4830771484e+003;4.4816665039e+003;4.4888461914e+003;4.4785898438e+003;4.4578203125e+003;4.4474360352e+003;4.4764101563e+003;4.4784614258e+003;4.4924360352e+003;4.5061538086e+003;
3.1250000000e-002;4.4728203125e+003;4.4628203125e+003;4.4920512695e+003;4.4858974609e+003;4.4820512695e+003;4.4828203125e+003;4.4911538086e+003;4.4782050781e+003;4.4606411133e+003;4.4475639648e+003;4.4753847656e+003;4.4765385742e+003;4.4903847656e+003;4.5070512695e+003;
3.9062500000e-002;4.5088461914e+003;4.4984614258e+003;4.5261538086e+003;4.5217949219e+003;4.5179487305e+003;4.5165385742e+003;4.5278203125e+003;4.5121796875e+003;4.4960258789e+003;4.4816665039e+003;4.5093588867e+003;4.5083334961e+003;4.5225639648e+003;4.5408974609e+003;
4.6875000000e-002;4.6000000000e+003;4.6179487305e+003;4.6364101563e+003;4.6198715820e+003;4.6271796875e+003;4.6111538086e+003;4.6278203125e+003;4.6494873047e+003;4.6369228516e+003;4.6207690430e+003;4.6410258789e+003;4.6346152344e+003;4.6511538086e+003;4.6606411133e+003;
5.4687500000e-002;4.6585898438e+003;4.6851284180e+003;4.7042309570e+003;4.6823076172e+003;4.6879487305e+003;4.6669228516e+003;4.6914101563e+003;4.7174360352e+003;4.7126923828e+003;4.6912822266e+003;4.7070512695e+003;4.7041025391e+003;4.7206411133e+003;4.7306411133e+003;
6.2500000000e-002;4.6512822266e+003;4.6750000000e+003;4.7007690430e+003;4.6748715820e+003;4.6798715820e+003;4.6600000000e+003;4.6810258789e+003;4.7128203125e+003;4.7050000000e+003;4.6869228516e+003;4.7006411133e+003;4.6982050781e+003;4.7116665039e+003;4.7239741211e+003;
7.0312500000e-002;4.5553847656e+003;4.5706411133e+003;4.6003847656e+003;4.5742309570e+003;4.5689741211e+003;4.5628203125e+003;4.5808974609e+003;4.6044873047e+003;4.5880771484e+003;4.5712822266e+003;4.5920512695e+003;4.5900000000e+003;4.6010258789e+003;4.6179487305e+003;
7.8125000000e-002;4.5698715820e+003;4.5897436523e+003;4.6167949219e+003;4.5905126953e+003;4.5850000000e+003;4.5776923828e+003;4.6006411133e+003;4.6202563477e+003;4.6033334961e+003;4.5876923828e+003;4.6082050781e+003;4.6074360352e+003;4.6183334961e+003;4.6347436523e+003;
8.5937500000e-002;4.5542309570e+003;4.5801284180e+003;4.6107690430e+003;4.5825639648e+003;4.5788461914e+003;4.5729487305e+003;4.6008974609e+003;4.6100000000e+003;4.5898715820e+003;4.5791025391e+003;4.5989741211e+003;4.6032050781e+003;4.6067949219e+003;4.6251284180e+003;
9.3750000000e-002;4.5303847656e+003;4.5548715820e+003;4.5867949219e+003;4.5591025391e+003;4.5578203125e+003;4.5542309570e+003;4.5802563477e+003;4.5821796875e+003;4.5593588867e+003;4.5511538086e+003;4.5730771484e+003;4.5775639648e+003;4.5782050781e+003;4.5989741211e+003;
1.0156250000e-001;4.4551284180e+003;4.4787177734e+003;4.5058974609e+003;4.4824360352e+003;4.4841025391e+003;4.4883334961e+003;4.5055126953e+003;4.4965385742e+003;4.4673076172e+003;4.4606411133e+003;4.4857690430e+003;4.4916665039e+003;4.4911538086e+003;4.5152563477e+003;
1.0937500000e-001;4.4142309570e+003;4.4384614258e+003;4.4676923828e+003;4.4452563477e+003;4.4444873047e+003;4.4515385742e+003;4.4688461914e+003;4.4553847656e+003;4.4261538086e+003;4.4157690430e+003;4.4429487305e+003;4.4511538086e+003;4.4510258789e+003;4.4744873047e+003;
1.1718750000e-001;4.4008974609e+003;4.4239741211e+003;4.4542309570e+003;4.4357690430e+003;4.4332050781e+003;4.4419228516e+003;4.4578203125e+003;4.4394873047e+003;4.4123076172e+003;4.3966665039e+003;4.4301284180e+003;4.4357690430e+003;4.4379487305e+003;4.4615385742e+003;
1.2500000000e-001;4.4056411133e+003;4.4282050781e+003;4.4558974609e+003;4.4414101563e+003;4.4376923828e+003;4.4489741211e+003;4.4601284180e+003;4.4466665039e+003;4.4193588867e+003;4.4038461914e+003;4.4379487305e+003;4.4408974609e+003;4.4419228516e+003;4.4674360352e+003;
1.3281250000e-001;4.3388461914e+003;4.3558974609e+003;4.3767949219e+003;4.3755126953e+003;4.3602563477e+003;4.3800000000e+003;4.3850000000e+003;4.3815385742e+003;4.3570512695e+003;4.3325639648e+003;4.3651284180e+003;4.3680771484e+003;4.3678203125e+003;4.3935898438e+003;
1.4062500000e-001;4.3617949219e+003;4.3767949219e+003;4.3964101563e+003;4.3952563477e+003;4.3785898438e+003;4.3923076172e+003;4.4024360352e+003;4.4006411133e+003;4.3815385742e+003;4.3534614258e+003;4.3846152344e+003;4.3852563477e+003;4.3898715820e+003;4.4128203125e+003;
1.4843750000e-001;4.3908974609e+003;4.4057690430e+003;4.4250000000e+003;4.4230771484e+003;4.4042309570e+003;4.4121796875e+003;4.4258974609e+003;4.4302563477e+003;4.4162822266e+003;4.3874360352e+003;4.4150000000e+003;4.4121796875e+003;4.4207690430e+003;4.4416665039e+003;
1.5625000000e-001;4.3962822266e+003;4.4124360352e+003;4.4315385742e+003;4.4303847656e+003;4.4078203125e+003;4.4135898438e+003;4.4279487305e+003;4.4396152344e+003;4.4287177734e+003;4.4016665039e+003;4.4243588867e+003;4.4192309570e+003;4.4291025391e+003;4.4489741211e+003;
1.6406250000e-001;4.6169228516e+003;4.6450000000e+003;4.6432050781e+003;4.6414101563e+003;4.6303847656e+003;4.6146152344e+003;4.6374360352e+003;4.6596152344e+003;4.6480771484e+003;4.6355126953e+003;4.6526923828e+003;4.6284614258e+003;4.6593588867e+003;4.6664101563e+003;
1.7187500000e-001;4.5578203125e+003;4.6014101563e+003;4.6024360352e+003;4.5916665039e+003;4.5806411133e+003;4.5753847656e+003;4.5996152344e+003;4.6280771484e+003;4.6138461914e+003;4.5939741211e+003;4.6087177734e+003;4.5838461914e+003;4.6075639648e+003;4.6183334961e+003;
1.7968750000e-001;4.5002563477e+003;4.5420512695e+003;4.5451284180e+003;4.5365385742e+003;4.5247436523e+003;4.5243588867e+003;4.5471796875e+003;4.5715385742e+003;4.5591025391e+003;4.5355126953e+003;4.5520512695e+003;4.5305126953e+003;4.5494873047e+003;4.5616665039e+003;
1.8750000000e-001;4.4093588867e+003;4.4374360352e+003;4.4535898438e+003;4.4467949219e+003;4.4275639648e+003;4.4382050781e+003;4.4571796875e+003;4.4703847656e+003;4.4585898438e+003;4.4307690430e+003;4.4530771484e+003;4.4357690430e+003;4.4511538086e+003;4.4667949219e+003;
1.9531250000e-001;4.3705126953e+003;4.3997436523e+003;4.4144873047e+003;4.4171796875e+003;4.3888461914e+003;4.4039741211e+003;4.4144873047e+003;4.4135898438e+003;4.3974360352e+003;4.3738461914e+003;4.4064101563e+003;4.3887177734e+003;4.4092309570e+003;4.4267949219e+003;
2.0312500000e-001;4.3308974609e+003;4.3578203125e+003;4.3737177734e+003;4.3802563477e+003;4.3473076172e+003;4.3667949219e+003;4.3761538086e+003;4.3702563477e+003;4.3506411133e+003;4.3305126953e+003;4.3639741211e+003;4.3492309570e+003;4.3676923828e+003;4.3884614258e+003;
2.1093750000e-001;4.3267949219e+003;4.3435898438e+003;4.3580771484e+003;4.3632050781e+003;4.3337177734e+003;4.3517949219e+003;4.3664101563e+003;4.3487177734e+003;4.3220512695e+003;4.3102563477e+003;4.3484614258e+003;4.3365385742e+003;4.3521796875e+003;4.3733334961e+003;
2.1875000000e-001;4.3543588867e+003;4.3684614258e+003;4.3796152344e+003;4.3811538086e+003;4.3585898438e+003;4.3717949219e+003;4.3885898438e+003;4.3737177734e+003;4.3446152344e+003;4.3350000000e+003;4.3755126953e+003;4.3633334961e+003;4.3774360352e+003;4.3953847656e+003;
2.2656250000e-001;4.2883334961e+003;4.2996152344e+003;4.3134614258e+003;4.3210258789e+003;4.2930771484e+003;4.3126923828e+003;4.3252563477e+003;4.3265385742e+003;4.2946152344e+003;4.2725639648e+003;4.3153847656e+003;4.2985898438e+003;4.3123076172e+003;4.3293588867e+003;
2.3437500000e-001;4.2838461914e+003;4.2939741211e+003;4.3087177734e+003;4.3211538086e+003;4.2876923828e+003;4.3084614258e+003;4.3216665039e+003;4.3232050781e+003;4.2926923828e+003;4.2679487305e+003;4.3070512695e+003;4.2857690430e+003;4.3051284180e+003;4.3234614258e+003;
2.4218750000e-001;4.3057690430e+003;4.3146152344e+003;4.3285898438e+003;4.3439741211e+003;4.3071796875e+003;4.3258974609e+003;4.3403847656e+003;4.3425639648e+003;4.3151284180e+003;4.2905126953e+003;4.3237177734e+003;4.2991025391e+003;4.3237177734e+003;4.3419228516e+003;
2.5000000000e-001;4.3301284180e+003;4.3369228516e+003;4.3496152344e+003;4.3661538086e+003;4.3280771484e+003;4.3439741211e+003;4.3588461914e+003;4.3625639648e+003;4.3389741211e+003;4.3147436523e+003;4.3429487305e+003;4.3178203125e+003;4.3443588867e+003;4.3611538086e+003;
2.5781250000e-001;4.4733334961e+003;4.4865385742e+003;4.4878203125e+003;4.4979487305e+003;4.4705126953e+003;4.4680771484e+003;4.4893588867e+003;4.5111538086e+003;4.4951284180e+003;4.4711538086e+003;4.4926923828e+003;4.4585898438e+003;4.4932050781e+003;4.5003847656e+003;
2.6562500000e-001;4.4816665039e+003;4.4973076172e+003;4.5006411133e+003;4.5062822266e+003;4.4796152344e+003;4.4782050781e+003;4.5003847656e+003;4.5293588867e+003;4.5142309570e+003;4.4907690430e+003;4.5076923828e+003;4.4717949219e+003;4.5075639648e+003;4.5138461914e+003;
2.7343750000e-001;4.4180771484e+003;4.4293588867e+003;4.4361538086e+003;4.4405126953e+003;4.4148715820e+003;4.4250000000e+003;4.4434614258e+003;4.4619228516e+003;4.4508974609e+003;4.4151284180e+003;4.4366665039e+003;4.4102563477e+003;4.4389741211e+003;4.4457690430e+003;
2.8125000000e-001;4.5156411133e+003;4.5311538086e+003;4.5314101563e+003;4.5307690430e+003;4.5117949219e+003;4.5178203125e+003;4.5357690430e+003;4.5511538086e+003;4.5406411133e+003;4.5130771484e+003;4.5366665039e+003;4.5048715820e+003;4.5380771484e+003;4.5475639648e+003;
2.8906250000e-001;4.5046152344e+003;4.5226923828e+003;4.5250000000e+003;4.5203847656e+003;4.5024360352e+003;4.5094873047e+003;4.5270512695e+003;4.5382050781e+003;4.5283334961e+003;4.5029487305e+003;4.5278203125e+003;4.4969228516e+003;4.5308974609e+003;4.5387177734e+003;
2.9687500000e-001;4.5494873047e+003;4.5717949219e+003;4.5705126953e+003;4.5696152344e+003;4.5626923828e+003;4.5592309570e+003;4.5735898438e+003;4.5753847656e+003;4.5669228516e+003;4.5446152344e+003;4.5751284180e+003;4.5507690430e+003;4.5829487305e+003;4.5850000000e+003;
3.0468750000e-001;4.5344873047e+003;4.5629487305e+003;4.5603847656e+003;4.5601284180e+003;4.5551284180e+003;4.5591025391e+003;4.5715385742e+003;4.5732050781e+003;4.5542309570e+003;4.5357690430e+003;4.5658974609e+003;4.5469228516e+003;4.5750000000e+003;4.5774360352e+003;
3.1250000000e-001;4.5312822266e+003;4.5619228516e+003;4.5615385742e+003;4.5557690430e+003;4.5532050781e+003;4.5552563477e+003;4.5708974609e+003;4.5766665039e+003;4.5538461914e+003;4.5364101563e+003;4.5660258789e+003;4.5480771484e+003;4.5764101563e+003;4.5770512695e+003;
3.2031250000e-001;4.4196152344e+003;4.4379487305e+003;4.4548715820e+003;4.4462822266e+003;4.4351284180e+003;4.4402563477e+003;4.4614101563e+003;4.4680771484e+003;4.4421796875e+003;4.4135898438e+003;4.4528203125e+003;4.4391025391e+003;4.4558974609e+003;4.4594873047e+003;
3.2812500000e-001;4.4156411133e+003;4.4284614258e+003;4.4458974609e+003;4.4408974609e+003;4.4275639648e+003;4.4338461914e+003;4.4530771484e+003;4.4547436523e+003;4.4319228516e+003;4.3967949219e+003;4.4419228516e+003;4.4261538086e+003;4.4441025391e+003;4.4464101563e+003;
3.3593750000e-001;4.4887177734e+003;4.5017949219e+003;4.5142309570e+003;4.5093588867e+003;4.4994873047e+003;4.5007690430e+003;4.5124360352e+003;4.5206411133e+003;4.5039741211e+003;4.4653847656e+003;4.5094873047e+003;4.4933334961e+003;4.5134614258e+003;4.5117949219e+003;
3.4375000000e-001;4.4984614258e+003;4.5139741211e+003;4.5271796875e+003;4.5200000000e+003;4.5106411133e+003;4.5094873047e+003;4.5194873047e+003;4.5337177734e+003;4.5179487305e+003;4.4807690430e+003;4.5210258789e+003;4.5085898438e+003;4.5248715820e+003;4.5250000000e+003;
3.5156250000e-001;4.5429487305e+003;4.5571796875e+003;4.5701284180e+003;4.5623076172e+003;4.5502563477e+003;4.5387177734e+003;4.5575639648e+003;4.5698715820e+003;4.5600000000e+003;4.5223076172e+003;4.5648715820e+003;4.5511538086e+003;4.5658974609e+003;4.5735898438e+003;
3.5937500000e-001;4.5816665039e+003;4.5966665039e+003;4.6056411133e+003;4.5980771484e+003;4.5851284180e+003;4.5716665039e+003;4.5896152344e+003;4.6062822266e+003;4.5994873047e+003;4.5606411133e+003;4.6021796875e+003;4.5871796875e+003;4.6046152344e+003;4.6106411133e+003;
3.6718750000e-001;4.5870512695e+003;4.6033334961e+003;4.6097436523e+003;4.6026923828e+003;4.5871796875e+003;4.5755126953e+003;4.5900000000e+003;4.6126923828e+003;4.6076923828e+003;4.5665385742e+003;4.6056411133e+003;4.5928203125e+003;4.6106411133e+003;4.6137177734e+003;
3.7500000000e-001;4.5619228516e+003;4.5785898438e+003;4.5839741211e+003;4.5780771484e+003;4.5605126953e+003;4.5514101563e+003;4.5633334961e+003;4.5888461914e+003;4.5843588867e+003;4.5400000000e+003;4.5778203125e+003;4.5687177734e+003;4.5850000000e+003;4.5852563477e+003;
3.8281250000e-001;4.4770512695e+003;4.4871796875e+003;4.4939741211e+003;4.4870512695e+003;4.4803847656e+003;4.4743588867e+003;4.4835898438e+003;4.5012822266e+003;4.5002563477e+003;4.4519228516e+003;4.4961538086e+003;4.4870512695e+003;4.4984614258e+003;4.5021796875e+003;
3.9062500000e-001;4.4279487305e+003;4.4364101563e+003;4.4444873047e+003;4.4402563477e+003;4.4307690430e+003;4.4303847656e+003;4.4369228516e+003;4.4512822266e+003;4.4494873047e+003;4.3997436523e+003;4.4461538086e+003;4.4371796875e+003;4.4493588867e+003;4.4533334961e+003;
3.9843750000e-001;4.3823076172e+003;4.3816665039e+003;4.3888461914e+003;4.3901284180e+003;4.3732050781e+003;4.3776923828e+003;4.3841025391e+003;4.3875639648e+003;4.3774360352e+003;4.3320512695e+003;4.3852563477e+003;4.3758974609e+003;4.3894873047e+003;4.3896152344e+003;
4.0625000000e-001;4.3375639648e+003;4.3235898438e+003;4.3397436523e+003;4.3370512695e+003;4.3151284180e+003;4.3279487305e+003;4.3308974609e+003;4.3189741211e+003;4.2984614258e+003;4.2614101563e+003;4.3176923828e+003;4.3180771484e+003;4.3219228516e+003;4.3332050781e+003;
4.1406250000e-001;4.3660258789e+003;4.3544873047e+003;4.3684614258e+003;4.3666665039e+003;4.3448715820e+003;4.3535898438e+003;4.3585898438e+003;4.3447436523e+003;4.3224360352e+003;4.2862822266e+003;4.3433334961e+003;4.3437177734e+003;4.3480771484e+003;4.3605126953e+003;
4.2187500000e-001;4.3551284180e+003;4.3469228516e+003;4.3635898438e+003;4.3635898438e+003;4.3384614258e+003;4.3475639648e+003;4.3566665039e+003;4.3501284180e+003;4.3252563477e+003;4.2870512695e+003;4.3437177734e+003;4.3421796875e+003;4.3456411133e+003;4.3548715820e+003;
4.2968750000e-001;4.3794873047e+003;4.3694873047e+003;4.3876923828e+003;4.3834614258e+003;4.3675639648e+003;4.3728203125e+003;4.3825639648e+003;4.3792309570e+003;4.3580771484e+003;4.3200000000e+003;4.3794873047e+003;4.3692309570e+003;4.3823076172e+003;4.3896152344e+003;
4.3750000000e-001;4.4033334961e+003;4.3950000000e+003;4.4088461914e+003;4.4076923828e+003;4.3921796875e+003;4.3935898438e+003;4.4017949219e+003;4.4043588867e+003;4.3846152344e+003;4.3467949219e+003;4.4020512695e+003;4.3911538086e+003;4.4050000000e+003;4.4138461914e+003;
4.4531250000e-001;4.4183334961e+003;4.4112822266e+003;4.4194873047e+003;4.4225639648e+003;4.4065385742e+003;4.4058974609e+003;4.4133334961e+003;4.4182050781e+003;4.4006411133e+003;4.3614101563e+003;4.4124360352e+003;4.4021796875e+003;4.4155126953e+003;4.4265385742e+003;
4.5312500000e-001;4.5176923828e+003;4.5180771484e+003;4.5125639648e+003;4.5156411133e+003;4.5079487305e+003;4.5005126953e+003;4.5098715820e+003;4.5171796875e+003;4.5062822266e+003;4.4688461914e+003;4.5105126953e+003;4.4962822266e+003;4.5158974609e+003;4.5260258789e+003;
4.6093750000e-001;4.5739741211e+003;4.5870512695e+003;4.5848715820e+003;4.5737177734e+003;4.5764101563e+003;4.5650000000e+003;4.5700000000e+003;4.6076923828e+003;4.5961538086e+003;4.5701284180e+003;4.5952563477e+003;4.5720512695e+003;4.6028203125e+003;4.6005126953e+003;
4.6875000000e-001;4.5443588867e+003;4.5565385742e+003;4.5551284180e+003;4.5452563477e+003;4.5483334961e+003;4.5373076172e+003;4.5433334961e+003;4.5807690430e+003;4.5700000000e+003;4.5412822266e+003;4.5657690430e+003;4.5419228516e+003;4.5744873047e+003;4.5688461914e+003;
4.7656250000e-001;4.5542309570e+003;4.5652563477e+003;4.5600000000e+003;4.5532050781e+003;4.5587177734e+003;4.5456411133e+003;4.5551284180e+003;4.5876923828e+003;4.5811538086e+003;4.5479487305e+003;4.5723076172e+003;4.5475639648e+003;4.5823076172e+003;4.5753847656e+003;
4.8437500000e-001;4.6166665039e+003;4.6301284180e+003;4.6182050781e+003;4.6151284180e+003;4.6225639648e+003;4.6108974609e+003;4.6262822266e+003;4.6542309570e+003;4.6565385742e+003;4.6189741211e+003;4.6380771484e+003;4.6107690430e+003;4.6455126953e+003;4.6438461914e+003;
4.9218750000e-001;4.5943588867e+003;4.6096152344e+003;4.6000000000e+003;4.5978203125e+003;4.6023076172e+003;4.5989741211e+003;4.6135898438e+003;4.6406411133e+003;4.6424360352e+003;4.6050000000e+003;4.6223076172e+003;4.5935898438e+003;4.6258974609e+003;4.6266665039e+003;
5.0000000000e-001;4.5465385742e+003;4.5621796875e+003;4.5561538086e+003;4.5548715820e+003;4.5573076172e+003;4.5629487305e+003;4.5751284180e+003;4.5991025391e+003;4.5976923828e+003;4.5605126953e+003;4.5784614258e+003;4.5482050781e+003;4.5792309570e+003;4.5788461914e+003;
5.0781250000e-001;4.4920512695e+003;4.5108974609e+003;4.5064101563e+003;4.5051284180e+003;4.5047436523e+003;4.5164101563e+003;4.5212822266e+003;4.5248715820e+003;4.5073076172e+003;4.4673076172e+003;4.5033334961e+003;4.4764101563e+003;4.5064101563e+003;4.5178203125e+003;
5.1562500000e-001;4.4928203125e+003;4.5107690430e+003;4.5082050781e+003;4.5050000000e+003;4.5038461914e+003;4.5133334961e+003;4.5185898438e+003;4.5212822266e+003;4.4975639648e+003;4.4628203125e+003;4.5015385742e+003;4.4753847656e+003;4.5042309570e+003;4.5188461914e+003;
5.2343750000e-001;4.4743588867e+003;4.4897436523e+003;4.4944873047e+003;4.4853847656e+003;4.4833334961e+003;4.4920512695e+003;4.4969228516e+003;4.4944873047e+003;4.4662822266e+003;4.4430771484e+003;4.4866665039e+003;4.4734614258e+003;4.4897436523e+003;4.5026923828e+003;
5.3125000000e-001;4.5651284180e+003;4.5798715820e+003;4.5839741211e+003;4.5717949219e+003;4.5702563477e+003;4.5700000000e+003;4.5805126953e+003;4.5788461914e+003;4.5460258789e+003;4.5248715820e+003;4.5756411133e+003;4.5542309570e+003;4.5764101563e+003;4.5889741211e+003;
5.3906250000e-001;4.5883334961e+003;4.6005126953e+003;4.6044873047e+003;4.5898715820e+003;4.5902563477e+003;4.5875639648e+003;4.5975639648e+003;4.6050000000e+003;4.5735898438e+003;4.5519228516e+003;4.6005126953e+003;4.5765385742e+003;4.5974360352e+003;4.6112822266e+003;
5.4687500000e-001;4.6197436523e+003;4.6335898438e+003;4.6303847656e+003;4.6153847656e+003;4.6170512695e+003;4.6132050781e+003;4.6179487305e+003;4.6328203125e+003;4.6224360352e+003;4.5919228516e+003;4.6389741211e+003;4.6189741211e+003;4.6326923828e+003;4.6443588867e+003;
5.5468750000e-001;4.6919228516e+003;4.7126923828e+003;4.7037177734e+003;4.6875639648e+003;4.6930771484e+003;4.6803847656e+003;4.6857690430e+003;4.7065385742e+003;4.7032050781e+003;4.6742309570e+003;4.7162822266e+003;4.6942309570e+003;4.7124360352e+003;4.7202563477e+003;
5.6250000000e-001;4.7398715820e+003;4.7692309570e+003;4.7579487305e+003;4.7370512695e+003;4.7451284180e+003;4.7233334961e+003;4.7297436523e+003;4.7673076172e+003;4.7737177734e+003;4.7448715820e+003;4.7734614258e+003;4.7470512695e+003;4.7706411133e+003;4.7764101563e+003;
5.7031250000e-001;4.6987177734e+003;4.7287177734e+003;4.7191025391e+003;4.6961538086e+003;4.7032050781e+003;4.6832050781e+003;4.6910258789e+003;4.7302563477e+003;4.7401284180e+003;4.7060258789e+003;4.7320512695e+003;4.7071796875e+003;4.7289741211e+003;4.7365385742e+003;
5.7812500000e-001;4.6482050781e+003;4.6861538086e+003;4.6806411133e+003;4.6516665039e+003;4.6624360352e+003;4.6476923828e+003;4.6592309570e+003;4.6973076172e+003;4.7008974609e+003;4.6646152344e+003;4.6871796875e+003;4.6682050781e+003;4.6838461914e+003;4.6929487305e+003;
5.8593750000e-001;4.6367949219e+003;4.6778203125e+003;4.6747436523e+003;4.6455126953e+003;4.6573076172e+003;4.6489741211e+003;4.6575639648e+003;4.6953847656e+003;4.6943588867e+003;4.6602563477e+003;4.6814101563e+003;4.6614101563e+003;4.6757690430e+003;4.6839741211e+003;
5.9375000000e-001;4.6308974609e+003;4.6755126953e+003;4.6679487305e+003;4.6434614258e+003;4.6588461914e+003;4.6610258789e+003;4.6657690430e+003;4.6937177734e+003;4.6956411133e+003;4.6562822266e+003;4.6785898438e+003;4.6521796875e+003;4.6708974609e+003;4.6764101563e+003;
6.0156250000e-001;4.6476923828e+003;4.6948715820e+003;4.6816665039e+003;4.6591025391e+003;4.6771796875e+003;4.6793588867e+003;4.6856411133e+003;4.7084614258e+003;4.7146152344e+003;4.6723076172e+003;4.6937177734e+003;4.6658974609e+003;4.6879487305e+003;4.6937177734e+003;
6.0937500000e-001;4.5956411133e+003;4.6485898438e+003;4.6408974609e+003;4.6135898438e+003;4.6320512695e+003;4.6394873047e+003;4.6500000000e+003;4.6539741211e+003;4.6534614258e+003;4.6139741211e+003;4.6300000000e+003;4.6176923828e+003;4.6319228516e+003;4.6469228516e+003;
6.1718750000e-001;4.6071796875e+003;4.6598715820e+003;4.6552563477e+003;4.6248715820e+003;4.6460258789e+003;4.6530771484e+003;4.6642309570e+003;4.6603847656e+003;4.6543588867e+003;4.6182050781e+003;4.6375639648e+003;4.6270512695e+003;4.6396152344e+003;4.6556411133e+003;
6.2500000000e-001;4.6574360352e+003;4.7094873047e+003;4.7047436523e+003;4.6717949219e+003;4.6961538086e+003;4.7001284180e+003;4.7110258789e+003;4.7056411133e+003;4.6935898438e+003;4.6630771484e+003;4.6867949219e+003;4.6738461914e+003;4.6873076172e+003;4.7035898438e+003;
6.3281250000e-001;4.7067949219e+003;4.7576923828e+003;4.7524360352e+003;4.7175639648e+003;4.7419228516e+003;4.7435898438e+003;4.7533334961e+003;4.7520512695e+003;4.7334614258e+003;4.7094873047e+003;4.7374360352e+003;4.7217949219e+003;4.7360258789e+003;4.7532050781e+003;
6.4062500000e-001;4.6425639648e+003;4.6893588867e+003;4.6991025391e+003;4.6591025391e+003;4.6728203125e+003;4.6707690430e+003;4.6830771484e+003;4.6794873047e+003;4.6438461914e+003;4.6294873047e+003;4.6724360352e+003;4.6661538086e+003;4.6762822266e+003;4.6985898438e+003;
6.4843750000e-001;4.6452563477e+003;4.6903847656e+003;4.7039741211e+003;4.6598715820e+003;4.6712822266e+003;4.6634614258e+003;4.6705126953e+003;4.6801284180e+003;4.6487177734e+003;4.6282050781e+003;4.6774360352e+003;4.6683334961e+003;4.6797436523e+003;4.6978203125e+003;
6.5625000000e-001;4.6088461914e+003;4.6507690430e+003;4.6675639648e+003;4.6297436523e+003;4.6305126953e+003;4.6239741211e+003;4.6288461914e+003;4.6593588867e+003;4.6444873047e+003;4.6119228516e+003;4.6484614258e+003;4.6337177734e+003;4.6451284180e+003;4.6652563477e+003;
6.6406250000e-001;4.5579487305e+003;4.6025639648e+003;4.6198715820e+003;4.5839741211e+003;4.5838461914e+003;4.5819228516e+003;4.5861538086e+003;4.6164101563e+003;4.6048715820e+003;4.5652563477e+003;4.5997436523e+003;4.5857690430e+003;4.5966665039e+003;4.6171796875e+003;
6.7187500000e-001;4.6692309570e+003;4.7256411133e+003;4.7262822266e+003;4.6901284180e+003;4.7016665039e+003;4.6850000000e+003;4.6957690430e+003;4.7296152344e+003;4.7226923828e+003;4.6778203125e+003;4.7120512695e+003;4.6882050781e+003;4.7150000000e+003;4.7271796875e+003;
6.7968750000e-001;4.6366665039e+003;4.6873076172e+003;4.6957690430e+003;4.6614101563e+003;4.6680771484e+003;4.6616665039e+003;4.6676923828e+003;4.6980771484e+003;4.6921796875e+003;4.6500000000e+003;4.6778203125e+003;4.6553847656e+003;4.6803847656e+003;4.6989741211e+003;
6.8750000000e-001;4.6338461914e+003;4.6841025391e+003;4.6937177734e+003;4.6607690430e+003;4.6692309570e+003;4.6655126953e+003;4.6711538086e+003;4.6935898438e+003;4.6878203125e+003;4.6444873047e+003;4.6720512695e+003;4.6496152344e+003;4.6769228516e+003;4.6946152344e+003;
6.9531250000e-001;4.6557690430e+003;4.7069228516e+003;4.7158974609e+003;4.6841025391e+003;4.6957690430e+003;4.6923076172e+003;4.6976923828e+003;4.7158974609e+003;4.7106411133e+003;4.6666665039e+003;4.6928203125e+003;4.6687177734e+003;4.7008974609e+003;4.7146152344e+003;
7.0312500000e-001;4.6700000000e+003;4.7193588867e+003;4.7279487305e+003;4.7006411133e+003;4.7174360352e+003;4.7169228516e+003;4.7201284180e+003;4.7357690430e+003;4.7287177734e+003;4.6875639648e+003;4.7071796875e+003;4.6806411133e+003;4.7193588867e+003;4.7250000000e+003;
7.1093750000e-001;4.6935898438e+003;4.7476923828e+003;4.7500000000e+003;4.7264101563e+003;4.7524360352e+003;4.7534614258e+003;4.7555126953e+003;4.7673076172e+003;4.7505126953e+003;4.7207690430e+003;4.7351284180e+003;4.7078203125e+003;4.7461538086e+003;4.7530771484e+003;
7.1875000000e-001;4.6848715820e+003;4.7421796875e+003;4.7456411133e+003;4.7210258789e+003;4.7430771484e+003;4.7464101563e+003;4.7473076172e+003;4.7600000000e+003;4.7406411133e+003;4.7117949219e+003;4.7288461914e+003;4.7032050781e+003;4.7391025391e+003;4.7493588867e+003;
7.2656250000e-001;4.6555126953e+003;4.7130771484e+003;4.7201284180e+003;4.6950000000e+003;4.7097436523e+003;4.7162822266e+003;4.7160258789e+003;4.7262822266e+003;4.7047436523e+003;4.6757690430e+003;4.6994873047e+003;4.6758974609e+003;4.7094873047e+003;4.7230771484e+003;
7.3437500000e-001;4.6493588867e+003;4.7035898438e+003;4.7132050781e+003;4.6889741211e+003;4.6969228516e+003;4.7002563477e+003;4.6997436523e+003;4.7005126953e+003;4.6743588867e+003;4.6533334961e+003;4.6923076172e+003;4.6707690430e+003;4.7030771484e+003;4.7176923828e+003;
7.4218750000e-001;4.6802563477e+003;4.7346152344e+003;4.7430771484e+003;4.7183334961e+003;4.7282050781e+003;4.7270512695e+003;4.7260258789e+003;4.7267949219e+003;4.6983334961e+003;4.6846152344e+003;4.7266665039e+003;4.7062822266e+003;4.7366665039e+003;4.7507690430e+003;
7.5000000000e-001;4.6960258789e+003;4.7502563477e+003;4.7594873047e+003;4.7330771484e+003;4.7437177734e+003;4.7411538086e+003;4.7391025391e+003;4.7434614258e+003;4.7126923828e+003;4.7034614258e+003;4.7461538086e+003;4.7282050781e+003;4.7544873047e+003;4.7698715820e+003;
7.5781250000e-001;4.6862822266e+003;4.7391025391e+003;4.7507690430e+003;4.7224360352e+003;4.7312822266e+003;4.7302563477e+003;4.7278203125e+003;4.7362822266e+003;4.7035898438e+003;4.6934614258e+003;4.7371796875e+003;4.7216665039e+003;4.7441025391e+003;4.7623076172e+003;
7.6562500000e-001;4.7144873047e+003;4.7635898438e+003;4.7780771484e+003;4.7455126953e+003;4.7516665039e+003;4.7432050781e+003;4.7444873047e+003;4.7669228516e+003;4.7430771484e+003;4.7226923828e+003;4.7655126953e+003;4.7462822266e+003;4.7711538086e+003;4.7914101563e+003;
7.7343750000e-001;4.5816665039e+003;4.6188461914e+003;4.6483334961e+003;4.6156411133e+003;4.6135898438e+003;4.6166665039e+003;4.6167949219e+003;4.6432050781e+003;4.6306411133e+003;4.5932050781e+003;4.6317949219e+003;4.6169228516e+003;4.6366665039e+003;4.6571796875e+003;
7.8125000000e-001;4.5450000000e+003;4.5775639648e+003;4.6089741211e+003;4.5771796875e+003;4.5732050781e+003;4.5805126953e+003;4.5798715820e+003;4.6117949219e+003;4.6010258789e+003;4.5575639648e+003;4.5937177734e+003;4.5780771484e+003;4.5953847656e+003;4.6197436523e+003;
7.8906250000e-001;4.4843588867e+003;4.5089741211e+003;4.5417949219e+003;4.5185898438e+003;4.5083334961e+003;4.5289741211e+003;4.5244873047e+003;4.5551284180e+003;4.5447436523e+003;4.4944873047e+003;4.5284614258e+003;4.5105126953e+003;4.5258974609e+003;4.5524360352e+003;
7.9687500000e-001;4.5743588867e+003;4.6076923828e+003;4.6308974609e+003;4.6143588867e+003;4.6087177734e+003;4.6230771484e+003;4.6242309570e+003;4.6550000000e+003;4.6465385742e+003;4.6057690430e+003;4.6289741211e+003;4.6017949219e+003;4.6243588867e+003;4.6450000000e+003;
8.0468750000e-001;4.5298715820e+003;4.5620512695e+003;4.5871796875e+003;4.5697436523e+003;4.5641025391e+003;4.5825639648e+003;4.5821796875e+003;4.6089741211e+003;4.6008974609e+003;4.5591025391e+003;4.5832050781e+003;4.5570512695e+003;4.5774360352e+003;4.5987177734e+003;
8.1250000000e-001;4.4843588867e+003;4.5141025391e+003;4.5347436523e+003;4.5210258789e+003;4.5157690430e+003;4.5397436523e+003;4.5337177734e+003;4.5529487305e+003;4.5446152344e+003;4.4998715820e+003;4.5287177734e+003;4.5033334961e+003;4.5247436523e+003;4.5434614258e+003;
8.2031250000e-001;4.4619228516e+003;4.4916665039e+003;4.5088461914e+003;4.5010258789e+003;4.4926923828e+003;4.5193588867e+003;4.5105126953e+003;4.5289741211e+003;4.5189741211e+003;4.4744873047e+003;4.5044873047e+003;4.4792309570e+003;4.5014101563e+003;4.5189741211e+003;
8.2812500000e-001;4.4116665039e+003;4.4408974609e+003;4.4566665039e+003;4.4567949219e+003;4.4428203125e+003;4.4735898438e+003;4.4633334961e+003;4.4789741211e+003;4.4661538086e+003;4.4223076172e+003;4.4537177734e+003;4.4289741211e+003;4.4510258789e+003;4.4685898438e+003;
8.3593750000e-001;4.3515385742e+003;4.3780771484e+003;4.3943588867e+003;4.4016665039e+003;4.3825639648e+003;4.4175639648e+003;4.4074360352e+003;4.4165385742e+003;4.4005126953e+003;4.3578203125e+003;4.3917949219e+003;4.3675639648e+003;4.3893588867e+003;4.4073076172e+003;
8.4375000000e-001;4.2655126953e+003;4.2626923828e+003;4.2919228516e+003;4.2942309570e+003;4.2688461914e+003;4.3134614258e+003;4.2980771484e+003;4.3000000000e+003;4.2774360352e+003;4.2384614258e+003;4.2835898438e+003;4.2685898438e+003;4.2851284180e+003;4.3042309570e+003;
8.5156250000e-001;4.2267949219e+003;4.2150000000e+003;4.2488461914e+003;4.2519228516e+003;4.2200000000e+003;4.2670512695e+003;4.2532050781e+003;4.2528203125e+003;4.2301284180e+003;4.1873076172e+003;4.2376923828e+003;4.2252563477e+003;4.2384614258e+003;4.2588461914e+003;
8.5937500000e-001;4.2041025391e+003;4.1828203125e+003;4.2119228516e+003;4.2230771484e+003;4.1815385742e+003;4.2214101563e+003;4.2091025391e+003;4.2178203125e+003;4.2024360352e+003;4.1546152344e+003;4.2107690430e+003;4.1930771484e+003;4.2076923828e+003;4.2301284180e+003;
8.6718750000e-001;4.1406411133e+003;4.1033334961e+003;4.1383334961e+003;4.1506411133e+003;4.1001284180e+003;4.1387177734e+003;4.1278203125e+003;4.1476923828e+003;4.1389741211e+003;4.0855129395e+003;4.1346152344e+003;4.1255126953e+003;4.1384614258e+003;4.1633334961e+003;
8.7500000000e-001;4.1571796875e+003;4.1144873047e+003;4.1511538086e+003;4.1630771484e+003;4.1115385742e+003;4.1448715820e+003;4.1394873047e+003;4.1587177734e+003;4.1506411133e+003;4.0946154785e+003;4.1448715820e+003;4.1335898438e+003;4.1510258789e+003;4.1733334961e+003;
8.8281250000e-001;4.1793588867e+003;4.1310258789e+003;4.1612822266e+003;4.1807690430e+003;4.1257690430e+003;4.1528203125e+003;4.1466665039e+003;4.1684614258e+003;4.1607690430e+003;4.1057690430e+003;4.1544873047e+003;4.1367949219e+003;4.1587177734e+003;4.1784614258e+003;
8.9062500000e-001;4.1839741211e+003;4.1308974609e+003;4.1570512695e+003;4.1802563477e+003;4.1276923828e+003;4.1546152344e+003;4.1467949219e+003;4.1664101563e+003;4.1608974609e+003;4.1066665039e+003;4.1514101563e+003;4.1344873047e+003;4.1557690430e+003;4.1753847656e+003;
8.9843750000e-001;4.1466665039e+003;4.0782050781e+003;4.1105126953e+003;4.1364101563e+003;4.0841025391e+003;4.1248715820e+003;4.1155126953e+003;4.1330771484e+003;4.1276923828e+003;4.0667949219e+003;4.1041025391e+003;4.0876923828e+003;4.1065385742e+003;4.1278203125e+003;
9.0625000000e-001;4.0907692871e+003;4.0208974609e+003;4.0571794434e+003;4.0841025391e+003;4.0278205566e+003;4.0787180176e+003;4.0675642090e+003;4.0806411133e+003;4.0717949219e+003;4.0066667480e+003;4.0458974609e+003;4.0317949219e+003;4.0483332520e+003;4.0723076172e+003;
9.1406250000e-001;4.0821794434e+003;4.0110256348e+003;4.0426923828e+003;4.0735898438e+003;4.0210256348e+003;4.0771794434e+003;4.0644870605e+003;4.0639743652e+003;4.0521794434e+003;3.9882050781e+003;4.0283332520e+003;4.0180769043e+003;4.0344870605e+003;4.0593588867e+003;
9.2187500000e-001;4.1133334961e+003;4.0401281738e+003;4.0688461914e+003;4.1016665039e+003;4.0541025391e+003;4.1082050781e+003;4.0946154785e+003;4.0902563477e+003;4.0778205566e+003;4.0187180176e+003;4.0571794434e+003;4.0467949219e+003;4.0646154785e+003;4.0874357910e+003;
9.2968750000e-001;4.1350000000e+003;4.0551281738e+003;4.0878205566e+003;4.1242309570e+003;4.0820512695e+003;4.1343588867e+003;4.1180771484e+003;4.1030771484e+003;4.0823076172e+003;4.0323076172e+003;4.0769230957e+003;4.0575642090e+003;4.0820512695e+003;4.0996152344e+003;
9.3750000000e-001;4.1780771484e+003;4.0987177734e+003;4.1310258789e+003;4.1643588867e+003;4.1253847656e+003;4.1724360352e+003;4.1557690430e+003;4.1421796875e+003;4.1185898438e+003;4.0726923828e+003;4.1183334961e+003;4.0973076172e+003;4.1242309570e+003;4.1415385742e+003;
9.4531250000e-001;4.2212822266e+003;4.1425639648e+003;4.1752563477e+003;4.2034614258e+003;4.1666665039e+003;4.2087177734e+003;4.1906411133e+003;4.1824360352e+003;4.1574360352e+003;4.1157690430e+003;4.1606411133e+003;4.1424360352e+003;4.1680771484e+003;4.1865385742e+003;
9.5312500000e-001;4.2302563477e+003;4.1508974609e+003;4.1860258789e+003;4.2097436523e+003;4.1712822266e+003;4.2124360352e+003;4.1919228516e+003;4.1879487305e+003;4.1632050781e+003;4.1235898438e+003;4.1688461914e+003;4.1566665039e+003;4.1774360352e+003;4.1979487305e+003;
9.6093750000e-001;4.2823076172e+003;4.2025639648e+003;4.2310258789e+003;4.2555126953e+003;4.2155126953e+003;4.2456411133e+003;4.2301284180e+003;4.2225639648e+003;4.2035898438e+003;4.1667949219e+003;4.2243588867e+003;4.2066665039e+003;4.2298715820e+003;4.2474360352e+003;
9.6875000000e-001;4.3292309570e+003;4.2465385742e+003;4.2812822266e+003;4.2923076172e+003;4.2510258789e+003;4.2711538086e+003;4.2593588867e+003;4.2730771484e+003;4.2615385742e+003;4.2214101563e+003;4.2738461914e+003;4.2598715820e+003;4.2787177734e+003;4.2924360352e+003;
9.7656250000e-001;4.3482050781e+003;4.2673076172e+003;4.2997436523e+003;4.3071796875e+003;4.2687177734e+003;4.2838461914e+003;4.2716665039e+003;4.2911538086e+003;4.2828203125e+003;4.2405126953e+003;4.2928203125e+003;4.2797436523e+003;4.2970512695e+003;4.3087177734e+003;
9.8437500000e-001;4.3667949219e+003;4.2893588867e+003;4.3178203125e+003;4.3294873047e+003;4.2926923828e+003;4.2982050781e+003;4.2897436523e+003;4.3166665039e+003;4.3100000000e+003;4.2700000000e+003;4.3123076172e+003;4.3012822266e+003;4.3133334961e+003;4.3282050781e+003;
9.9218750000e-001;4.4196152344e+003;4.3406411133e+003;4.3653847656e+003;4.3774360352e+003;4.3453847656e+003;4.3480771484e+003;4.3465385742e+003;4.3670512695e+003;4.3552563477e+003;4.3116665039e+003;4.3583334961e+003;4.3453847656e+003;4.3619228516e+003;4.3726923828e+003;
1.0000000000e+000;4.4169228516e+003;4.3382050781e+003;4.3619228516e+003;4.3716665039e+003;4.3426923828e+003;4.3502563477e+003;4.3480771484e+003;4.3693588867e+003;4.3570512695e+003;4.3120512695e+003;4.3561538086e+003;4.3439741211e+003;4.3594873047e+003;4.3687177734e+003;
1.0078125000e+000;4.3358974609e+003;4.2569228516e+003;4.2792309570e+003;4.2950000000e+003;4.2696152344e+003;4.2952563477e+003;4.2882050781e+003;4.2952563477e+003;4.2866665039e+003;4.2358974609e+003;4.2729487305e+003;4.2584614258e+003;4.2779487305e+003;4.2846152344e+003;
1.0156250000e+000;4.3389741211e+003;4.2632050781e+003;4.2814101563e+003;4.3014101563e+003;4.2782050781e+003;4.3047436523e+003;4.2930771484e+003;4.2996152344e+003;4.2925639648e+003;4.2408974609e+003;4.2778203125e+003;4.2592309570e+003;4.2817949219e+003;4.2884614258e+003;
1.0234375000e+000;4.3234614258e+003;4.2506411133e+003;4.2661538086e+003;4.2892309570e+003;4.2664101563e+003;4.2964101563e+003;4.2787177734e+003;4.2870512695e+003;4.2800000000e+003;4.2276923828e+003;4.2643588867e+003;4.2434614258e+003;4.2660258789e+003;4.2737177734e+003;
1.0312500000e+000;4.2360258789e+003;4.1603847656e+003;4.1776923828e+003;4.2024360352e+003;4.1764101563e+003;4.2196152344e+003;4.1947436523e+003;4.1978203125e+003;4.1870512695e+003;4.1344873047e+003;4.1723076172e+003;4.1532050781e+003;4.1742309570e+003;4.1810258789e+003;
1.0390625000e+000;4.2210258789e+003;4.1370512695e+003;4.1655126953e+003;4.1820512695e+003;4.1529487305e+003;4.1951284180e+003;4.1706411133e+003;4.1642309570e+003;4.1520512695e+003;4.1087177734e+003;4.1525639648e+003;4.1414101563e+003;4.1605126953e+003;4.1625639648e+003;
1.0468750000e+000;4.2046152344e+003;4.1192309570e+003;4.1511538086e+003;4.1662822266e+003;4.1339741211e+003;4.1764101563e+003;4.1498715820e+003;4.1408974609e+003;4.1282050781e+003;4.0865385742e+003;4.1344873047e+003;4.1267949219e+003;4.1408974609e+003;4.1456411133e+003;
1.0546875000e+000;4.1917949219e+003;4.1051284180e+003;4.1376923828e+003;4.1526923828e+003;4.1183334961e+003;4.1605126953e+003;4.1339741211e+003;4.1197436523e+003;4.1057690430e+003;4.0642307129e+003;4.1169228516e+003;4.1111538086e+003;4.1217949219e+003;4.1294873047e+003;
1.0625000000e+000;4.2030771484e+003;4.1153847656e+003;4.1458974609e+003;4.1605126953e+003;4.1265385742e+003;4.1660258789e+003;4.1419228516e+003;4.1235898438e+003;4.1080771484e+003;4.0669230957e+003;4.1223076172e+003;4.1166665039e+003;4.1265385742e+003;4.1358974609e+003;
1.0703125000e+000;4.1552563477e+003;4.0653845215e+003;4.1026923828e+003;4.1158974609e+003;4.0694870605e+003;4.1083334961e+003;4.0865385742e+003;4.0864101563e+003;4.0691025391e+003;4.0289743652e+003;4.0766667480e+003;4.0794870605e+003;4.0855129395e+003;4.0947436523e+003;
1.0781250000e+000;4.1369228516e+003;4.0438461914e+003;4.0821794434e+003;4.0953845215e+003;4.0479487305e+003;4.0835898438e+003;4.0647436523e+003;4.0694870605e+003;4.0564101563e+003;4.0117949219e+003;4.0593588867e+003;4.0634614258e+003;4.0691025391e+003;4.0773076172e+003;
1.0859375000e+000;4.1452563477e+003;4.0432050781e+003;4.0830769043e+003;4.0880769043e+003;4.0425642090e+003;4.0739743652e+003;4.0626923828e+003;4.0875642090e+003;4.0785898438e+003;4.0258974609e+003;4.0719230957e+003;4.0715385742e+003;4.0747436523e+003;4.0846154785e+003;
1.0937500000e+000;4.1880771484e+003;4.0885898438e+003;4.1214101563e+003;4.1335898438e+003;4.0901281738e+003;4.1160258789e+003;4.1091025391e+003;4.1369228516e+003;4.1223076172e+003;4.0684614258e+003;4.1089741211e+003;4.0998715820e+003;4.1132050781e+003;4.1170512695e+003;
1.1015625000e+000;4.1951284180e+003;4.0994873047e+003;4.1284614258e+003;4.1439741211e+003;4.1016665039e+003;4.1250000000e+003;4.1192309570e+003;4.1485898438e+003;4.1369228516e+003;4.0814101563e+003;4.1169228516e+003;4.1070512695e+003;4.1230771484e+003;4.1266665039e+003;
1.1093750000e+000;4.0358974609e+003;3.9387180176e+003;3.9664101563e+003;3.9912819824e+003;3.9437180176e+003;3.9891025391e+003;3.9751281738e+003;3.9924357910e+003;3.9826923828e+003;3.9207692871e+003;3.9588461914e+003;3.9520512695e+003;3.9625642090e+003;3.9741025391e+003;
1.1171875000e+000;3.9966667480e+003;3.8828205566e+003;3.9151281738e+003;3.9423076172e+003;3.9017949219e+003;3.9603845215e+003;3.9400000000e+003;3.9465385742e+003;3.9379487305e+003;3.8774357910e+003;3.9092307129e+003;3.9006411133e+003;3.9121794434e+003;3.9196154785e+003;
1.1250000000e+000;3.9743588867e+003;3.8548718262e+003;3.8902563477e+003;3.9182050781e+003;3.8785898438e+003;3.9403845215e+003;3.9179487305e+003;3.9198718262e+003;3.9133332520e+003;3.8489743652e+003;3.8802563477e+003;3.8717949219e+003;3.8843588867e+003;3.8920512695e+003;
1.1328125000e+000;3.9656411133e+003;3.8439743652e+003;3.8792307129e+003;3.9087180176e+003;3.8697436523e+003;3.9325642090e+003;3.9082050781e+003;3.9052563477e+003;3.9000000000e+003;3.8330769043e+003;3.8658974609e+003;3.8570512695e+003;3.8717949219e+003;3.8803845215e+003;
1.1406250000e+000;3.9728205566e+003;3.8533332520e+003;3.8852563477e+003;3.9161538086e+003;3.8776923828e+003;3.9393588867e+003;3.9115385742e+003;3.9055129395e+003;3.8975642090e+003;3.8365385742e+003;3.8720512695e+003;3.8652563477e+003;3.8797436523e+003;3.8901281738e+003;
1.1484375000e+000;3.9529487305e+003;3.8315385742e+003;3.8662819824e+003;3.8965385742e+003;3.8560256348e+003;3.9194870605e+003;3.8919230957e+003;3.8826923828e+003;3.8714101563e+003;3.8148718262e+003;3.8528205566e+003;3.8494870605e+003;3.8597436523e+003;3.8707692871e+003;
1.1562500000e+000;3.9602563477e+003;3.8235898438e+003;3.8675642090e+003;3.8960256348e+003;3.8520512695e+003;3.9144870605e+003;3.8933332520e+003;3.8666667480e+003;3.8496154785e+003;3.8011538086e+003;3.8516667480e+003;3.8501281738e+003;3.8556411133e+003;3.8697436523e+003;
1.1640625000e+000;3.9228205566e+003;3.7817949219e+003;3.8287180176e+003;3.8582050781e+003;3.8061538086e+003;3.8684614258e+003;3.8420512695e+003;3.8288461914e+003;3.8107692871e+003;3.7708974609e+003;3.8160256348e+003;3.8148718262e+003;3.8212819824e+003;3.8357692871e+003;
1.1718750000e+000;3.8910256348e+003;3.7474357910e+003;3.7962819824e+003;3.8235898438e+003;3.7697436523e+003;3.8305129395e+003;3.8076923828e+003;3.7948718262e+003;3.7794870605e+003;3.7371794434e+003;3.7830769043e+003;3.7835898438e+003;3.7880769043e+003;3.8023076172e+003;
1.1796875000e+000;3.8866667480e+003;3.7392307129e+003;3.7892307129e+003;3.8137180176e+003;3.7594870605e+003;3.8161538086e+003;3.7983332520e+003;3.7879487305e+003;3.7769230957e+003;3.7305129395e+003;3.7776923828e+003;3.7792307129e+003;3.7808974609e+003;3.7957692871e+003;
1.1875000000e+000;3.8887180176e+003;3.7370512695e+003;3.7876923828e+003;3.8115385742e+003;3.7556411133e+003;3.8091025391e+003;3.7942307129e+003;3.7911538086e+003;3.7838461914e+003;3.7323076172e+003;3.7797436523e+003;3.7825642090e+003;3.7806411133e+003;3.7974357910e+003;
1.1953125000e+000;3.8165385742e+003;3.6601281738e+003;3.7053845215e+003;3.7414101563e+003;3.6748718262e+003;3.7315385742e+003;3.7132050781e+003;3.7392307129e+003;3.7264101563e+003;3.6662819824e+003;3.7103845215e+003;3.7091025391e+003;3.7139743652e+003;3.7291025391e+003;
1.2031250000e+000;3.8344870605e+003;3.6802563477e+003;3.7235898438e+003;3.7579487305e+003;3.6916667480e+003;3.7475642090e+003;3.7284614258e+003;3.7594870605e+003;3.7441025391e+003;3.6893588867e+003;3.7316667480e+003;3.7287180176e+003;3.7346154785e+003;3.7485898438e+003;
1.2109375000e+000;3.8079487305e+003;3.6485898438e+003;3.6960256348e+003;3.7338461914e+003;3.6632050781e+003;3.7212819824e+003;3.7033332520e+003;3.7258974609e+003;3.7096154785e+003;3.6576923828e+003;3.6980769043e+003;3.6984614258e+003;3.6967949219e+003;3.7170512695e+003;
1.2187500000e+000;3.7778205566e+003;3.6160256348e+003;3.6584614258e+003;3.7039743652e+003;3.6398718262e+003;3.7016667480e+003;3.6756411133e+003;3.6916667480e+003;3.6817949219e+003;3.6238461914e+003;3.6546154785e+003;3.6520512695e+003;3.6574357910e+003;3.6761538086e+003;
1.2265625000e+000;3.7326923828e+003;3.5702563477e+003;3.6121794434e+003;3.6601281738e+003;3.5932050781e+003;3.6656411133e+003;3.6350000000e+003;3.6466667480e+003;3.6357692871e+003;3.5771794434e+003;3.6056411133e+003;3.6046154785e+003;3.6094870605e+003;3.6273076172e+003;
1.2343750000e+000;3.7465385742e+003;3.5767949219e+003;3.6114101563e+003;3.6683332520e+003;3.6038461914e+003;3.6808974609e+003;3.6512819824e+003;3.6467949219e+003;3.6317949219e+003;3.5742307129e+003;3.6055129395e+003;3.6025642090e+003;3.6129487305e+003;3.6223076172e+003;
1.2421875000e+000;3.6720512695e+003;3.4916667480e+003;3.5320512695e+003;3.5906411133e+003;3.5223076172e+003;3.6042307129e+003;3.5650000000e+003;3.5507692871e+003;3.5320512695e+003;3.4793588867e+003;3.5187180176e+003;3.5184614258e+003;3.5271794434e+003;3.5351281738e+003;
1.2500000000e+000;3.6714101563e+003;3.4910256348e+003;3.5276923828e+003;3.5864101563e+003;3.5185898438e+003;3.6008974609e+003;3.5607692871e+003;3.5405129395e+003;3.5206411133e+003;3.4720512695e+003;3.5141025391e+003;3.5148718262e+003;3.5233332520e+003;3.5303845215e+003;
1.2578125000e+000;3.6942307129e+003;3.5137180176e+003;3.5465385742e+003;3.6043588867e+003;3.5380769043e+003;3.6191025391e+003;3.5801281738e+003;3.5567949219e+003;3.5366667480e+003;3.4932050781e+003;3.5351281738e+003;3.5371794434e+003;3.5448718262e+003;3.5520512695e+003;
1.2656250000e+000;3.6916667480e+003;3.5044870605e+003;3.5387180176e+003;3.5960256348e+003;3.5271794434e+003;3.6087180176e+003;3.5724357910e+003;3.5483332520e+003;3.5296154785e+003;3.4937180176e+003;3.5312819824e+003;3.5383332520e+003;3.5414101563e+003;3.5533332520e+003;
1.2734375000e+000;3.6747436523e+003;3.4838461914e+003;3.5191025391e+003;3.5776923828e+003;3.5071794434e+003;3.5875642090e+003;3.5519230957e+003;3.5282050781e+003;3.5119230957e+003;3.4760256348e+003;3.5138461914e+003;3.5212819824e+003;3.5239743652e+003;3.5375642090e+003;
1.2812500000e+000;3.6874357910e+003;3.4917949219e+003;3.5257692871e+003;3.5844870605e+003;3.5138461914e+003;3.5803845215e+003;3.5498718262e+003;3.5423076172e+003;3.5384614258e+003;3.4919230957e+003;3.5301281738e+003;3.5321794434e+003;3.5365385742e+003;3.5503845215e+003;
1.2890625000e+000;3.6566667480e+003;3.4555129395e+003;3.4937180176e+003;3.5523076172e+003;3.4761538086e+003;3.5435898438e+003;3.5160256348e+003;3.5138461914e+003;3.5103845215e+003;3.4583332520e+003;3.4961538086e+003;3.5000000000e+003;3.5017949219e+003;3.5162819824e+003;
1.2968750000e+000;3.6260256348e+003;3.4187180176e+003;3.4600000000e+003;3.5200000000e+003;3.4373076172e+003;3.5061538086e+003;3.4816667480e+003;3.4838461914e+003;3.4769230957e+003;3.4215385742e+003;3.4597436523e+003;3.4655129395e+003;3.4657692871e+003;3.4800000000e+003;
1.3046875000e+000;3.6211538086e+003;3.4105129395e+003;3.4510256348e+003;3.5130769043e+003;3.4262819824e+003;3.4938461914e+003;3.4715385742e+003;3.4800000000e+003;3.4678205566e+003;3.4129487305e+003;3.4503845215e+003;3.4564101563e+003;3.4573076172e+003;3.4705129395e+003;
1.3125000000e+000;3.5728205566e+003;3.3596154785e+003;3.3948718262e+003;3.4666667480e+003;3.3751281738e+003;3.4380769043e+003;3.4179487305e+003;3.4394870605e+003;3.4261538086e+003;3.3667949219e+003;3.3991025391e+003;3.4016667480e+003;3.4044870605e+003;3.4161538086e+003;
1.3203125000e+000;3.6126923828e+003;3.3882050781e+003;3.4248718262e+003;3.4970512695e+003;3.4062819824e+003;3.4734614258e+003;3.4515385742e+003;3.4685898438e+003;3.4548718262e+003;3.3976923828e+003;3.4238461914e+003;3.4285898438e+003;3.4339743652e+003;3.4411538086e+003;
1.3281250000e+000;3.5933332520e+003;3.3671794434e+003;3.4062819824e+003;3.4778205566e+003;3.3858974609e+003;3.4614101563e+003;3.4357692871e+003;3.4519230957e+003;3.4362819824e+003;3.3800000000e+003;3.4055129395e+003;3.4121794434e+003;3.4133332520e+003;3.4232050781e+003;
1.3359375000e+000;3.5619230957e+003;3.3256411133e+003;3.3646154785e+003;3.4405129395e+003;3.3567949219e+003;3.4417949219e+003;3.4097436523e+003;3.4091025391e+003;3.3970512695e+003;3.3350000000e+003;3.3698718262e+003;3.3732050781e+003;3.3729487305e+003;3.3889743652e+003;
1.3437500000e+000;3.5505129395e+003;3.3065385742e+003;3.3466667480e+003;3.4217949219e+003;3.3369230957e+003;3.4250000000e+003;3.3896154785e+003;3.3760256348e+003;3.3647436523e+003;3.3150000000e+003;3.3506411133e+003;3.3551281738e+003;3.3524357910e+003;3.3689743652e+003;
1.3515625000e+000;3.5584614258e+003;3.3128205566e+003;3.3520512695e+003;3.4262819824e+003;3.3416667480e+003;3.4283332520e+003;3.3960256348e+003;3.3765385742e+003;3.3665385742e+003;3.3207692871e+003;3.3561538086e+003;3.3594870605e+003;3.3593588867e+003;3.3752563477e+003;
1.3593750000e+000;3.5669230957e+003;3.3107692871e+003;3.3516667480e+003;3.4217949219e+003;3.3362819824e+003;3.4194870605e+003;3.3905129395e+003;3.3741025391e+003;3.3612819824e+003;3.3228205566e+003;3.3526923828e+003;3.3614101563e+003;3.3573076172e+003;3.3769230957e+003;
1.3671875000e+000;3.5575642090e+003;3.2975642090e+003;3.3402563477e+003;3.4097436523e+003;3.3219230957e+003;3.4050000000e+003;3.3770512695e+003;3.3587180176e+003;3.3438461914e+003;3.3057692871e+003;3.3373076172e+003;3.3493588867e+003;3.3412819824e+003;3.3619230957e+003;
1.3750000000e+000;3.6500000000e+003;3.3902563477e+003;3.4301281738e+003;3.4941025391e+003;3.4119230957e+003;3.4811538086e+003;3.4610256348e+003;3.4393588867e+003;3.4305129395e+003;3.3946154785e+003;3.4278205566e+003;3.4393588867e+003;3.4320512695e+003;3.4512819824e+003;
1.3828125000e+000;3.7010256348e+003;3.4428205566e+003;3.4819230957e+003;3.5416667480e+003;3.4626923828e+003;3.5248718262e+003;3.5071794434e+003;3.4902563477e+003;3.4867949219e+003;3.4523076172e+003;3.4819230957e+003;3.4929487305e+003;3.4865385742e+003;3.5065385742e+003;
1.3906250000e+000;3.6646154785e+003;3.4060256348e+003;3.4537180176e+003;3.5083332520e+003;3.4203845215e+003;3.4816667480e+003;3.4650000000e+003;3.4639743652e+003;3.4574357910e+003;3.4243588867e+003;3.4471794434e+003;3.4626923828e+003;3.4537180176e+003;3.4771794434e+003;
1.3984375000e+000;3.6625642090e+003;3.4053845215e+003;3.4537180176e+003;3.5079487305e+003;3.4182050781e+003;3.4775642090e+003;3.4615385742e+003;3.4674357910e+003;3.4562819824e+003;3.4235898438e+003;3.4470512695e+003;3.4648718262e+003;3.4535898438e+003;3.4748718262e+003;
1.4062500000e+000;3.6588461914e+003;3.4037180176e+003;3.4519230957e+003;3.5060256348e+003;3.4156411133e+003;3.4725642090e+003;3.4565385742e+003;3.4715385742e+003;3.4573076172e+003;3.4232050781e+003;3.4469230957e+003;3.4675642090e+003;3.4526923828e+003;3.4716667480e+003;
1.4140625000e+000;3.6385898438e+003;3.3852563477e+003;3.4320512695e+003;3.4878205566e+003;3.3966667480e+003;3.4524357910e+003;3.4357692871e+003;3.4579487305e+003;3.4432050781e+003;3.4047436523e+003;3.4291025391e+003;3.4512819824e+003;3.4335898438e+003;3.4514101563e+003;
1.4218750000e+000;3.7847436523e+003;3.5421794434e+003;3.5665385742e+003;3.6232050781e+003;3.5487180176e+003;3.5887180176e+003;3.5778205566e+003;3.5946154785e+003;3.5842307129e+003;3.5458974609e+003;3.5687180176e+003;3.5737180176e+003;3.5678205566e+003;3.5839743652e+003;
1.4296875000e+000;3.9428205566e+003;3.7173076172e+003;3.7432050781e+003;3.7871794434e+003;3.7365385742e+003;3.7766667480e+003;3.7617949219e+003;3.7705129395e+003;3.7611538086e+003;3.7337180176e+003;3.7353845215e+003;3.7408974609e+003;3.7382050781e+003;3.7537180176e+003;
1.4375000000e+000;4.0106411133e+003;3.7914101563e+003;3.8143588867e+003;3.8547436523e+003;3.8146154785e+003;3.8534614258e+003;3.8392307129e+003;3.8450000000e+003;3.8367949219e+003;3.8108974609e+003;3.8092307129e+003;3.8142307129e+003;3.8128205566e+003;3.8279487305e+003;
1.4453125000e+000;4.1682050781e+003;3.9603845215e+003;3.9760256348e+003;4.0102563477e+003;3.9888461914e+003;4.0248718262e+003;4.0130769043e+003;4.0062819824e+003;3.9989743652e+003;3.9847436523e+003;3.9797436523e+003;3.9829487305e+003;3.9850000000e+003;3.9947436523e+003;
1.4531250000e+000;4.2682050781e+003;4.0692307129e+003;4.0788461914e+003;4.1098715820e+003;4.0982050781e+003;4.1266665039e+003;4.1174360352e+003;4.1047436523e+003;4.0985898438e+003;4.0946154785e+003;4.0873076172e+003;4.0855129395e+003;4.0929487305e+003;4.0980771484e+003;
1.4609375000e+000;4.3757690430e+003;4.2155126953e+003;4.2143588867e+003;4.2337177734e+003;4.2346152344e+003;4.2423076172e+003;4.2352563477e+003;4.2352563477e+003;4.2293588867e+003;4.2471796875e+003;4.2285898438e+003;4.2139741211e+003;4.2270512695e+003;4.2307690430e+003;
1.4687500000e+000;4.1433334961e+003;3.9942307129e+003;4.0016667480e+003;4.0223076172e+003;4.0096154785e+003;4.0335898438e+003;4.0179487305e+003;4.0088461914e+003;3.9987180176e+003;4.0067949219e+003;4.0062819824e+003;4.0055129395e+003;4.0084614258e+003;4.0156411133e+003;
1.4765625000e+000;4.1153847656e+003;3.9680769043e+003;3.9752563477e+003;3.9960256348e+003;3.9816667480e+003;4.0074357910e+003;3.9896154785e+003;3.9811538086e+003;3.9725642090e+003;3.9812819824e+003;3.9807692871e+003;3.9808974609e+003;3.9838461914e+003;3.9906411133e+003;
1.4843750000e+000;4.0797436523e+003;3.9343588867e+003;3.9420512695e+003;3.9629487305e+003;3.9455129395e+003;3.9726923828e+003;3.9535898438e+003;3.9489743652e+003;3.9421794434e+003;3.9512819824e+003;3.9482050781e+003;3.9479487305e+003;3.9494870605e+003;3.9573076172e+003;
1.4921875000e+000;4.0123076172e+003;3.8647436523e+003;3.8773076172e+003;3.8988461914e+003;3.8723076172e+003;3.8969230957e+003;3.8821794434e+003;3.8816667480e+003;3.8775642090e+003;3.8774357910e+003;3.8775642090e+003;3.8789743652e+003;3.8748718262e+003;3.8848718262e+003;
1.5000000000e+000;4.0648718262e+003;3.9171794434e+003;3.9338461914e+003;3.9489743652e+003;3.9150000000e+003;3.9242307129e+003;3.9212819824e+003;3.9324357910e+003;3.9256411133e+003;3.9205129395e+003;3.9261538086e+003;3.9326923828e+003;3.9289743652e+003;3.9394870605e+003;
1.5078125000e+000;4.0383332520e+003;3.8925642090e+003;3.9105129395e+003;3.9256411133e+003;3.8889743652e+003;3.8980769043e+003;3.8956411133e+003;3.9103845215e+003;3.9008974609e+003;3.8967949219e+003;3.9008974609e+003;3.9087180176e+003;3.9038461914e+003;3.9171794434e+003;
1.5156250000e+000;4.0732050781e+003;3.9300000000e+003;3.9384614258e+003;3.9588461914e+003;3.9265385742e+003;3.9252563477e+003;3.9214101563e+003;3.9441025391e+003;3.9361538086e+003;3.9283332520e+003;3.9300000000e+003;3.9352563477e+003;3.9346154785e+003;3.9458974609e+003;
1.5234375000e+000;4.1016665039e+003;3.9608974609e+003;3.9676923828e+003;3.9871794434e+003;3.9564101563e+003;3.9539743652e+003;3.9471794434e+003;3.9752563477e+003;3.9698718262e+003;3.9617949219e+003;3.9612819824e+003;3.9657692871e+003;3.9665385742e+003;3.9756411133e+003;
1.5312500000e+000;4.0948718262e+003;3.9580769043e+003;3.9657692871e+003;3.9833332520e+003;3.9533332520e+003;3.9535898438e+003;3.9435898438e+003;3.9730769043e+003;3.9696154785e+003;3.9617949219e+003;3.9593588867e+003;3.9635898438e+003;3.9646154785e+003;3.9728205566e+003;
1.5390625000e+000;4.0696154785e+003;3.9384614258e+003;3.9462819824e+003;3.9628205566e+003;3.9342307129e+003;3.9375642090e+003;3.9255129395e+003;3.9515385742e+003;3.9493588867e+003;3.9424357910e+003;3.9388461914e+003;3.9421794434e+003;3.9435898438e+003;3.9511538086e+003;
1.5468750000e+000;4.0107692871e+003;3.8878205566e+003;3.8883332520e+003;3.9152563477e+003;3.8928205566e+003;3.9097436523e+003;3.8916667480e+003;3.8885898438e+003;3.8903845215e+003;3.8856411133e+003;3.8821794434e+003;3.8792307129e+003;3.8815385742e+003;3.8885898438e+003;
1.5546875000e+000;3.9983332520e+003;3.8748718262e+003;3.8738461914e+003;3.9042307129e+003;3.8826923828e+003;3.9047436523e+003;3.8860256348e+003;3.8725642090e+003;3.8742307129e+003;3.8682050781e+003;3.8669230957e+003;3.8620512695e+003;3.8678205566e+003;3.8744870605e+003;
1.5625000000e+000;3.9969230957e+003;3.8852563477e+003;3.8738461914e+003;3.9105129395e+003;3.8934614258e+003;3.9207692871e+003;3.8952563477e+003;3.8773076172e+003;3.8757692871e+003;3.8752563477e+003;3.8707692871e+003;3.8642307129e+003;3.8793588867e+003;3.8843588867e+003;
1.5703125000e+000;3.9087180176e+003;3.7952563477e+003;3.7867949219e+003;3.8250000000e+003;3.8008974609e+003;3.8384614258e+003;3.8121794434e+003;3.7820512695e+003;3.7783332520e+003;3.7732050781e+003;3.7778205566e+003;3.7750000000e+003;3.7805129395e+003;3.7902563477e+003;
1.5781250000e+000;3.9543588867e+003;3.8387180176e+003;3.8325642090e+003;3.8661538086e+003;3.8451281738e+003;3.8769230957e+003;3.8541025391e+003;3.8237180176e+003;3.8215385742e+003;3.8158974609e+003;3.8226923828e+003;3.8187180176e+003;3.8247436523e+003;3.8335898438e+003;
1.5859375000e+000;3.9712819824e+003;3.8521794434e+003;3.8617949219e+003;3.8820512695e+003;3.8580769043e+003;3.8816667480e+003;3.8619230957e+003;3.8458974609e+003;3.8480769043e+003;3.8467949219e+003;3.8458974609e+003;3.8508974609e+003;3.8556411133e+003;3.8639743652e+003;
1.5937500000e+000;3.9333332520e+003;3.8142307129e+003;3.8285898438e+003;3.8444870605e+003;3.8178205566e+003;3.8312819824e+003;3.8188461914e+003;3.8188461914e+003;3.8269230957e+003;3.8235898438e+003;3.8212819824e+003;3.8248718262e+003;3.8224357910e+003;3.8329487305e+003;
1.6015625000e+000;3.9088461914e+003;3.7846154785e+003;3.8042307129e+003;3.8191025391e+003;3.7887180176e+003;3.8032050781e+003;3.7912819824e+003;3.7969230957e+003;3.8058974609e+003;3.7973076172e+003;3.7946154785e+003;3.8021794434e+003;3.7952563477e+003;3.8062819824e+003;
1.6093750000e+000;3.8856411133e+003;3.7546154785e+003;3.7782050781e+003;3.7928205566e+003;3.7584614258e+003;3.7747436523e+003;3.7638461914e+003;3.7726923828e+003;3.7814101563e+003;3.7669230957e+003;3.7637180176e+003;3.7760256348e+003;3.7675642090e+003;3.7767949219e+003;
1.6171875000e+000;3.8955129395e+003;3.7579487305e+003;3.7766667480e+003;3.7923076172e+003;3.7570512695e+003;3.7705129395e+003;3.7625642090e+003;3.7791025391e+003;3.7862819824e+003;3.7655129395e+003;3.7600000000e+003;3.7739743652e+003;3.7683332520e+003;3.7723076172e+003;
1.6250000000e+000;3.8535898438e+003;3.7175642090e+003;3.7273076172e+003;3.7537180176e+003;3.7210256348e+003;3.7338461914e+003;3.7233332520e+003;3.7421794434e+003;3.7456411133e+003;3.7212819824e+003;3.7179487305e+003;3.7301281738e+003;3.7215385742e+003;3.7267949219e+003;
1.6328125000e+000;3.8580769043e+003;3.7224357910e+003;3.7278205566e+003;3.7597436523e+003;3.7315385742e+003;3.7432050781e+003;3.7319230957e+003;3.7456411133e+003;3.7488461914e+003;3.7244870605e+003;3.7214101563e+003;3.7330769043e+003;3.7282050781e+003;3.7285898438e+003;
1.6406250000e+000;3.8766667480e+003;3.7414101563e+003;3.7398718262e+003;3.7802563477e+003;3.7615385742e+003;3.7791025391e+003;3.7579487305e+003;3.7671794434e+003;3.7712819824e+003;3.7530769043e+003;3.7457692871e+003;3.7505129395e+003;3.7541025391e+003;3.7456411133e+003;
1.6484375000e+000;3.8496154785e+003;3.7144870605e+003;3.7143588867e+003;3.7542307129e+003;3.7350000000e+003;3.7593588867e+003;3.7332050781e+003;3.7362819824e+003;3.7417949219e+003;3.7214101563e+003;3.7178205566e+003;3.7220512695e+003;3.7244870605e+003;3.7178205566e+003;
1.6562500000e+000;3.8444870605e+003;3.7110256348e+003;3.7100000000e+003;3.7480769043e+003;3.7303845215e+003;3.7579487305e+003;3.7285898438e+003;3.7239743652e+003;3.7314101563e+003;3.7084614258e+003;3.7088461914e+003;3.7130769043e+003;3.7155129395e+003;3.7105129395e+003;
1.6640625000e+000;3.8600000000e+003;3.7292307129e+003;3.7251281738e+003;3.7614101563e+003;3.7464101563e+003;3.7738461914e+003;3.7430769043e+003;3.7329487305e+003;3.7415385742e+003;3.7187180176e+003;3.7203845215e+003;3.7246154785e+003;3.7282050781e+003;3.7241025391e+003;
1.6718750000e+000;3.7610256348e+003;3.6188461914e+003;3.6214101563e+003;3.6656411133e+003;3.6415385742e+003;3.6806411133e+003;3.6474357910e+003;3.6158974609e+003;3.6155129395e+003;3.6008974609e+003;3.6097436523e+003;3.6175642090e+003;3.6176923828e+003;3.6224357910e+003;
1.6796875000e+000;3.7721794434e+003;3.6276923828e+003;3.6305129395e+003;3.6743588867e+003;3.6508974609e+003;3.6897436523e+003;3.6551281738e+003;3.6210256348e+003;3.6203845215e+003;3.6064101563e+003;3.6189743652e+003;3.6291025391e+003;3.6279487305e+003;3.6334614258e+003;
1.6875000000e+000;3.7458974609e+003;3.5973076172e+003;3.6048718262e+003;3.6451281738e+003;3.6161538086e+003;3.6544870605e+003;3.6235898438e+003;3.5941025391e+003;3.5932050781e+003;3.5828205566e+003;3.5912819824e+003;3.6108974609e+003;3.6014101563e+003;3.6074357910e+003;
1.6953125000e+000;3.7307692871e+003;3.5769230957e+003;3.5837180176e+003;3.6256411133e+003;3.5911538086e+003;3.6221794434e+003;3.6034614258e+003;3.5812819824e+003;3.5912819824e+003;3.5714101563e+003;3.5830769043e+003;3.5978205566e+003;3.5834614258e+003;3.5947436523e+003;
1.7031250000e+000;3.7146154785e+003;3.5596154785e+003;3.5682050781e+003;3.6088461914e+003;3.5708974609e+003;3.6023076172e+003;3.5829487305e+003;3.5693588867e+003;3.5828205566e+003;3.5589743652e+003;3.5706411133e+003;3.5838461914e+003;3.5691025391e+003;3.5798718262e+003;
1.7109375000e+000;3.7587180176e+003;3.5937180176e+003;3.6029487305e+003;3.6426923828e+003;3.5996154785e+003;3.6188461914e+003;3.6085898438e+003;3.6102563477e+003;3.6171794434e+003;3.5951281738e+003;3.6000000000e+003;3.6117949219e+003;3.6025642090e+003;3.6120512695e+003;
1.7187500000e+000;3.7875642090e+003;3.6210256348e+003;3.6329487305e+003;3.6693588867e+003;3.6244870605e+003;3.6434614258e+003;3.6344870605e+003;3.6489743652e+003;3.6530769043e+003;3.6348718262e+003;3.6335898438e+003;3.6489743652e+003;3.6362819824e+003;3.6475642090e+003;
1.7265625000e+000;3.7597436523e+003;3.5950000000e+003;3.6062819824e+003;3.6428205566e+003;3.5996154785e+003;3.6214101563e+003;3.6101281738e+003;3.6233332520e+003;3.6273076172e+003;3.6074357910e+003;3.6093588867e+003;3.6219230957e+003;3.6124357910e+003;3.6180769043e+003;
1.7343750000e+000;3.7408974609e+003;3.5773076172e+003;3.5864101563e+003;3.6258974609e+003;3.5878205566e+003;3.6129487305e+003;3.5935898438e+003;3.6082050781e+003;3.6088461914e+003;3.5873076172e+003;3.5879487305e+003;3.5987180176e+003;3.5952563477e+003;3.5907692871e+003;
1.7421875000e+000;3.6962819824e+003;3.5307692871e+003;3.5425642090e+003;3.5852563477e+003;3.5439743652e+003;3.5765385742e+003;3.5528205566e+003;3.5615385742e+003;3.5629487305e+003;3.5384614258e+003;3.5388461914e+003;3.5541025391e+003;3.5453845215e+003;3.5467949219e+003;
1.7500000000e+000;3.6696154785e+003;3.5034614258e+003;3.5121794434e+003;3.5598718262e+003;3.5224357910e+003;3.5608974609e+003;3.5339743652e+003;3.5183332520e+003;3.5243588867e+003;3.4969230957e+003;3.5057692871e+003;3.5188461914e+003;3.5094870605e+003;3.5182050781e+003;
1.7578125000e+000;3.7089743652e+003;3.5457692871e+003;3.5489743652e+003;3.5970512695e+003;3.5662819824e+003;3.6007692871e+003;3.5741025391e+003;3.5508974609e+003;3.5570512695e+003;3.5323076172e+003;3.5448718262e+003;3.5535898438e+003;3.5483332520e+003;3.5550000000e+003;
1.7656250000e+000;3.7515385742e+003;3.5917949219e+003;3.5903845215e+003;3.6383332520e+003;3.6123076172e+003;3.6429487305e+003;3.6162819824e+003;3.5897436523e+003;3.5935898438e+003;3.5725642090e+003;3.5869230957e+003;3.5941025391e+003;3.5915385742e+003;3.5950000000e+003;
1.7734375000e+000;3.8201281738e+003;3.6652563477e+003;3.6597436523e+003;3.7080769043e+003;3.6820512695e+003;3.7088461914e+003;3.6830769043e+003;3.6505129395e+003;3.6497436523e+003;3.6357692871e+003;3.6523076172e+003;3.6624357910e+003;3.6605129395e+003;3.6603845215e+003;
1.7812500000e+000;3.8676923828e+003;3.7153845215e+003;3.7089743652e+003;3.7550000000e+003;3.7297436523e+003;3.7528205566e+003;3.7284614258e+003;3.6929487305e+003;3.6939743652e+003;3.6835898438e+003;3.7010256348e+003;3.7105129395e+003;3.7084614258e+003;3.7092307129e+003;
1.7890625000e+000;3.9112819824e+003;3.7615385742e+003;3.7556411133e+003;3.7970512695e+003;3.7743588867e+003;3.7932050781e+003;3.7694870605e+003;3.7332050781e+003;3.7380769043e+003;3.7316667480e+003;3.7488461914e+003;3.7560256348e+003;3.7530769043e+003;3.7561538086e+003;
1.7968750000e+000;3.9498718262e+003;3.8020512695e+003;3.8023076172e+003;3.8330769043e+003;3.8156411133e+003;3.8306411133e+003;3.8111538086e+003;3.7911538086e+003;3.8042307129e+003;3.8038461914e+003;3.8110256348e+003;3.8162819824e+003;3.8153845215e+003;3.8141025391e+003;
1.8046875000e+000;3.9460256348e+003;3.7973076172e+003;3.8000000000e+003;3.8307692871e+003;3.8078205566e+003;3.8260256348e+003;3.8089743652e+003;3.8003845215e+003;3.8146154785e+003;3.8100000000e+003;3.8147436523e+003;3.8188461914e+003;3.8142307129e+003;3.8146154785e+003;
1.8125000000e+000;3.9024357910e+003;3.7425642090e+003;3.7529487305e+003;3.7761538086e+003;3.7488461914e+003;3.7661538086e+003;3.7615385742e+003;3.7712819824e+003;3.7819230957e+003;3.7597436523e+003;3.7626923828e+003;3.7617949219e+003;3.7544870605e+003;3.7587180176e+003;
1.8203125000e+000;3.8956411133e+003;3.7265385742e+003;3.7388461914e+003;3.7635898438e+003;3.7356411133e+003;3.7547436523e+003;3.7484614258e+003;3.7669230957e+003;3.7760256348e+003;3.7478205566e+003;3.7455129395e+003;3.7519230957e+003;3.7446154785e+003;3.7476923828e+003;
1.8281250000e+000;3.8807692871e+003;3.7091025391e+003;3.7217949219e+003;3.7480769043e+003;3.7196154785e+003;3.7400000000e+003;3.7339743652e+003;3.7458974609e+003;3.7564101563e+003;3.7261538086e+003;3.7274357910e+003;3.7332050781e+003;3.7257692871e+003;3.7292307129e+003;
1.8359375000e+000;3.9874357910e+003;3.8234614258e+003;3.8238461914e+003;3.8494870605e+003;3.8343588867e+003;3.8419230957e+003;3.8401281738e+003;3.8498718262e+003;3.8596154785e+003;3.8364101563e+003;3.8360256348e+003;3.8300000000e+003;3.8302563477e+003;3.8350000000e+003;
1.8437500000e+000;3.9865385742e+003;3.8256411133e+003;3.8235898438e+003;3.8520512695e+003;3.8365385742e+003;3.8488461914e+003;3.8419230957e+003;3.8541025391e+003;3.8621794434e+003;3.8417949219e+003;3.8375642090e+003;3.8330769043e+003;3.8328205566e+003;3.8380769043e+003;
1.8515625000e+000;3.9779487305e+003;3.8189743652e+003;3.8133332520e+003;3.8465385742e+003;3.8305129395e+003;3.8529487305e+003;3.8355129395e+003;3.8388461914e+003;3.8480769043e+003;3.8317949219e+003;3.8261538086e+003;3.8243588867e+003;3.8262819824e+003;3.8305129395e+003;
1.8593750000e+000;4.0025642090e+003;3.8441025391e+003;3.8367949219e+003;3.8685898438e+003;3.8557692871e+003;3.8766667480e+003;3.8582050781e+003;3.8564101563e+003;3.8670512695e+003;3.8542307129e+003;3.8497436523e+003;3.8461538086e+003;3.8506411133e+003;3.8553845215e+003;
1.8671875000e+000;3.9852563477e+003;3.8314101563e+003;3.8279487305e+003;3.8567949219e+003;3.8451281738e+003;3.8652563477e+003;3.8480769043e+003;3.8341025391e+003;3.8385898438e+003;3.8337180176e+003;3.8369230957e+003;3.8347436523e+003;3.8373076172e+003;3.8464101563e+003;
1.8750000000e+000;3.9856411133e+003;3.8348718262e+003;3.8307692871e+003;3.8601281738e+003;3.8487180176e+003;3.8684614258e+003;3.8502563477e+003;3.8308974609e+003;3.8342307129e+003;3.8307692871e+003;3.8376923828e+003;3.8374357910e+003;3.8396154785e+003;3.8470512695e+003;
1.8828125000e+000;4.0057692871e+003;3.8575642090e+003;3.8514101563e+003;3.8794870605e+003;3.8702563477e+003;3.8876923828e+003;3.8684614258e+003;3.8461538086e+003;3.8502563477e+003;3.8498718262e+003;3.8583332520e+003;3.8594870605e+003;3.8614101563e+003;3.8669230957e+003;
1.8906250000e+000;4.0164101563e+003;3.8684614258e+003;3.8617949219e+003;3.8869230957e+003;3.8797436523e+003;3.8957692871e+003;3.8761538086e+003;3.8532050781e+003;3.8576923828e+003;3.8617949219e+003;3.8693588867e+003;3.8725642090e+003;3.8732050781e+003;3.8780769043e+003;
1.8984375000e+000;3.9876923828e+003;3.8387180176e+003;3.8283332520e+003;3.8552563477e+003;3.8492307129e+003;3.8591025391e+003;3.8428205566e+003;3.8103845215e+003;3.8044870605e+003;3.8220512695e+003;3.8357692871e+003;3.8412819824e+003;3.8389743652e+003;3.8456411133e+003;
1.9062500000e+000;4.0020512695e+003;3.8407692871e+003;3.8541025391e+003;3.8620512695e+003;3.8447436523e+003;3.8551281738e+003;3.8528205566e+003;3.8470512695e+003;3.8523076172e+003;3.8475642090e+003;3.8484614258e+003;3.8611538086e+003;3.8484614258e+003;3.8578205566e+003;
1.9140625000e+000;4.0507692871e+003;3.8915385742e+003;3.9032050781e+003;3.9087180176e+003;3.8935898438e+003;3.9002563477e+003;3.9037180176e+003;3.9087180176e+003;3.9147436523e+003;3.9064101563e+003;3.9030769043e+003;3.9126923828e+003;3.9020512695e+003;3.9080769043e+003;
1.9218750000e+000;4.1308974609e+003;3.9885898438e+003;3.9882050781e+003;3.9944870605e+003;3.9844870605e+003;3.9835898438e+003;3.9893588867e+003;4.0085898438e+003;4.0158974609e+003;4.0074357910e+003;4.0005129395e+003;4.0035898438e+003;3.9938461914e+003;3.9965385742e+003;
1.9296875000e+000;4.1614101563e+003;4.0407692871e+003;4.0266667480e+003;4.0346154785e+003;4.0374357910e+003;4.0297436523e+003;4.0325642090e+003;4.0476923828e+003;4.0524357910e+003;4.0537180176e+003;4.0374357910e+003;4.0412819824e+003;4.0382050781e+003;4.0396154785e+003;
1.9375000000e+000;4.1316665039e+003;4.0146154785e+003;4.0020512695e+003;4.0117949219e+003;4.0129487305e+003;4.0098718262e+003;4.0073076172e+003;4.0239743652e+003;4.0273076172e+003;4.0301281738e+003;4.0117949219e+003;4.0165385742e+003;4.0143588867e+003;4.0137180176e+003;
1.9453125000e+000;4.0814101563e+003;3.9741025391e+003;3.9582050781e+003;3.9741025391e+003;3.9721794434e+003;3.9735898438e+003;3.9651281738e+003;3.9708974609e+003;3.9757692871e+003;3.9773076172e+003;3.9653845215e+003;3.9651281738e+003;3.9653845215e+003;3.9619230957e+003;
1.9531250000e+000;4.0943588867e+003;3.9925642090e+003;3.9711538086e+003;3.9882050781e+003;3.9889743652e+003;3.9874357910e+003;3.9794870605e+003;3.9796154785e+003;3.9867949219e+003;3.9892307129e+003;3.9789743652e+003;3.9744870605e+003;3.9776923828e+003;3.9735898438e+003;
1.9609375000e+000;4.0344870605e+003;3.9347436523e+003;3.9164101563e+003;3.9353845215e+003;3.9348718262e+003;3.9414101563e+003;3.9274357910e+003;3.9203845215e+003;3.9306411133e+003;3.9351281738e+003;3.9191025391e+003;3.9208974609e+003;3.9211538086e+003;3.9243588867e+003;
1.9687500000e+000;4.0125642090e+003;3.9103845215e+003;3.8961538086e+003;3.9153845215e+003;3.9134614258e+003;3.9223076172e+003;3.9061538086e+003;3.8938461914e+003;3.9033332520e+003;3.9087180176e+003;3.8957692871e+003;3.9005129395e+003;3.8978205566e+003;3.9037180176e+003;
1.9765625000e+000;4.0319230957e+003;3.9298718262e+003;3.9170512695e+003;3.9329487305e+003;3.9315385742e+003;3.9350000000e+003;3.9173076172e+003;3.9010256348e+003;3.9061538086e+003;3.9214101563e+003;3.9160256348e+003;3.9202563477e+003;3.9147436523e+003;3.9230769043e+003;
1.9843750000e+000;4.0073076172e+003;3.9053845215e+003;3.8929487305e+003;3.9084614258e+003;3.9048718262e+003;3.9088461914e+003;3.8894870605e+003;3.8720512695e+003;3.8739743652e+003;3.8941025391e+003;3.8907692871e+003;3.8951281738e+003;3.8889743652e+003;3.8987180176e+003;
1.9921875000e+000;3.8797436523e+003;3.7732050781e+003;3.7632050781e+003;3.7834614258e+003;3.7739743652e+003;3.7867949219e+003;3.7664101563e+003;3.7339743652e+003;3.7307692871e+003;3.7485898438e+003;3.7524357910e+003;3.7608974609e+003;3.7569230957e+003;3.7674357910e+003;
2.0000000000e+000;3.8737180176e+003;3.7669230957e+003;3.7585898438e+003;3.7783332520e+003;3.7674357910e+003;3.7812819824e+003;3.7617949219e+003;3.7308974609e+003;3.7275642090e+003;3.7444870605e+003;3.7492307129e+003;3.7593588867e+003;3.7523076172e+003;3.7621794434e+003;
2.0078125000e+000;3.8556411133e+003;3.7483332520e+003;3.7433332520e+003;3.7633332520e+003;3.7476923828e+003;3.7638461914e+003;3.7448718262e+003;3.7193588867e+003;3.7147436523e+003;3.7315385742e+003;3.7365385742e+003;3.7493588867e+003;3.7364101563e+003;3.7461538086e+003;
2.0156250000e+000;3.8253845215e+003;3.7165385742e+003;3.7150000000e+003;3.7366667480e+003;3.7143588867e+003;3.7332050781e+003;3.7156411133e+003;3.6957692871e+003;3.6894870605e+003;3.7044870605e+003;3.7094870605e+003;3.7255129395e+003;3.7074357910e+003;3.7174357910e+003;
2.0234375000e+000;3.8310256348e+003;3.7091025391e+003;3.7206411133e+003;3.7369230957e+003;3.7078205566e+003;3.7255129395e+003;3.7185898438e+003;3.7294870605e+003;3.7323076172e+003;3.7216667480e+003;3.7173076172e+003;3.7376923828e+003;3.7151281738e+003;3.7297436523e+003;
2.0312500000e+000;3.7923076172e+003;3.6673076172e+003;3.6842307129e+003;3.6997436523e+003;3.6706411133e+003;3.6925642090e+003;3.6857692871e+003;3.7023076172e+003;3.7052563477e+003;3.6898718262e+003;3.6839743652e+003;3.7046154785e+003;3.6784614258e+003;3.6943588867e+003;
2.0390625000e+000;3.7779487305e+003;3.6617949219e+003;3.6634614258e+003;3.6920512695e+003;3.6706411133e+003;3.6875642090e+003;3.6825642090e+003;3.6946154785e+003;3.6983332520e+003;3.6815385742e+003;3.6748718262e+003;3.6869230957e+003;3.6671794434e+003;3.6773076172e+003;
2.0468750000e+000;3.7802563477e+003;3.6582050781e+003;3.6544870605e+003;3.6889743652e+003;3.6675642090e+003;3.6887180176e+003;3.6746154785e+003;3.6757692871e+003;3.6866667480e+003;3.6711538086e+003;3.6566667480e+003;3.6648718262e+003;3.6511538086e+003;3.6634614258e+003;
2.0546875000e+000;3.7775642090e+003;3.6544870605e+003;3.6485898438e+003;3.6862819824e+003;3.6638461914e+003;3.6861538086e+003;3.6702563477e+003;3.6667949219e+003;3.6780769043e+003;3.6658974609e+003;3.6507692871e+003;3.6574357910e+003;3.6466667480e+003;3.6578205566e+003;
2.0625000000e+000;3.7493588867e+003;3.6358974609e+003;3.6206411133e+003;3.6685898438e+003;3.6407692871e+003;3.6642307129e+003;3.6406411133e+003;3.6311538086e+003;3.6426923828e+003;3.6414101563e+003;3.6217949219e+003;3.6274357910e+003;3.6233332520e+003;3.6298718262e+003;
2.0703125000e+000;3.8093588867e+003;3.6902563477e+003;3.6780769043e+003;3.7178205566e+003;3.7044870605e+003;3.7188461914e+003;3.6928205566e+003;3.6761538086e+003;3.6905129395e+003;3.6947436523e+003;3.6812819824e+003;3.6835898438e+003;3.6824357910e+003;3.6892307129e+003;
2.0781250000e+000;3.8151281738e+003;3.6942307129e+003;3.6871794434e+003;3.7232050781e+003;3.7107692871e+003;3.7257692871e+003;3.6996154785e+003;3.6829487305e+003;3.6941025391e+003;3.7025642090e+003;3.6896154785e+003;3.6947436523e+003;3.6906411133e+003;3.7000000000e+003;
2.0859375000e+000;3.7903845215e+003;3.6701281738e+003;3.6673076172e+003;3.7019230957e+003;3.6852563477e+003;3.7053845215e+003;3.6791025391e+003;3.6587180176e+003;3.6647436523e+003;3.6769230957e+003;3.6652563477e+003;3.6743588867e+003;3.6675642090e+003;3.6787180176e+003;
2.0937500000e+000;3.7847436523e+003;3.6710256348e+003;3.6652563477e+003;3.6989743652e+003;3.6765385742e+003;3.7017949219e+003;3.6775642090e+003;3.6478205566e+003;3.6452563477e+003;3.6637180176e+003;3.6553845215e+003;3.6647436523e+003;3.6630769043e+003;3.6707692871e+003;
2.1015625000e+000;3.7978205566e+003;3.6797436523e+003;3.6778205566e+003;3.7064101563e+003;3.6867949219e+003;3.7102563477e+003;3.6906411133e+003;3.6737180176e+003;3.6720512695e+003;3.6857692871e+003;3.6730769043e+003;3.6853845215e+003;3.6792307129e+003;3.6888461914e+003;
2.1093750000e+000;3.7511538086e+003;3.6291025391e+003;3.6319230957e+003;3.6615385742e+003;3.6388461914e+003;3.6650000000e+003;3.6485898438e+003;3.6301281738e+003;3.6307692871e+003;3.6357692871e+003;3.6260256348e+003;3.6437180176e+003;3.6307692871e+003;3.6435898438e+003;
2.1171875000e+000;3.7284614258e+003;3.6085898438e+003;3.6110256348e+003;3.6434614258e+003;3.6142307129e+003;3.6380769043e+003;3.6291025391e+003;3.6221794434e+003;3.6225642090e+003;3.6133332520e+003;3.6058974609e+003;3.6284614258e+003;3.6080769043e+003;3.6208974609e+003;
2.1250000000e+000;3.7171794434e+003;3.5985898438e+003;3.6011538086e+003;3.6343588867e+003;3.6020512695e+003;3.6271794434e+003;3.6202563477e+003;3.6202563477e+003;3.6187180176e+003;3.6074357910e+003;3.5974357910e+003;3.6203845215e+003;3.5970512695e+003;3.6110256348e+003;
2.1328125000e+000;3.7069230957e+003;3.5883332520e+003;3.5911538086e+003;3.6253845215e+003;3.5921794434e+003;3.6179487305e+003;3.6141025391e+003;3.6162819824e+003;3.6150000000e+003;3.6005129395e+003;3.5883332520e+003;3.6115385742e+003;3.5861538086e+003;3.6011538086e+003;
2.1406250000e+000;3.7155129395e+003;3.5969230957e+003;3.5992307129e+003;3.6338461914e+003;3.6035898438e+003;3.6276923828e+003;3.6262819824e+003;3.6283332520e+003;3.6296154785e+003;3.6124357910e+003;3.5979487305e+003;3.6197436523e+003;3.5951281738e+003;3.6094870605e+003;
2.1484375000e+000;3.6393588867e+003;3.5214101563e+003;3.5264101563e+003;3.5628205566e+003;3.5374357910e+003;3.5701281738e+003;3.5551281738e+003;3.5541025391e+003;3.5653845215e+003;3.5471794434e+003;3.5216667480e+003;3.5398718262e+003;3.5205129395e+003;3.5276923828e+003;
2.1562500000e+000;3.6314101563e+003;3.5134614258e+003;3.5133332520e+003;3.5551281738e+003;3.5265385742e+003;3.5594870605e+003;3.5438461914e+003;3.5378205566e+003;3.5507692871e+003;3.5337180176e+003;3.5060256348e+003;3.5256411133e+003;3.5080769043e+003;3.5152563477e+003;
2.1640625000e+000;3.6474357910e+003;3.5300000000e+003;3.5242307129e+003;3.5711538086e+003;3.5343588867e+003;3.5669230957e+003;3.5452563477e+003;3.5383332520e+003;3.5594870605e+003;3.5505129395e+003;3.5216667480e+003;3.5403845215e+003;3.5269230957e+003;3.5342307129e+003;
2.1718750000e+000;3.6191025391e+003;3.4970512695e+003;3.4916667480e+003;3.5361538086e+003;3.5043588867e+003;3.5338461914e+003;3.5119230957e+003;3.4862819824e+003;3.5057692871e+003;3.5024357910e+003;3.4878205566e+003;3.5030769043e+003;3.4973076172e+003;3.5042307129e+003;
2.1796875000e+000;3.6510256348e+003;3.5302563477e+003;3.5205129395e+003;3.5648718262e+003;3.5361538086e+003;3.5621794434e+003;3.5397436523e+003;3.5141025391e+003;3.5317949219e+003;3.5341025391e+003;3.5170512695e+003;3.5338461914e+003;3.5291025391e+003;3.5378205566e+003;
2.1875000000e+000;3.6644870605e+003;3.5483332520e+003;3.5339743652e+003;3.5838461914e+003;3.5515385742e+003;3.5796154785e+003;3.5514101563e+003;3.5247436523e+003;3.5335898438e+003;3.5461538086e+003;3.5306411133e+003;3.5474357910e+003;3.5416667480e+003;3.5519230957e+003;
2.1953125000e+000;3.7074357910e+003;3.5955129395e+003;3.5796154785e+003;3.6261538086e+003;3.5980769043e+003;3.6158974609e+003;3.5964101563e+003;3.5679487305e+003;3.5741025391e+003;3.5906411133e+003;3.5782050781e+003;3.5941025391e+003;3.5908974609e+003;3.5950000000e+003;
2.2031250000e+000;3.6953845215e+003;3.5828205566e+003;3.5685898438e+003;3.6126923828e+003;3.5855129395e+003;3.6030769043e+003;3.5850000000e+003;3.5569230957e+003;3.5628205566e+003;3.5801281738e+003;3.5685898438e+003;3.5852563477e+003;3.5810256348e+003;3.5866667480e+003;
2.2109375000e+000;3.7519230957e+003;3.6382050781e+003;3.6192307129e+003;3.6600000000e+003;3.6350000000e+003;3.6501281738e+003;3.6312819824e+003;3.6171794434e+003;3.6221794434e+003;3.6397436523e+003;3.6329487305e+003;3.6448718262e+003;3.6400000000e+003;3.6452563477e+003;
2.2187500000e+000;3.7394870605e+003;3.6248718262e+003;3.6080769043e+003;3.6478205566e+003;3.6178205566e+003;3.6364101563e+003;3.6185898438e+003;3.6098718262e+003;3.6156411133e+003;3.6300000000e+003;3.6214101563e+003;3.6366667480e+003;3.6275642090e+003;3.6337180176e+003;
2.2265625000e+000;3.6988461914e+003;3.5780769043e+003;3.5711538086e+003;3.6069230957e+003;3.5689743652e+003;3.5894870605e+003;3.5819230957e+003;3.5752563477e+003;3.5864101563e+003;3.5911538086e+003;3.5779487305e+003;3.6019230957e+003;3.5860256348e+003;3.5928205566e+003;
2.2343750000e+000;3.7283332520e+003;3.6053845215e+003;3.6001281738e+003;3.6333332520e+003;3.5976923828e+003;3.6121794434e+003;3.6102563477e+003;3.6075642090e+003;3.6214101563e+003;3.6234614258e+003;3.6075642090e+003;3.6323076172e+003;3.6162819824e+003;3.6220512695e+003;
2.2421875000e+000;3.7600000000e+003;3.6447436523e+003;3.6316667480e+003;3.6656411133e+003;3.6357692871e+003;3.6483332520e+003;3.6419230957e+003;3.6519230957e+003;3.6655129395e+003;3.6697436523e+003;3.6433332520e+003;3.6687180176e+003;3.6524357910e+003;3.6583332520e+003;
2.2500000000e+000;3.7430769043e+003;3.6315385742e+003;3.6139743652e+003;3.6492307129e+003;3.6206411133e+003;3.6360256348e+003;3.6273076172e+003;3.6319230957e+003;3.6458974609e+003;3.6525642090e+003;3.6248718262e+003;3.6484614258e+003;3.6362819824e+003;3.6402563477e+003;
2.2578125000e+000;3.7524357910e+003;3.6424357910e+003;3.6211538086e+003;3.6567949219e+003;3.6308974609e+003;3.6457692871e+003;3.6370512695e+003;3.6367949219e+003;3.6521794434e+003;3.6619230957e+003;3.6333332520e+003;3.6520512695e+003;3.6467949219e+003;3.6473076172e+003;
2.2656250000e+000;3.7764101563e+003;3.6650000000e+003;3.6426923828e+003;3.6788461914e+003;3.6543588867e+003;3.6679487305e+003;3.6598718262e+003;3.6584614258e+003;3.6746154785e+003;3.6871794434e+003;3.6573076172e+003;3.6707692871e+003;3.6710256348e+003;3.6685898438e+003;
2.2734375000e+000;3.8244870605e+003;3.7105129395e+003;3.6885898438e+003;3.7230769043e+003;3.7015385742e+003;3.7185898438e+003;3.7117949219e+003;3.6951281738e+003;3.7074357910e+003;3.7191025391e+003;3.6894870605e+003;3.7106411133e+003;3.7064101563e+003;3.7038461914e+003;
2.2812500000e+000;3.8510256348e+003;3.7396154785e+003;3.7178205566e+003;3.7471794434e+003;3.7303845215e+003;3.7439743652e+003;3.7380769043e+003;3.7187180176e+003;3.7308974609e+003;3.7476923828e+003;3.7182050781e+003;3.7408974609e+003;3.7389743652e+003;3.7341025391e+003;
2.2890625000e+000;3.8243588867e+003;3.7130769043e+003;3.6958974609e+003;3.7251281738e+003;3.7108974609e+003;3.7242307129e+003;3.7157692871e+003;3.6888461914e+003;3.6976923828e+003;3.7265385742e+003;3.7006411133e+003;3.7247436523e+003;3.7229487305e+003;3.7167949219e+003;
2.2968750000e+000;3.8423076172e+003;3.7429487305e+003;3.7143588867e+003;3.7462819824e+003;3.7337180176e+003;3.7370512695e+003;3.7279487305e+003;3.6958974609e+003;3.7028205566e+003;3.7357692871e+003;3.7137180176e+003;3.7403845215e+003;3.7278205566e+003;3.7335898438e+003;
2.3046875000e+000;3.8229487305e+003;3.7220512695e+003;3.6961538086e+003;3.7266667480e+003;3.7112819824e+003;3.7153845215e+003;3.7062819824e+003;3.6696154785e+003;3.6748718262e+003;3.7093588867e+003;3.6914101563e+003;3.7175642090e+003;3.7061538086e+003;3.7115385742e+003;
2.3125000000e+000;3.9330769043e+003;3.8279487305e+003;3.8066667480e+003;3.8294870605e+003;3.8135898438e+003;3.8051281738e+003;3.8021794434e+003;3.7701281738e+003;3.7744870605e+003;3.8126923828e+003;3.8029487305e+003;3.8243588867e+003;3.8221794434e+003;3.8198718262e+003;
2.3203125000e+000;3.9547436523e+003;3.8480769043e+003;3.8306411133e+003;3.8493588867e+003;3.8325642090e+003;3.8210256348e+003;3.8196154785e+003;3.7975642090e+003;3.8048718262e+003;3.8408974609e+003;3.8293588867e+003;3.8543588867e+003;3.8467949219e+003;3.8456411133e+003;
2.3281250000e+000;3.8989743652e+003;3.7841025391e+003;3.7805129395e+003;3.7919230957e+003;3.7710256348e+003;3.7628205566e+003;3.7673076172e+003;3.7534614258e+003;3.7648718262e+003;3.7885898438e+003;3.7803845215e+003;3.8117949219e+003;3.7929487305e+003;3.7932050781e+003;
2.3359375000e+000;3.8988461914e+003;3.7835898438e+003;3.7819230957e+003;3.7902563477e+003;3.7705129395e+003;3.7612819824e+003;3.7710256348e+003;3.7594870605e+003;3.7701281738e+003;3.7896154785e+003;3.7841025391e+003;3.8135898438e+003;3.7950000000e+003;3.7928205566e+003;
2.3437500000e+000;3.9682050781e+003;3.8665385742e+003;3.8538461914e+003;3.8614101563e+003;3.8457692871e+003;3.8261538086e+003;3.8412819824e+003;3.8484614258e+003;3.8561538086e+003;3.8735898438e+003;3.8614101563e+003;3.8883332520e+003;3.8680769043e+003;3.8647436523e+003;
2.3515625000e+000;3.9650000000e+003;3.8637180176e+003;3.8505129395e+003;3.8597436523e+003;3.8452563477e+003;3.8246154785e+003;3.8380769043e+003;3.8438461914e+003;3.8547436523e+003;3.8701281738e+003;3.8562819824e+003;3.8841025391e+003;3.8620512695e+003;3.8611538086e+003;
2.3593750000e+000;3.9661538086e+003;3.8643588867e+003;3.8533332520e+003;3.8632050781e+003;3.8546154785e+003;3.8355129395e+003;3.8423076172e+003;3.8425642090e+003;3.8637180176e+003;3.8756411133e+003;3.8591025391e+003;3.8841025391e+003;3.8641025391e+003;3.8644870605e+003;
2.3671875000e+000;3.9448718262e+003;3.8452563477e+003;3.8352563477e+003;3.8461538086e+003;3.8375642090e+003;3.8242307129e+003;3.8246154785e+003;3.8251281738e+003;3.8487180176e+003;3.8594870605e+003;3.8411538086e+003;3.8648718262e+003;3.8467949219e+003;3.8465385742e+003;
2.3750000000e+000;3.8805129395e+003;3.7902563477e+003;3.7717949219e+003;3.7902563477e+003;3.7828205566e+003;3.7853845215e+003;3.7739743652e+003;3.7610256348e+003;3.7805129395e+003;3.7939743652e+003;3.7767949219e+003;3.7988461914e+003;3.7885898438e+003;3.7844870605e+003;
2.3828125000e+000;3.9056411133e+003;3.8175642090e+003;3.7962819824e+003;3.8139743652e+003;3.8121794434e+003;3.8146154785e+003;3.8042307129e+003;3.7853845215e+003;3.8060256348e+003;3.8234614258e+003;3.8050000000e+003;3.8256411133e+003;3.8171794434e+003;3.8114101563e+003;
2.3906250000e+000;3.9132050781e+003;3.8266667480e+003;3.8070512695e+003;3.8217949219e+003;3.8238461914e+003;3.8275642090e+003;3.8182050781e+003;3.7957692871e+003;3.8188461914e+003;3.8384614258e+003;3.8175642090e+003;3.8384614258e+003;3.8288461914e+003;3.8228205566e+003;
2.3984375000e+000;3.9329487305e+003;3.8535898438e+003;3.8271794434e+003;3.8439743652e+003;3.8482050781e+003;3.8471794434e+003;3.8317949219e+003;3.8003845215e+003;3.8205129395e+003;3.8475642090e+003;3.8282050781e+003;3.8473076172e+003;3.8379487305e+003;3.8411538086e+003;
2.4062500000e+000;3.9237180176e+003;3.8437180176e+003;3.8189743652e+003;3.8376923828e+003;3.8396154785e+003;3.8412819824e+003;3.8230769043e+003;3.7910256348e+003;3.8080769043e+003;3.8407692871e+003;3.8212819824e+003;3.8425642090e+003;3.8294870605e+003;3.8342307129e+003;
2.4140625000e+000;3.8665385742e+003;3.7850000000e+003;3.7687180176e+003;3.7824357910e+003;3.7817949219e+003;3.7806411133e+003;3.7694870605e+003;3.7365385742e+003;3.7471794434e+003;3.7816667480e+003;3.7701281738e+003;3.7960256348e+003;3.7824357910e+003;3.7828205566e+003;
2.4218750000e+000;3.8426923828e+003;3.7591025391e+003;3.7429487305e+003;3.7574357910e+003;3.7408974609e+003;3.7364101563e+003;3.7310256348e+003;3.7044870605e+003;3.7175642090e+003;3.7551281738e+003;3.7469230957e+003;3.7729487305e+003;3.7552563477e+003;3.7657692871e+003;
2.4296875000e+000;3.8548718262e+003;3.7720512695e+003;3.7543588867e+003;3.7701281738e+003;3.7498718262e+003;3.7434614258e+003;3.7412819824e+003;3.7179487305e+003;3.7321794434e+003;3.7669230957e+003;3.7592307129e+003;3.7842307129e+003;3.7642307129e+003;3.7775642090e+003;
2.4375000000e+000;3.8888461914e+003;3.8111538086e+003;3.7966667480e+003;3.8073076172e+003;3.7892307129e+003;3.7767949219e+003;3.7833332520e+003;3.7916667480e+003;3.8075642090e+003;3.8258974609e+003;3.8094870605e+003;3.8328205566e+003;3.8102563477e+003;3.8193588867e+003;
2.4453125000e+000;3.8561538086e+003;3.7760256348e+003;3.7620512695e+003;3.7778205566e+003;3.7589743652e+003;3.7441025391e+003;3.7535898438e+003;3.7643588867e+003;3.7828205566e+003;3.7970512695e+003;3.7764101563e+003;3.7991025391e+003;3.7802563477e+003;3.7891025391e+003;
2.4531250000e+000;3.8682050781e+003;3.7902563477e+003;3.7752563477e+003;3.7911538086e+003;3.7721794434e+003;3.7578205566e+003;3.7657692871e+003;3.7755129395e+003;3.7952563477e+003;3.8110256348e+003;3.7882050781e+003;3.8096154785e+003;3.7926923828e+003;3.8037180176e+003;
2.4609375000e+000;3.8608974609e+003;3.7858974609e+003;3.7708974609e+003;3.7871794434e+003;3.7676923828e+003;3.7574357910e+003;3.7632050781e+003;3.7696154785e+003;3.7903845215e+003;3.8057692871e+003;3.7816667480e+003;3.8026923828e+003;3.7866667480e+003;3.7992307129e+003;
2.4687500000e+000;3.8475642090e+003;3.7773076172e+003;3.7558974609e+003;3.7783332520e+003;3.7652563477e+003;3.7624357910e+003;3.7646154785e+003;3.7560256348e+003;3.7800000000e+003;3.7902563477e+003;3.7673076172e+003;3.7876923828e+003;3.7752563477e+003;3.7833332520e+003;
2.4765625000e+000;3.8667949219e+003;3.7984614258e+003;3.7674357910e+003;3.7916667480e+003;3.7944870605e+003;3.7946154785e+003;3.7869230957e+003;3.7707692871e+003;3.7966667480e+003;3.8096154785e+003;3.7812819824e+003;3.8001281738e+003;3.7900000000e+003;3.7932050781e+003;
2.4843750000e+000;3.8401281738e+003;3.7689743652e+003;3.7419230957e+003;3.7646154785e+003;3.7660256348e+003;3.7702563477e+003;3.7596154785e+003;3.7389743652e+003;3.7653845215e+003;3.7780769043e+003;3.7515385742e+003;3.7688461914e+003;3.7606411133e+003;3.7638461914e+003;
2.4921875000e+000;3.8384614258e+003;3.7637180176e+003;3.7401281738e+003;3.7617949219e+003;3.7620512695e+003;3.7676923828e+003;3.7557692871e+003;3.7293588867e+003;3.7575642090e+003;3.7700000000e+003;3.7478205566e+003;3.7620512695e+003;3.7579487305e+003;3.7601281738e+003;
2.5000000000e+000;3.8998718262e+003;3.8220512695e+003;3.7988461914e+003;3.8202563477e+003;3.8234614258e+003;3.8244870605e+003;3.8092307129e+003;3.7807692871e+003;3.8120512695e+003;3.8311538086e+003;3.8134614258e+003;3.8255129395e+003;3.8242307129e+003;3.8260256348e+003;
2.5078125000e+000;3.8982050781e+003;3.8207692871e+003;3.7967949219e+003;3.8192307129e+003;3.8233332520e+003;3.8243588867e+003;3.8061538086e+003;3.7780769043e+003;3.8085898438e+003;3.8325642090e+003;3.8142307129e+003;3.8289743652e+003;3.8235898438e+003;3.8285898438e+003;
2.5156250000e+000;3.8726923828e+003;3.7958974609e+003;3.7716667480e+003;3.7944870605e+003;3.7988461914e+003;3.8010256348e+003;3.7811538086e+003;3.7501281738e+003;3.7784614258e+003;3.8060256348e+003;3.7875642090e+003;3.8051281738e+003;3.7961538086e+003;3.8051281738e+003;
2.5234375000e+000;3.8614101563e+003;3.7861538086e+003;3.7711538086e+003;3.7829487305e+003;3.7723076172e+003;3.7716667480e+003;3.7547436523e+003;3.7323076172e+003;3.7482050781e+003;3.7870512695e+003;3.7756411133e+003;3.7983332520e+003;3.7756411133e+003;3.7960256348e+003;
2.5312500000e+000;3.8380769043e+003;3.7619230957e+003;3.7492307129e+003;3.7623076172e+003;3.7465385742e+003;3.7453845215e+003;3.7333332520e+003;3.7085898438e+003;3.7226923828e+003;3.7615385742e+003;3.7534614258e+003;3.7771794434e+003;3.7516667480e+003;3.7742307129e+003;
2.5390625000e+000;3.8950000000e+003;3.8205129395e+003;3.8120512695e+003;3.8125642090e+003;3.7975642090e+003;3.7819230957e+003;3.7825642090e+003;3.7723076172e+003;3.7898718262e+003;3.8198718262e+003;3.8133332520e+003;3.8394870605e+003;3.8160256348e+003;3.8351281738e+003;
2.5468750000e+000;3.8438461914e+003;3.7643588867e+003;3.7651281738e+003;3.7658974609e+003;3.7476923828e+003;3.7329487305e+003;3.7367949219e+003;3.7414101563e+003;3.7580769043e+003;3.7767949219e+003;3.7721794434e+003;3.7944870605e+003;3.7680769043e+003;3.7862819824e+003;
2.5546875000e+000;3.8406411133e+003;3.7620512695e+003;3.7596154785e+003;3.7638461914e+003;3.7450000000e+003;3.7297436523e+003;3.7358974609e+003;3.7432050781e+003;3.7575642090e+003;3.7785898438e+003;3.7730769043e+003;3.7896154785e+003;3.7662819824e+003;3.7821794434e+003;
2.5625000000e+000;3.7743588867e+003;3.6978205566e+003;3.6871794434e+003;3.7000000000e+003;3.6744870605e+003;3.6661538086e+003;3.6700000000e+003;3.6723076172e+003;3.6848718262e+003;3.7033332520e+003;3.6944870605e+003;3.7107692871e+003;3.6943588867e+003;3.7041025391e+003;
2.5703125000e+000;3.7924357910e+003;3.7165385742e+003;3.7025642090e+003;3.7182050781e+003;3.6960256348e+003;3.6852563477e+003;3.6882050781e+003;3.6839743652e+003;3.6996154785e+003;3.7161538086e+003;3.7070512695e+003;3.7239743652e+003;3.7082050781e+003;3.7193588867e+003;
2.5781250000e+000;3.8426923828e+003;3.7703845215e+003;3.7532050781e+003;3.7717949219e+003;3.7591025391e+003;3.7475642090e+003;3.7496154785e+003;3.7364101563e+003;3.7574357910e+003;3.7739743652e+003;3.7596154785e+003;3.7765385742e+003;3.7560256348e+003;3.7748718262e+003;
2.5859375000e+000;3.8315385742e+003;3.7608974609e+003;3.7446154785e+003;3.7630769043e+003;3.7519230957e+003;3.7462819824e+003;3.7470512695e+003;3.7301281738e+003;3.7515385742e+003;3.7684614258e+003;3.7506411133e+003;3.7678205566e+003;3.7458974609e+003;3.7658974609e+003;
2.5937500000e+000;3.8283332520e+003;3.7605129395e+003;3.7408974609e+003;3.7574357910e+003;3.7501281738e+003;3.7528205566e+003;3.7452563477e+003;3.7239743652e+003;3.7461538086e+003;3.7669230957e+003;3.7412819824e+003;3.7562819824e+003;3.7476923828e+003;3.7528205566e+003;
2.6015625000e+000;3.8375642090e+003;3.7688461914e+003;3.7489743652e+003;3.7662819824e+003;3.7602563477e+003;3.7638461914e+003;3.7539743652e+003;3.7305129395e+003;3.7538461914e+003;3.7764101563e+003;3.7508974609e+003;3.7652563477e+003;3.7589743652e+003;3.7624357910e+003;
2.6093750000e+000;3.8898718262e+003;3.8237180176e+003;3.7982050781e+003;3.8201281738e+003;3.8212819824e+003;3.8244870605e+003;3.8144870605e+003;3.7752563477e+003;3.8011538086e+003;3.8291025391e+003;3.8085898438e+003;3.8203845215e+003;3.8178205566e+003;3.8220512695e+003;
2.6171875000e+000;3.9666667480e+003;3.9062819824e+003;3.8742307129e+003;3.8960256348e+003;3.9056411133e+003;3.9012819824e+003;3.8921794434e+003;3.8485898438e+003;3.8757692871e+003;3.9094870605e+003;3.8885898438e+003;3.8985898438e+003;3.8996154785e+003;3.9021794434e+003;
2.6250000000e+000;4.0762819824e+003;4.0298718262e+003;3.9932050781e+003;4.0030769043e+003;4.0243588867e+003;4.0005129395e+003;3.9915385742e+003;3.9583332520e+003;3.9805129395e+003;4.0297436523e+003;4.0000000000e+003;4.0169230957e+003;4.0133332520e+003;4.0148718262e+003;
2.6328125000e+000;4.0650000000e+003;4.0187180176e+003;3.9819230957e+003;3.9908974609e+003;4.0087180176e+003;3.9857692871e+003;3.9785898438e+003;3.9441025391e+003;3.9621794434e+003;4.0133332520e+003;3.9857692871e+003;4.0039743652e+003;3.9985898438e+003;4.0006411133e+003;
2.6406250000e+000;4.0884614258e+003;4.0437180176e+003;4.0030769043e+003;4.0132050781e+003;4.0285898438e+003;4.0047436523e+003;4.0005129395e+003;3.9655129395e+003;3.9810256348e+003;4.0342307129e+003;4.0093588867e+003;4.0257692871e+003;4.0220512695e+003;4.0232050781e+003;
2.6484375000e+000;4.1364101563e+003;4.0964101563e+003;4.0507692871e+003;4.0617949219e+003;4.0764101563e+003;4.0485898438e+003;4.0471794434e+003;4.0173076172e+003;4.0324357910e+003;4.0879487305e+003;4.0634614258e+003;4.0776923828e+003;4.0757692871e+003;4.0758974609e+003;
2.6562500000e+000;4.0943588867e+003;4.0647436523e+003;4.0315385742e+003;4.0270512695e+003;4.0378205566e+003;3.9993588867e+003;4.0092307129e+003;4.0087180176e+003;4.0243588867e+003;4.0701281738e+003;4.0439743652e+003;4.0669230957e+003;4.0501281738e+003;4.0570512695e+003;
2.6640625000e+000;4.0726923828e+003;4.0525642090e+003;4.0207692871e+003;4.0185898438e+003;4.0294870605e+003;3.9966667480e+003;4.0098718262e+003;4.0243588867e+003;4.0398718262e+003;4.0739743652e+003;4.0429487305e+003;4.0580769043e+003;4.0452563477e+003;4.0534614258e+003;
2.6718750000e+000;4.1278203125e+003;4.1206411133e+003;4.0841025391e+003;4.0769230957e+003;4.0998715820e+003;4.0634614258e+003;4.0826923828e+003;4.0926923828e+003;4.1107690430e+003;4.1401284180e+003;4.1125639648e+003;4.1211538086e+003;4.1153847656e+003;4.1128203125e+003;
2.6796875000e+000;4.1178203125e+003;4.1101284180e+003;4.0771794434e+003;4.0688461914e+003;4.0923076172e+003;4.0621794434e+003;4.0783332520e+003;4.0839743652e+003;4.1042309570e+003;4.1333334961e+003;4.1024360352e+003;4.1112822266e+003;4.1062822266e+003;4.1037177734e+003;
2.6875000000e+000;4.1221796875e+003;4.1114101563e+003;4.0771794434e+003;4.0708974609e+003;4.0970512695e+003;4.0739743652e+003;4.0851281738e+003;4.0693588867e+003;4.0907692871e+003;4.1202563477e+003;4.0879487305e+003;4.1039741211e+003;4.0942307129e+003;4.0975639648e+003;
2.6953125000e+000;4.1330771484e+003;4.1250000000e+003;4.0882050781e+003;4.0815385742e+003;4.1074360352e+003;4.0824357910e+003;4.0938461914e+003;4.0784614258e+003;4.0984614258e+003;4.1302563477e+003;4.0980771484e+003;4.1166665039e+003;4.1019228516e+003;4.1075639648e+003;
2.7031250000e+000;4.0542307129e+003;4.0508974609e+003;4.0201281738e+003;4.0158974609e+003;4.0317949219e+003;4.0133332520e+003;4.0203845215e+003;4.0064101563e+003;4.0235898438e+003;4.0567949219e+003;4.0279487305e+003;4.0474357910e+003;4.0271794434e+003;4.0344870605e+003;
2.7109375000e+000;4.0176923828e+003;4.0157692871e+003;3.9887180176e+003;3.9874357910e+003;4.0005129395e+003;3.9843588867e+003;3.9889743652e+003;3.9719230957e+003;3.9900000000e+003;4.0223076172e+003;3.9970512695e+003;4.0133332520e+003;3.9962819824e+003;4.0019230957e+003;
2.7187500000e+000;4.0480769043e+003;4.0482050781e+003;4.0198718262e+003;4.0179487305e+003;4.0406411133e+003;4.0224357910e+003;4.0211538086e+003;4.0015385742e+003;4.0205129395e+003;4.0588461914e+003;4.0357692871e+003;4.0484614258e+003;4.0355129395e+003;4.0388461914e+003;
2.7265625000e+000;4.0593588867e+003;4.0593588867e+003;4.0298718262e+003;4.0266667480e+003;4.0507692871e+003;4.0330769043e+003;4.0320512695e+003;4.0106411133e+003;4.0267949219e+003;4.0675642090e+003;4.0453845215e+003;4.0606411133e+003;4.0442307129e+003;4.0484614258e+003;
2.7343750000e+000;4.1162822266e+003;4.1175639648e+003;4.0875642090e+003;4.0826923828e+003;4.1073076172e+003;4.0834614258e+003;4.0897436523e+003;4.0676923828e+003;4.0784614258e+003;4.1224360352e+003;4.1048715820e+003;4.1200000000e+003;4.1025639648e+003;4.1056411133e+003;
2.7421875000e+000;4.1367949219e+003;4.1383334961e+003;4.1114101563e+003;4.1041025391e+003;4.1279487305e+003;4.1006411133e+003;4.1093588867e+003;4.0933332520e+003;4.1014101563e+003;4.1474360352e+003;4.1308974609e+003;4.1446152344e+003;4.1280771484e+003;4.1308974609e+003;
2.7500000000e+000;4.1083334961e+003;4.1121796875e+003;4.0920512695e+003;4.0753845215e+003;4.0935898438e+003;4.0670512695e+003;4.0761538086e+003;4.0739743652e+003;4.0792307129e+003;4.1241025391e+003;4.1111538086e+003;4.1225639648e+003;4.1071796875e+003;4.1134614258e+003;
2.7578125000e+000;4.1358974609e+003;4.1450000000e+003;4.1211538086e+003;4.1024360352e+003;4.1211538086e+003;4.0910256348e+003;4.1043588867e+003;4.1057690430e+003;4.1125639648e+003;4.1565385742e+003;4.1437177734e+003;4.1529487305e+003;4.1380771484e+003;4.1439741211e+003;
2.7656250000e+000;4.1617949219e+003;4.1748715820e+003;4.1502563477e+003;4.1297436523e+003;4.1476923828e+003;4.1142309570e+003;4.1329487305e+003;4.1407690430e+003;4.1482050781e+003;4.1914101563e+003;4.1769228516e+003;4.1856411133e+003;4.1684614258e+003;4.1744873047e+003;
2.7734375000e+000;4.1553847656e+003;4.1684614258e+003;4.1485898438e+003;4.1270512695e+003;4.1414101563e+003;4.1079487305e+003;4.1311538086e+003;4.1462822266e+003;4.1521796875e+003;4.1930771484e+003;4.1767949219e+003;4.1880771484e+003;4.1655126953e+003;4.1729487305e+003;
2.7812500000e+000;4.0480769043e+003;4.0570512695e+003;4.0458974609e+003;4.0282050781e+003;4.0407692871e+003;4.0144870605e+003;4.0306411133e+003;4.0576923828e+003;4.0623076172e+003;4.0939743652e+003;4.0702563477e+003;4.0807692871e+003;4.0605129395e+003;4.0665385742e+003;
2.7890625000e+000;4.0258974609e+003;4.0398718262e+003;4.0237180176e+003;4.0115385742e+003;4.0233332520e+003;3.9987180176e+003;4.0110256348e+003;4.0351281738e+003;4.0443588867e+003;4.0743588867e+003;4.0464101563e+003;4.0560256348e+003;4.0391025391e+003;4.0426923828e+003;
2.7968750000e+000;4.0105129395e+003;4.0314101563e+003;4.0064101563e+003;4.0075642090e+003;4.0210256348e+003;3.9975642090e+003;4.0093588867e+003;4.0124357910e+003;4.0280769043e+003;4.0533332520e+003;4.0221794434e+003;4.0355129395e+003;4.0233332520e+003;4.0233332520e+003;
2.8046875000e+000;3.9210256348e+003;3.9439743652e+003;3.9164101563e+003;3.9243588867e+003;3.9397436523e+003;3.9325642090e+003;3.9328205566e+003;3.9224357910e+003;3.9324357910e+003;3.9629487305e+003;3.9312819824e+003;3.9405129395e+003;3.9324357910e+003;3.9373076172e+003;
2.8125000000e+000;3.9162819824e+003;3.9414101563e+003;3.9106411133e+003;3.9226923828e+003;3.9367949219e+003;3.9296154785e+003;3.9305129395e+003;3.9107692871e+003;3.9210256348e+003;3.9507692871e+003;3.9202563477e+003;3.9288461914e+003;3.9223076172e+003;3.9279487305e+003;
2.8203125000e+000;4.0487180176e+003;4.0771794434e+003;4.0430769043e+003;4.0562819824e+003;4.0707692871e+003;4.0512819824e+003;4.0525642090e+003;4.0347436523e+003;4.0491025391e+003;4.0885898438e+003;4.0530769043e+003;4.0612819824e+003;4.0564101563e+003;4.0592307129e+003;
2.8281250000e+000;4.0066667480e+003;4.0348718262e+003;3.9994870605e+003;4.0135898438e+003;4.0343588867e+003;4.0166667480e+003;4.0158974609e+003;3.9952563477e+003;4.0050000000e+003;4.0514101563e+003;4.0244870605e+003;4.0273076172e+003;4.0282050781e+003;4.0247436523e+003;
2.8359375000e+000;4.0389743652e+003;4.0721794434e+003;4.0337180176e+003;4.0458974609e+003;4.0710256348e+003;4.0471794434e+003;4.0467949219e+003;4.0297436523e+003;4.0347436523e+003;4.0853845215e+003;4.0600000000e+003;4.0619230957e+003;4.0632050781e+003;4.0607692871e+003;
2.8437500000e+000;4.0519230957e+003;4.0894870605e+003;4.0503845215e+003;4.0610256348e+003;4.0850000000e+003;4.0582050781e+003;4.0573076172e+003;4.0452563477e+003;4.0461538086e+003;4.1002563477e+003;4.0746154785e+003;4.0784614258e+003;4.0762819824e+003;4.0775642090e+003;
2.8515625000e+000;3.9873076172e+003;4.0226923828e+003;3.9871794434e+003;4.0003845215e+003;4.0115385742e+003;3.9885898438e+003;3.9884614258e+003;3.9750000000e+003;3.9748718262e+003;4.0289743652e+003;4.0028205566e+003;4.0128205566e+003;4.0007692871e+003;4.0093588867e+003;
2.8593750000e+000;3.9716667480e+003;3.9953845215e+003;3.9634614258e+003;3.9750000000e+003;3.9842307129e+003;3.9594870605e+003;3.9647436523e+003;3.9619230957e+003;3.9661538086e+003;4.0110256348e+003;3.9853845215e+003;3.9967949219e+003;3.9808974609e+003;3.9906411133e+003;
2.8671875000e+000;3.9483332520e+003;3.9696154785e+003;3.9419230957e+003;3.9515385742e+003;3.9583332520e+003;3.9370512695e+003;3.9417949219e+003;3.9464101563e+003;3.9494870605e+003;3.9897436523e+003;3.9666667480e+003;3.9794870605e+003;3.9610256348e+003;3.9719230957e+003;
2.8750000000e+000;3.9144870605e+003;3.9235898438e+003;3.9019230957e+003;3.9142307129e+003;3.9085898438e+003;3.8937180176e+003;3.8984614258e+003;3.9135898438e+003;3.9187180176e+003;3.9442307129e+003;3.9266667480e+003;3.9375642090e+003;3.9176923828e+003;3.9301281738e+003;
2.8828125000e+000;3.9065385742e+003;3.9146154785e+003;3.8938461914e+003;3.9074357910e+003;3.8984614258e+003;3.8839743652e+003;3.8892307129e+003;3.9073076172e+003;3.9150000000e+003;3.9369230957e+003;3.9153845215e+003;3.9276923828e+003;3.9056411133e+003;3.9192307129e+003;
2.8906250000e+000;3.8793588867e+003;3.8884614258e+003;3.8696154785e+003;3.8839743652e+003;3.8733332520e+003;3.8602563477e+003;3.8656411133e+003;3.8834614258e+003;3.8930769043e+003;3.9123076172e+003;3.8867949219e+003;3.9024357910e+003;3.8776923828e+003;3.8923076172e+003;
2.8984375000e+000;3.8529487305e+003;3.8632050781e+003;3.8461538086e+003;3.8607692871e+003;3.8514101563e+003;3.8391025391e+003;3.8446154785e+003;3.8588461914e+003;3.8696154785e+003;3.8870512695e+003;3.8600000000e+003;3.8783332520e+003;3.8534614258e+003;3.8671794434e+003;
2.9062500000e+000;3.7628205566e+003;3.7648718262e+003;3.7506411133e+003;3.7707692871e+003;3.7633332520e+003;3.7698718262e+003;3.7650000000e+003;3.7698718262e+003;3.7842307129e+003;3.7933332520e+003;3.7661538086e+003;3.7788461914e+003;3.7592307129e+003;3.7725642090e+003;
2.9140625000e+000;3.7008974609e+003;3.7007692871e+003;3.6870512695e+003;3.7106411133e+003;3.7016667480e+003;3.7174357910e+003;3.7105129395e+003;3.7091025391e+003;3.7216667480e+003;3.7270512695e+003;3.7012819824e+003;3.7129487305e+003;3.6921794434e+003;3.7074357910e+003;
2.9218750000e+000;3.6529487305e+003;3.6430769043e+003;3.6353845215e+003;3.6598718262e+003;3.6517949219e+003;3.6658974609e+003;3.6619230957e+003;3.6502563477e+003;3.6592307129e+003;3.6700000000e+003;3.6470512695e+003;3.6610256348e+003;3.6411538086e+003;3.6510256348e+003;
2.9296875000e+000;3.5780769043e+003;3.5501281738e+003;3.5551281738e+003;3.5808974609e+003;3.5529487305e+003;3.5746154785e+003;3.5596154785e+003;3.5333332520e+003;3.5434614258e+003;3.5616667480e+003;3.5456411133e+003;3.5669230957e+003;3.5451281738e+003;3.5612819824e+003;
2.9375000000e+000;3.5847436523e+003;3.5562819824e+003;3.5589743652e+003;3.5846154785e+003;3.5566667480e+003;3.5774357910e+003;3.5617949219e+003;3.5316667480e+003;3.5412819824e+003;3.5617949219e+003;3.5506411133e+003;3.5707692871e+003;3.5492307129e+003;3.5671794434e+003;
2.9453125000e+000;3.5492307129e+003;3.5066667480e+003;3.5160256348e+003;3.5430769043e+003;3.5088461914e+003;3.5276923828e+003;3.5202563477e+003;3.4837180176e+003;3.4839743652e+003;3.5064101563e+003;3.5130769043e+003;3.5352563477e+003;3.5047436523e+003;3.5253845215e+003;
2.9531250000e+000;3.5762819824e+003;3.5239743652e+003;3.5353845215e+003;3.5641025391e+003;3.5221794434e+003;3.5376923828e+003;3.5312819824e+003;3.5092307129e+003;3.5097436523e+003;3.5260256348e+003;3.5292307129e+003;3.5560256348e+003;3.5232050781e+003;3.5447436523e+003;
2.9609375000e+000;3.5332050781e+003;3.4782050781e+003;3.4937180176e+003;3.5226923828e+003;3.4776923828e+003;3.4991025391e+003;3.4897436523e+003;3.4755129395e+003;3.4788461914e+003;3.4915385742e+003;3.4908974609e+003;3.5180769043e+003;3.4808974609e+003;3.5023076172e+003;
2.9687500000e+000;3.3971794434e+003;3.3178205566e+003;3.3457692871e+003;3.3802563477e+003;3.3294870605e+003;3.3578205566e+003;3.3529487305e+003;3.3435898438e+003;3.3569230957e+003;3.3583332520e+003;3.3552563477e+003;3.3765385742e+003;3.3408974609e+003;3.3542307129e+003;
2.9765625000e+000;3.3815385742e+003;3.2966667480e+003;3.3238461914e+003;3.3607692871e+003;3.3066667480e+003;3.3334614258e+003;3.3300000000e+003;3.3260256348e+003;3.3419230957e+003;3.3402563477e+003;3.3364101563e+003;3.3576923828e+003;3.3252563477e+003;3.3379487305e+003;
2.9843750000e+000;3.3057692871e+003;3.2169230957e+003;3.2392307129e+003;3.2846154785e+003;3.2184614258e+003;3.2491025391e+003;3.2432050781e+003;3.2455129395e+003;3.2612819824e+003;3.2523076172e+003;3.2528205566e+003;3.2774357910e+003;3.2426923828e+003;3.2594870605e+003;
2.9921875000e+000;3.2856411133e+003;3.1956411133e+003;3.2133332520e+003;3.2634614258e+003;3.1941025391e+003;3.2251281738e+003;3.2184614258e+003;3.2184614258e+003;3.2329487305e+003;3.2226923828e+003;3.2264101563e+003;3.2502563477e+003;3.2138461914e+003;3.2324357910e+003;
3.0000000000e+000;3.2862819824e+003;3.1815385742e+003;3.1973076172e+003;3.2526923828e+003;3.1834614258e+003;3.2167949219e+003;3.2048718262e+003;3.1984614258e+003;3.2129487305e+003;3.2055129395e+003;3.2071794434e+003;3.2287180176e+003;3.1935898438e+003;3.2142307129e+003;
3.0078125000e+000;3.2542307129e+003;3.1430769043e+003;3.1626923828e+003;3.2189743652e+003;3.1503845215e+003;3.1891025391e+003;3.1746154785e+003;3.1620512695e+003;3.1773076172e+003;3.1678205566e+003;3.1693588867e+003;3.1942307129e+003;3.1580769043e+003;3.1791025391e+003;
3.0156250000e+000;3.2397436523e+003;3.1255129395e+003;3.1451281738e+003;3.2029487305e+003;3.1376923828e+003;3.1798718262e+003;3.1639743652e+003;3.1434614258e+003;3.1594870605e+003;3.1483332520e+003;3.1500000000e+003;3.1775642090e+003;3.1405129395e+003;3.1611538086e+003;
3.0234375000e+000;3.2556411133e+003;3.1420512695e+003;3.1570512695e+003;3.2164101563e+003;3.1565385742e+003;3.1997436523e+003;3.1829487305e+003;3.1564101563e+003;3.1732050781e+003;3.1619230957e+003;3.1623076172e+003;3.1903845215e+003;3.1528205566e+003;3.1734614258e+003;
3.0312500000e+000;3.2341025391e+003;3.1183332520e+003;3.1196154785e+003;3.1900000000e+003;3.1273076172e+003;3.1779487305e+003;3.1614101563e+003;3.1288461914e+003;3.1451281738e+003;3.1267949219e+003;3.1194870605e+003;3.1435898438e+003;3.1111538086e+003;3.1352563477e+003;
3.0390625000e+000;3.2405129395e+003;3.1219230957e+003;3.1239743652e+003;3.1934614258e+003;3.1330769043e+003;3.1816667480e+003;3.1676923828e+003;3.1330769043e+003;3.1492307129e+003;3.1315385742e+003;3.1232050781e+003;3.1466667480e+003;3.1151281738e+003;3.1378205566e+003;
3.0468750000e+000;3.2138461914e+003;3.0782050781e+003;3.0933332520e+003;3.1589743652e+003;3.1011538086e+003;3.1533332520e+003;3.1365385742e+003;3.1006411133e+003;3.1103845215e+003;3.1064101563e+003;3.0971794434e+003;3.1237180176e+003;3.0852563477e+003;3.1038461914e+003;
3.0546875000e+000;3.2433332520e+003;3.1011538086e+003;3.1093588867e+003;3.1782050781e+003;3.1144870605e+003;3.1633332520e+003;3.1443588867e+003;3.1048718262e+003;3.1144870605e+003;3.1191025391e+003;3.1187180176e+003;3.1452563477e+003;3.1103845215e+003;3.1255129395e+003;
3.0625000000e+000;3.2503845215e+003;3.1071794434e+003;3.1164101563e+003;3.1821794434e+003;3.1175642090e+003;3.1639743652e+003;3.1465385742e+003;3.1089743652e+003;3.1175642090e+003;3.1247436523e+003;3.1238461914e+003;3.1530769043e+003;3.1129487305e+003;3.1311538086e+003;
3.0703125000e+000;3.2560256348e+003;3.1023076172e+003;3.1169230957e+003;3.1751281738e+003;3.1100000000e+003;3.1416667480e+003;3.1384614258e+003;3.1061538086e+003;3.1094870605e+003;3.1150000000e+003;3.1158974609e+003;3.1473076172e+003;3.1030769043e+003;3.1211538086e+003;
3.0781250000e+000;3.2394870605e+003;3.0792307129e+003;3.0991025391e+003;3.1560256348e+003;3.0856411133e+003;3.1151281738e+003;3.1082050781e+003;3.0988461914e+003;3.1112819824e+003;3.1110256348e+003;3.1024357910e+003;3.1307692871e+003;3.0965385742e+003;3.1080769043e+003;
3.0859375000e+000;3.2302563477e+003;3.0685898438e+003;3.0876923828e+003;3.1450000000e+003;3.0741025391e+003;3.1033332520e+003;3.0969230957e+003;3.0883332520e+003;3.1021794434e+003;3.1002563477e+003;3.0902563477e+003;3.1193588867e+003;3.0865385742e+003;3.0980769043e+003;
3.0937500000e+000;3.2548718262e+003;3.0943588867e+003;3.1082050781e+003;3.1661538086e+003;3.0979487305e+003;3.1223076172e+003;3.1191025391e+003;3.1108974609e+003;3.1242307129e+003;3.1219230957e+003;3.1124357910e+003;3.1406411133e+003;3.1091025391e+003;3.1203845215e+003;
3.1015625000e+000;3.2970512695e+003;3.1424357910e+003;3.1473076172e+003;3.2065385742e+003;3.1435898438e+003;3.1607692871e+003;3.1633332520e+003;3.1587180176e+003;3.1689743652e+003;3.1669230957e+003;3.1580769043e+003;3.1853845215e+003;3.1501281738e+003;3.1611538086e+003;
3.1093750000e+000;3.2741025391e+003;3.1208974609e+003;3.1270512695e+003;3.1870512695e+003;3.1239743652e+003;3.1446154785e+003;3.1467949219e+003;3.1396154785e+003;3.1507692871e+003;3.1465385742e+003;3.1369230957e+003;3.1658974609e+003;3.1265385742e+003;3.1393588867e+003;
3.1171875000e+000;3.2634614258e+003;3.1100000000e+003;3.1185898438e+003;3.1801281738e+003;3.1203845215e+003;3.1453845215e+003;3.1439743652e+003;3.1257692871e+003;3.1458974609e+003;3.1382050781e+003;3.1243588867e+003;3.1519230957e+003;3.1155129395e+003;3.1294870605e+003;
3.1250000000e+000;3.2905129395e+003;3.1371794434e+003;3.1428205566e+003;3.2057692871e+003;3.1494870605e+003;3.1725642090e+003;3.1694870605e+003;3.1503845215e+003;3.1738461914e+003;3.1688461914e+003;3.1512819824e+003;3.1748718262e+003;3.1450000000e+003;3.1567949219e+003;
3.1328125000e+000;3.2685898438e+003;3.1169230957e+003;3.1144870605e+003;3.1805129395e+003;3.1342307129e+003;3.1606411133e+003;3.1541025391e+003;3.1251281738e+003;3.1464101563e+003;3.1507692871e+003;3.1301281738e+003;3.1455129395e+003;3.1267949219e+003;3.1293588867e+003;
3.1406250000e+000;3.2773076172e+003;3.1275642090e+003;3.1234614258e+003;3.1879487305e+003;3.1475642090e+003;3.1738461914e+003;3.1670512695e+003;3.1316667480e+003;3.1538461914e+003;3.1574357910e+003;3.1383332520e+003;3.1528205566e+003;3.1351281738e+003;3.1348718262e+003;
3.1484375000e+000;3.3021794434e+003;3.1550000000e+003;3.1492307129e+003;3.2124357910e+003;3.1764101563e+003;3.2010256348e+003;3.1937180176e+003;3.1561538086e+003;3.1794870605e+003;3.1826923828e+003;3.1643588867e+003;3.1792307129e+003;3.1608974609e+003;3.1589743652e+003;
3.1562500000e+000;3.3337180176e+003;3.1794870605e+003;3.1682050781e+003;3.2358974609e+003;3.1985898438e+003;3.2210256348e+003;3.2119230957e+003;3.1720512695e+003;3.1838461914e+003;3.1978205566e+003;3.1892307129e+003;3.2050000000e+003;3.1860256348e+003;3.1753845215e+003;
3.1640625000e+000;3.3492307129e+003;3.1953845215e+003;3.1829487305e+003;3.2489743652e+003;3.2119230957e+003;3.2334614258e+003;3.2234614258e+003;3.1883332520e+003;3.1985898438e+003;3.2139743652e+003;3.2037180176e+003;3.2203845215e+003;3.2005129395e+003;3.1887180176e+003;
3.1718750000e+000;3.3282050781e+003;3.1691025391e+003;3.1589743652e+003;3.2262819824e+003;3.1832050781e+003;3.2043588867e+003;3.1920512695e+003;3.1588461914e+003;3.1661538086e+003;3.1797436523e+003;3.1728205566e+003;3.1960256348e+003;3.1697436523e+003;3.1573076172e+003;
3.1796875000e+000;3.3702563477e+003;3.1950000000e+003;3.1958974609e+003;3.2516667480e+003;3.2092307129e+003;3.2193588867e+003;3.2167949219e+003;3.1978205566e+003;3.2087180176e+003;3.2239743652e+003;3.2137180176e+003;3.2458974609e+003;3.2106411133e+003;3.1984614258e+003;
3.1875000000e+000;3.3569230957e+003;3.1796154785e+003;3.1823076172e+003;3.2371794434e+003;3.1929487305e+003;3.2050000000e+003;3.2043588867e+003;3.1885898438e+003;3.2015385742e+003;3.2126923828e+003;3.2046154785e+003;3.2357692871e+003;3.2001281738e+003;3.1873076172e+003;
3.1953125000e+000;3.4285898438e+003;3.2593588867e+003;3.2552563477e+003;3.3073076172e+003;3.2637180176e+003;3.2697436523e+003;3.2761538086e+003;3.2726923828e+003;3.2897436523e+003;3.2950000000e+003;3.2785898438e+003;3.3060256348e+003;3.2752563477e+003;3.2600000000e+003;
3.2031250000e+000;3.4311538086e+003;3.2678205566e+003;3.2660256348e+003;3.3093588867e+003;3.2641025391e+003;3.2678205566e+003;3.2752563477e+003;3.2753845215e+003;3.2916667480e+003;3.2971794434e+003;3.2743588867e+003;3.3134614258e+003;3.2679487305e+003;3.2651281738e+003;
3.2109375000e+000;3.4626923828e+003;3.3024357910e+003;3.2974357910e+003;3.3407692871e+003;3.3002563477e+003;3.2985898438e+003;3.3067949219e+003;3.3060256348e+003;3.3238461914e+003;3.3320512695e+003;3.3105129395e+003;3.3458974609e+003;3.3041025391e+003;3.2985898438e+003;
3.2187500000e+000;3.4841025391e+003;3.3261538086e+003;3.3197436523e+003;3.3639743652e+003;3.3276923828e+003;3.3228205566e+003;3.3307692871e+003;3.3287180176e+003;3.3496154785e+003;3.3603845215e+003;3.3369230957e+003;3.3688461914e+003;3.3326923828e+003;3.3226923828e+003;
3.2265625000e+000;3.4553845215e+003;3.2997436523e+003;3.2955129395e+003;3.3416667480e+003;3.3075642090e+003;3.3087180176e+003;3.3142307129e+003;3.3002563477e+003;3.3275642090e+003;3.3379487305e+003;3.3065385742e+003;3.3416667480e+003;3.3108974609e+003;3.2976923828e+003;
3.2343750000e+000;3.4558974609e+003;3.3032050781e+003;3.2966667480e+003;3.3419230957e+003;3.3106411133e+003;3.3134614258e+003;3.3184614258e+003;3.2983332520e+003;3.3265385742e+003;3.3364101563e+003;3.3042307129e+003;3.3416667480e+003;3.3106411133e+003;3.2994870605e+003;
3.2421875000e+000;3.5015385742e+003;3.3587180176e+003;3.3429487305e+003;3.3833332520e+003;3.3617949219e+003;3.3621794434e+003;3.3642307129e+003;3.3446154785e+003;3.3702563477e+003;3.3853845215e+003;3.3555129395e+003;3.3919230957e+003;3.3578205566e+003;3.3508974609e+003;
3.2500000000e+000;3.4946154785e+003;3.3546154785e+003;3.3370512695e+003;3.3773076172e+003;3.3569230957e+003;3.3597436523e+003;3.3591025391e+003;3.3388461914e+003;3.3620512695e+003;3.3803845215e+003;3.3519230957e+003;3.3873076172e+003;3.3520512695e+003;3.3460256348e+003;
3.2578125000e+000;3.5006411133e+003;3.3528205566e+003;3.3384614258e+003;3.3824357910e+003;3.3633332520e+003;3.3729487305e+003;3.3685898438e+003;3.3302563477e+003;3.3474357910e+003;3.3719230957e+003;3.3492307129e+003;3.3826923828e+003;3.3526923828e+003;3.3421794434e+003;
3.2656250000e+000;3.5243588867e+003;3.3725642090e+003;3.3608974609e+003;3.4029487305e+003;3.3851281738e+003;3.3941025391e+003;3.3874357910e+003;3.3501281738e+003;3.3664101563e+003;3.3925642090e+003;3.3716667480e+003;3.4060256348e+003;3.3730769043e+003;3.3637180176e+003;
3.2734375000e+000;3.5208974609e+003;3.3660256348e+003;3.3569230957e+003;3.3975642090e+003;3.3788461914e+003;3.3874357910e+003;3.3789743652e+003;3.3438461914e+003;3.3592307129e+003;3.3857692871e+003;3.3678205566e+003;3.4042307129e+003;3.3656411133e+003;3.3596154785e+003;
3.2812500000e+000;3.5671794434e+003;3.4215385742e+003;3.4041025391e+003;3.4433332520e+003;3.4194870605e+003;3.4180769043e+003;3.4126923828e+003;3.3779487305e+003;3.3917949219e+003;3.4316667480e+003;3.4157692871e+003;3.4533332520e+003;3.4138461914e+003;3.4115385742e+003;
3.2890625000e+000;3.5480769043e+003;3.3989743652e+003;3.3876923828e+003;3.4238461914e+003;3.4001281738e+003;3.3991025391e+003;3.3935898438e+003;3.3630769043e+003;3.3788461914e+003;3.4158974609e+003;3.3970512695e+003;3.4356411133e+003;3.3944870605e+003;3.3925642090e+003;
3.2968750000e+000;3.5767949219e+003;3.4243588867e+003;3.4170512695e+003;3.4473076172e+003;3.4289743652e+003;3.4171794434e+003;3.4201281738e+003;3.4042307129e+003;3.4279487305e+003;3.4570512695e+003;3.4276923828e+003;3.4626923828e+003;3.4256411133e+003;3.4200000000e+003;
3.3046875000e+000;3.5437180176e+003;3.3992307129e+003;3.3901281738e+003;3.4191025391e+003;3.3933332520e+003;3.3847436523e+003;3.3921794434e+003;3.3853845215e+003;3.4056411133e+003;3.4388461914e+003;3.4064101563e+003;3.4420512695e+003;3.4012819824e+003;3.3947436523e+003;
3.3125000000e+000;3.5505129395e+003;3.4060256348e+003;3.3956411133e+003;3.4261538086e+003;3.3994870605e+003;3.3871794434e+003;3.3966667480e+003;3.3920512695e+003;3.4129487305e+003;3.4467949219e+003;3.4121794434e+003;3.4485898438e+003;3.4091025391e+003;3.4007692871e+003;
3.3203125000e+000;3.5232050781e+003;3.3774357910e+003;3.3702563477e+003;3.4046154785e+003;3.3685898438e+003;3.3580769043e+003;3.3651281738e+003;3.3678205566e+003;3.3914101563e+003;3.4229487305e+003;3.3806411133e+003;3.4169230957e+003;3.3838461914e+003;3.3725642090e+003;
3.3281250000e+000;3.5197436523e+003;3.3732050781e+003;3.3648718262e+003;3.3998718262e+003;3.3647436523e+003;3.3564101563e+003;3.3621794434e+003;3.3617949219e+003;3.3850000000e+003;3.4155129395e+003;3.3756411133e+003;3.4091025391e+003;3.3798718262e+003;3.3665385742e+003;
3.3359375000e+000;3.5864101563e+003;3.4423076172e+003;3.4228205566e+003;3.4580769043e+003;3.4369230957e+003;3.4214101563e+003;3.4266667480e+003;3.4241025391e+003;3.4451281738e+003;3.4797436523e+003;3.4416667480e+003;3.4703845215e+003;3.4456411133e+003;3.4305129395e+003;
3.3437500000e+000;3.5947436523e+003;3.4542307129e+003;3.4306411133e+003;3.4671794434e+003;3.4502563477e+003;3.4339743652e+003;3.4374357910e+003;3.4341025391e+003;3.4530769043e+003;3.4902563477e+003;3.4497436523e+003;3.4796154785e+003;3.4532050781e+003;3.4397436523e+003;
3.3515625000e+000;3.5539743652e+003;3.4257692871e+003;3.4015385742e+003;3.4408974609e+003;3.4285898438e+003;3.4233332520e+003;3.4234614258e+003;3.4007692871e+003;3.4164101563e+003;3.4521794434e+003;3.4119230957e+003;3.4398718262e+003;3.4143588867e+003;3.3997436523e+003;
3.3593750000e+000;3.5691025391e+003;3.4408974609e+003;3.4165385742e+003;3.4542307129e+003;3.4473076172e+003;3.4429487305e+003;3.4438461914e+003;3.4192307129e+003;3.4337180176e+003;3.4701281738e+003;3.4312819824e+003;3.4561538086e+003;3.4330769043e+003;3.4165385742e+003;
3.3671875000e+000;3.5532050781e+003;3.4189743652e+003;3.3961538086e+003;3.4323076172e+003;3.4297436523e+003;3.4306411133e+003;3.4308974609e+003;3.4044870605e+003;3.4128205566e+003;3.4529487305e+003;3.4153845215e+003;3.4407692871e+003;3.4187180176e+003;3.4016667480e+003;
3.3750000000e+000;3.5470512695e+003;3.4129487305e+003;3.3889743652e+003;3.4262819824e+003;3.4230769043e+003;3.4246154785e+003;3.4252563477e+003;3.3937180176e+003;3.4000000000e+003;3.4419230957e+003;3.4057692871e+003;3.4316667480e+003;3.4108974609e+003;3.3939743652e+003;
3.3828125000e+000;3.6071794434e+003;3.4910256348e+003;3.4574357910e+003;3.4979487305e+003;3.4919230957e+003;3.4880769043e+003;3.4861538086e+003;3.4498718262e+003;3.4619230957e+003;3.5088461914e+003;3.4711538086e+003;3.4976923828e+003;3.4780769043e+003;3.4628205566e+003;
3.3906250000e+000;3.5869230957e+003;3.4725642090e+003;3.4391025391e+003;3.4801281738e+003;3.4721794434e+003;3.4721794434e+003;3.4680769043e+003;3.4316667480e+003;3.4444870605e+003;3.4915385742e+003;3.4532050781e+003;3.4832050781e+003;3.4605129395e+003;3.4456411133e+003;
3.3984375000e+000;3.5678205566e+003;3.4528205566e+003;3.4194870605e+003;3.4605129395e+003;3.4525642090e+003;3.4546154785e+003;3.4512819824e+003;3.4132050781e+003;3.4250000000e+003;3.4725642090e+003;3.4347436523e+003;3.4670512695e+003;3.4420512695e+003;3.4264101563e+003;
3.4062500000e+000;3.5750000000e+003;3.4589743652e+003;3.4248718262e+003;3.4651281738e+003;3.4591025391e+003;3.4585898438e+003;3.4587180176e+003;3.4207692871e+003;3.4311538086e+003;3.4806411133e+003;3.4429487305e+003;3.4752563477e+003;3.4489743652e+003;3.4324357910e+003;
3.4140625000e+000;3.5733332520e+003;3.4574357910e+003;3.4341025391e+003;3.4670512695e+003;3.4491025391e+003;3.4412819824e+003;3.4447436523e+003;3.4284614258e+003;3.4400000000e+003;3.4857692871e+003;3.4530769043e+003;3.4876923828e+003;3.4551281738e+003;3.4437180176e+003;
3.4218750000e+000;3.6470512695e+003;3.5293588867e+003;3.5069230957e+003;3.5311538086e+003;3.5133332520e+003;3.4898718262e+003;3.5017949219e+003;3.5000000000e+003;3.5197436523e+003;3.5634614258e+003;3.5242307129e+003;3.5633332520e+003;3.5238461914e+003;3.5153845215e+003;
3.4296875000e+000;3.6269230957e+003;3.5098718262e+003;3.4916667480e+003;3.5151281738e+003;3.4939743652e+003;3.4726923828e+003;3.4852563477e+003;3.4839743652e+003;3.5055129395e+003;3.5476923828e+003;3.5053845215e+003;3.5489743652e+003;3.5053845215e+003;3.4970512695e+003;
