Time (s);AF3;F7;F3;FC5;T7;P7;O1;O2;P8;T8;FC6;F4;F8;AF4;Sampling Rate
0.0000000000e+000;4.4051284180e+003;4.5238461914e+003;4.5211538086e+003;4.4966665039e+003;4.5212822266e+003;4.5089741211e+003;4.5089741211e+003;4.4992309570e+003;4.5033334961e+003;4.5120512695e+003;4.5256411133e+003;4.5241025391e+003;4.5133334961e+003;4.5210258789e+003;128
7.8125000000e-003;4.4358974609e+003;4.5471796875e+003;4.5415385742e+003;4.5167949219e+003;4.5489741211e+003;4.5210258789e+003;4.5185898438e+003;4.5330771484e+003;4.5496152344e+003;4.5474360352e+003;4.5605126953e+003;4.5458974609e+003;4.5524360352e+003;4.5485898438e+003;
1.5625000000e-002;4.4273076172e+003;4.5382050781e+003;4.5315385742e+003;4.5083334961e+003;4.5389741211e+003;4.5116665039e+003;4.5078203125e+003;4.5310258789e+003;4.5483334961e+003;4.5415385742e+003;4.5547436523e+003;4.5364101563e+003;4.5458974609e+003;4.5396152344e+003;
2.3437500000e-002;4.4064101563e+003;4.5193588867e+003;4.5112822266e+003;4.4898715820e+003;4.5169228516e+003;4.4932050781e+003;4.4903847656e+003;4.5180771484e+003;4.5351284180e+003;4.5230771484e+003;4.5364101563e+003;4.5151284180e+003;4.5265385742e+003;4.5175639648e+003;
3.1250000000e-002;4.4110258789e+003;4.5293588867e+003;4.5171796875e+003;4.4971796875e+003;4.5241025391e+003;4.5006411133e+003;4.5061538086e+003;4.5388461914e+003;4.5552563477e+003;4.5364101563e+003;4.5438461914e+003;4.5189741211e+003;4.5333334961e+003;4.5179487305e+003;
3.9062500000e-002;4.3250000000e+003;4.4408974609e+003;4.4319228516e+003;4.4180771484e+003;4.4496152344e+003;4.4412822266e+003;4.4370512695e+003;4.4719228516e+003;4.4856411133e+003;4.4541025391e+003;4.4524360352e+003;4.4347436523e+003;4.4430771484e+003;4.4335898438e+003;
4.6875000000e-002;4.2910258789e+003;4.4071796875e+003;4.3964101563e+003;4.3869228516e+003;4.4187177734e+003;4.4184614258e+003;4.4105126953e+003;4.4373076172e+003;4.4485898438e+003;4.4125639648e+003;4.4156411133e+003;4.3967949219e+003;4.4062822266e+003;4.3991025391e+003;
5.4687500000e-002;4.2946152344e+003;4.4124360352e+003;4.3978203125e+003;4.3915385742e+003;4.4252563477e+003;4.4285898438e+003;4.4193588867e+003;4.4391025391e+003;4.4479487305e+003;4.4117949219e+003;4.4188461914e+003;4.3965385742e+003;4.4088461914e+003;4.4017949219e+003;
6.2500000000e-002;4.3139741211e+003;4.4335898438e+003;4.4157690430e+003;4.4110258789e+003;4.4470512695e+003;4.4512822266e+003;4.4414101563e+003;4.4578203125e+003;4.4646152344e+003;4.4323076172e+003;4.4393588867e+003;4.4151284180e+003;4.4287177734e+003;4.4211538086e+003;
7.0312500000e-002;4.3348715820e+003;4.4497436523e+003;4.4308974609e+003;4.4250000000e+003;4.4612822266e+003;4.4707690430e+003;4.4619228516e+003;4.4553847656e+003;4.4585898438e+003;4.4352563477e+003;4.4438461914e+003;4.4305126953e+003;4.4448715820e+003;4.4382050781e+003;
7.8125000000e-002;4.3696152344e+003;4.4834614258e+003;4.4653847656e+003;4.4562822266e+003;4.4911538086e+003;4.4992309570e+003;4.4930771484e+003;4.4826923828e+003;4.4844873047e+003;4.4634614258e+003;4.4775639648e+003;4.4644873047e+003;4.4775639648e+003;4.4730771484e+003;
8.5937500000e-002;4.4191025391e+003;4.5287177734e+003;4.5161538086e+003;4.4988461914e+003;4.5260258789e+003;4.5269228516e+003;4.5258974609e+003;4.5121796875e+003;4.5060258789e+003;4.4989741211e+003;4.5221796875e+003;4.5142309570e+003;4.5141025391e+003;4.5173076172e+003;
9.3750000000e-002;4.4675639648e+003;4.5769228516e+003;4.5611538086e+003;4.5421796875e+003;4.5712822266e+003;4.5646152344e+003;4.5652563477e+003;4.5520512695e+003;4.5469228516e+003;4.5444873047e+003;4.5674360352e+003;4.5594873047e+003;4.5617949219e+003;4.5624360352e+003;
1.0156250000e-001;4.5341025391e+003;4.6476923828e+003;4.6276923828e+003;4.6039741211e+003;4.6338461914e+003;4.6174360352e+003;4.6189741211e+003;4.6124360352e+003;4.6132050781e+003;4.6189741211e+003;4.6392309570e+003;4.6292309570e+003;4.6369228516e+003;4.6315385742e+003;
1.0937500000e-001;4.4971796875e+003;4.6152563477e+003;4.5984614258e+003;4.5734614258e+003;4.5882050781e+003;4.5606411133e+003;4.5594873047e+003;4.5711538086e+003;4.5861538086e+003;4.5973076172e+003;4.6175639648e+003;4.6003847656e+003;4.6108974609e+003;4.6064101563e+003;
1.1718750000e-001;4.4732050781e+003;4.5884614258e+003;4.5732050781e+003;4.5482050781e+003;4.5597436523e+003;4.5348715820e+003;4.5310258789e+003;4.5533334961e+003;4.5721796875e+003;4.5755126953e+003;4.5957690430e+003;4.5793588867e+003;4.5902563477e+003;4.5842309570e+003;
1.2500000000e-001;4.4265385742e+003;4.5367949219e+003;4.5251284180e+003;4.5015385742e+003;4.5088461914e+003;4.4906411133e+003;4.4848715820e+003;4.5147436523e+003;4.5348715820e+003;4.5282050781e+003;4.5491025391e+003;4.5346152344e+003;4.5441025391e+003;4.5373076172e+003;
1.3281250000e-001;4.3883334961e+003;4.4939741211e+003;4.4853847656e+003;4.4641025391e+003;4.4689741211e+003;4.4558974609e+003;4.4500000000e+003;4.4838461914e+003;4.5025639648e+003;4.4880771484e+003;4.5089741211e+003;4.4955126953e+003;4.5034614258e+003;4.4975639648e+003;
1.4062500000e-001;4.3921796875e+003;4.5026923828e+003;4.4914101563e+003;4.4779487305e+003;4.4897436523e+003;4.4802563477e+003;4.4728203125e+003;4.5129487305e+003;4.5225639648e+003;4.5011538086e+003;4.5101284180e+003;4.4934614258e+003;4.5067949219e+003;4.5084614258e+003;
1.4843750000e-001;4.3689741211e+003;4.4776923828e+003;4.4664101563e+003;4.4558974609e+003;4.4667949219e+003;4.4664101563e+003;4.4591025391e+003;4.4921796875e+003;4.4998715820e+003;4.4751284180e+003;4.4847436523e+003;4.4679487305e+003;4.4826923828e+003;4.4832050781e+003;
1.5625000000e-001;4.3098715820e+003;4.4080771484e+003;4.3982050781e+003;4.3923076172e+003;4.4023076172e+003;4.4196152344e+003;4.4169228516e+003;4.4373076172e+003;4.4355126953e+003;4.4114101563e+003;4.4187177734e+003;4.4038461914e+003;4.4138461914e+003;4.4147436523e+003;
1.6406250000e-001;4.1911538086e+003;4.2739741211e+003;4.2737177734e+003;4.2728203125e+003;4.2757690430e+003;4.3051284180e+003;4.2955126953e+003;4.3012822266e+003;4.2955126953e+003;4.2642309570e+003;4.2812822266e+003;4.2708974609e+003;4.2770512695e+003;4.2874360352e+003;
1.7187500000e-001;4.2038461914e+003;4.2829487305e+003;4.2842309570e+003;4.2821796875e+003;4.2830771484e+003;4.3112822266e+003;4.3024360352e+003;4.3038461914e+003;4.2983334961e+003;4.2678203125e+003;4.2894873047e+003;4.2782050781e+003;4.2832050781e+003;4.2964101563e+003;
1.7968750000e-001;4.2189741211e+003;4.2817949219e+003;4.2889741211e+003;4.2862822266e+003;4.2729487305e+003;4.2984614258e+003;4.2932050781e+003;4.2838461914e+003;4.2766665039e+003;4.2558974609e+003;4.2846152344e+003;4.2814101563e+003;4.2788461914e+003;4.2957690430e+003;
1.8750000000e-001;4.3141025391e+003;4.3758974609e+003;4.3761538086e+003;4.3723076172e+003;4.3679487305e+003;4.3739741211e+003;4.3665385742e+003;4.3603847656e+003;4.3579487305e+003;4.3465385742e+003;4.3751284180e+003;4.3735898438e+003;4.3756411133e+003;4.3860258789e+003;
1.9531250000e-001;4.3096152344e+003;4.3730771484e+003;4.3741025391e+003;4.3694873047e+003;4.3642309570e+003;4.3684614258e+003;4.3594873047e+003;4.3550000000e+003;4.3543588867e+003;4.3461538086e+003;4.3747436523e+003;4.3734614258e+003;4.3738461914e+003;4.3852563477e+003;
2.0312500000e-001;4.3556411133e+003;4.4156411133e+003;4.4152563477e+003;4.4082050781e+003;4.4008974609e+003;4.3944873047e+003;4.3905126953e+003;4.3871796875e+003;4.3908974609e+003;4.3893588867e+003;4.4165385742e+003;4.4125639648e+003;4.4211538086e+003;4.4298715820e+003;
2.1093750000e-001;4.3802563477e+003;4.4397436523e+003;4.4391025391e+003;4.4301284180e+003;4.4229487305e+003;4.4142309570e+003;4.4097436523e+003;4.4157690430e+003;4.4208974609e+003;4.4196152344e+003;4.4421796875e+003;4.4360258789e+003;4.4483334961e+003;4.4555126953e+003;
2.1875000000e-001;4.3347436523e+003;4.3952563477e+003;4.3983334961e+003;4.3894873047e+003;4.3775639648e+003;4.3720512695e+003;4.3624360352e+003;4.3864101563e+003;4.3946152344e+003;4.3867949219e+003;4.4039741211e+003;4.3924360352e+003;4.4066665039e+003;4.4143588867e+003;
2.2656250000e-001;4.3173076172e+003;4.3775639648e+003;4.3810258789e+003;4.3738461914e+003;4.3610258789e+003;4.3544873047e+003;4.3442309570e+003;4.3737177734e+003;4.3847436523e+003;4.3712822266e+003;4.3880771484e+003;4.3735898438e+003;4.3880771484e+003;4.3953847656e+003;
2.3437500000e-001;4.3129487305e+003;4.3675639648e+003;4.3712822266e+003;4.3642309570e+003;4.3591025391e+003;4.3505126953e+003;4.3438461914e+003;4.3875639648e+003;4.4011538086e+003;4.3756411133e+003;4.3817949219e+003;4.3689741211e+003;4.3796152344e+003;4.3843588867e+003;
2.4218750000e-001;4.2866665039e+003;4.3402563477e+003;4.3444873047e+003;4.3378203125e+003;4.3361538086e+003;4.3324360352e+003;4.3269228516e+003;4.3680771484e+003;4.3793588867e+003;4.3511538086e+003;4.3552563477e+003;4.3435898438e+003;4.3541025391e+003;4.3582050781e+003;
2.5000000000e-001;4.2800000000e+003;4.3339741211e+003;4.3366665039e+003;4.3312822266e+003;4.3334614258e+003;4.3343588867e+003;4.3292309570e+003;4.3657690430e+003;4.3742309570e+003;4.3447436523e+003;4.3497436523e+003;4.3369228516e+003;4.3488461914e+003;4.3521796875e+003;
2.5781250000e-001;4.2978203125e+003;4.3526923828e+003;4.3533334961e+003;4.3493588867e+003;4.3537177734e+003;4.3588461914e+003;4.3525639648e+003;4.3866665039e+003;4.3924360352e+003;4.3633334961e+003;4.3694873047e+003;4.3550000000e+003;4.3678203125e+003;4.3708974609e+003;
2.6562500000e-001;4.2538461914e+003;4.3051284180e+003;4.3143588867e+003;4.3132050781e+003;4.3133334961e+003;4.3300000000e+003;4.3251284180e+003;4.3367949219e+003;4.3316665039e+003;4.3030771484e+003;4.3053847656e+003;4.3019228516e+003;4.3055126953e+003;4.3125639648e+003;
2.7343750000e-001;4.2624360352e+003;4.3175639648e+003;4.3238461914e+003;4.3215385742e+003;4.3262822266e+003;4.3393588867e+003;4.3360258789e+003;4.3408974609e+003;4.3329487305e+003;4.3061538086e+003;4.3093588867e+003;4.3064101563e+003;4.3124360352e+003;4.3176923828e+003;
2.8125000000e-001;4.2705126953e+003;4.3244873047e+003;4.3330771484e+003;4.3271796875e+003;4.3296152344e+003;4.3460258789e+003;4.3319228516e+003;4.3314101563e+003;4.3144873047e+003;4.2973076172e+003;4.3147436523e+003;4.3151284180e+003;4.3166665039e+003;4.3253847656e+003;
2.8906250000e-001;4.3376923828e+003;4.3841025391e+003;4.3942309570e+003;4.3856411133e+003;4.3875639648e+003;4.3934614258e+003;4.3839741211e+003;4.3729487305e+003;4.3529487305e+003;4.3494873047e+003;4.3725639648e+003;4.3716665039e+003;4.3787177734e+003;4.3870512695e+003;
2.9687500000e-001;4.3415385742e+003;4.3869228516e+003;4.3964101563e+003;4.3878203125e+003;4.3903847656e+003;4.3933334961e+003;4.3853847656e+003;4.3752563477e+003;4.3550000000e+003;4.3547436523e+003;4.3756411133e+003;4.3758974609e+003;4.3825639648e+003;4.3916665039e+003;
3.0468750000e-001;4.3132050781e+003;4.3515385742e+003;4.3646152344e+003;4.3501284180e+003;4.3524360352e+003;4.3484614258e+003;4.3423076172e+003;4.3388461914e+003;4.3247436523e+003;4.3246152344e+003;4.3482050781e+003;4.3484614258e+003;4.3471796875e+003;4.3641025391e+003;
3.1250000000e-001;4.2544873047e+003;4.2908974609e+003;4.3089741211e+003;4.2969228516e+003;4.2866665039e+003;4.2794873047e+003;4.2689741211e+003;4.2805126953e+003;4.2839741211e+003;4.2760258789e+003;4.2920512695e+003;4.2925639648e+003;4.2901284180e+003;4.3043588867e+003;
3.2031250000e-001;4.2444873047e+003;4.2791025391e+003;4.2951284180e+003;4.2878203125e+003;4.2730771484e+003;4.2676923828e+003;4.2571796875e+003;4.2711538086e+003;4.2788461914e+003;4.2669228516e+003;4.2797436523e+003;4.2797436523e+003;4.2800000000e+003;4.2916665039e+003;
3.2812500000e-001;4.2647436523e+003;4.2992309570e+003;4.3110258789e+003;4.3058974609e+003;4.2911538086e+003;4.2837177734e+003;4.2744873047e+003;4.2947436523e+003;4.3046152344e+003;4.2907690430e+003;4.3005126953e+003;4.2984614258e+003;4.3019228516e+003;4.3120512695e+003;
3.3593750000e-001;4.2919228516e+003;4.3285898438e+003;4.3360258789e+003;4.3283334961e+003;4.3164101563e+003;4.3050000000e+003;4.2966665039e+003;4.3366665039e+003;4.3448715820e+003;4.3289741211e+003;4.3347436523e+003;4.3314101563e+003;4.3342309570e+003;4.3473076172e+003;
3.4375000000e-001;4.2997436523e+003;4.3279487305e+003;4.3429487305e+003;4.3344873047e+003;4.3270512695e+003;4.3220512695e+003;4.3185898438e+003;4.3541025391e+003;4.3603847656e+003;4.3324360352e+003;4.3416665039e+003;4.3366665039e+003;4.3357690430e+003;4.3517949219e+003;
3.5156250000e-001;4.3341025391e+003;4.3614101563e+003;4.3776923828e+003;4.3687177734e+003;4.3658974609e+003;4.3612822266e+003;4.3603847656e+003;4.3932050781e+003;4.4002563477e+003;4.3723076172e+003;4.3791025391e+003;4.3715385742e+003;4.3723076172e+003;4.3865385742e+003;
3.5937500000e-001;4.3426923828e+003;4.3725639648e+003;4.3882050781e+003;4.3796152344e+003;4.3789741211e+003;4.3779487305e+003;4.3769228516e+003;4.4083334961e+003;4.4147436523e+003;4.3885898438e+003;4.3923076172e+003;4.3833334961e+003;4.3848715820e+003;4.3980771484e+003;
3.6718750000e-001;4.3053847656e+003;4.3460258789e+003;4.3532050781e+003;4.3488461914e+003;4.3479487305e+003;4.3588461914e+003;4.3529487305e+003;4.3756411133e+003;4.3757690430e+003;4.3528203125e+003;4.3570512695e+003;4.3443588867e+003;4.3492309570e+003;4.3606411133e+003;
3.7500000000e-001;4.3125639648e+003;4.3570512695e+003;4.3594873047e+003;4.3567949219e+003;4.3579487305e+003;4.3701284180e+003;4.3630771484e+003;4.3801284180e+003;4.3774360352e+003;4.3555126953e+003;4.3620512695e+003;4.3461538086e+003;4.3530771484e+003;4.3634614258e+003;
3.8281250000e-001;4.3293588867e+003;4.3751284180e+003;4.3761538086e+003;4.3742309570e+003;4.3775639648e+003;4.3893588867e+003;4.3819228516e+003;4.3952563477e+003;4.3910258789e+003;4.3702563477e+003;4.3775639648e+003;4.3600000000e+003;4.3670512695e+003;4.3770512695e+003;
3.9062500000e-001;4.2497436523e+003;4.2924360352e+003;4.3001284180e+003;4.3073076172e+003;4.3046152344e+003;4.3166665039e+003;4.3066665039e+003;4.2989741211e+003;4.2860258789e+003;4.2735898438e+003;4.2901284180e+003;4.2844873047e+003;4.2844873047e+003;4.2924360352e+003;
3.9843750000e-001;4.2561538086e+003;4.2971796875e+003;4.3057690430e+003;4.3119228516e+003;4.3083334961e+003;4.3208974609e+003;4.3092309570e+003;4.3003847656e+003;4.2867949219e+003;4.2764101563e+003;4.2958974609e+003;4.2884614258e+003;4.2876923828e+003;4.2958974609e+003;
4.0625000000e-001;4.2105126953e+003;4.2492309570e+003;4.2591025391e+003;4.2623076172e+003;4.2573076172e+003;4.2678203125e+003;4.2537177734e+003;4.2383334961e+003;4.2311538086e+003;4.2205126953e+003;4.2444873047e+003;4.2411538086e+003;4.2366665039e+003;4.2467949219e+003;
4.1406250000e-001;4.1774360352e+003;4.2038461914e+003;4.2170512695e+003;4.2202563477e+003;4.2035898438e+003;4.2120512695e+003;4.1915385742e+003;4.1960258789e+003;4.1924360352e+003;4.1860258789e+003;4.2062822266e+003;4.2121796875e+003;4.2034614258e+003;4.2196152344e+003;
4.2187500000e-001;4.1598715820e+003;4.1785898438e+003;4.1944873047e+003;4.1980771484e+003;4.1750000000e+003;4.1846152344e+003;4.1655126953e+003;4.1735898438e+003;4.1723076172e+003;4.1607690430e+003;4.1850000000e+003;4.1902563477e+003;4.1816665039e+003;4.2000000000e+003;
4.2968750000e-001;4.2212822266e+003;4.2370512695e+003;4.2457690430e+003;4.2433334961e+003;4.2207690430e+003;4.2196152344e+003;4.2130771484e+003;4.2328203125e+003;4.2420512695e+003;4.2205126953e+003;4.2442309570e+003;4.2439741211e+003;4.2348715820e+003;4.2521796875e+003;
4.3750000000e-001;4.1944873047e+003;4.2038461914e+003;4.2197436523e+003;4.2173076172e+003;4.1953847656e+003;4.1988461914e+003;4.1896152344e+003;4.2138461914e+003;4.2175639648e+003;4.1956411133e+003;4.2134614258e+003;4.2203847656e+003;4.2043588867e+003;4.2271796875e+003;
4.4531250000e-001;4.2111538086e+003;4.2193588867e+003;4.2347436523e+003;4.2355126953e+003;4.2129487305e+003;4.2170512695e+003;4.2076923828e+003;4.2338461914e+003;4.2369228516e+003;4.2132050781e+003;4.2301284180e+003;4.2360258789e+003;4.2233334961e+003;4.2455126953e+003;
4.5312500000e-001;4.2160258789e+003;4.2255126953e+003;4.2391025391e+003;4.2429487305e+003;4.2193588867e+003;4.2261538086e+003;4.2170512695e+003;4.2452563477e+003;4.2480771484e+003;4.2223076172e+003;4.2374360352e+003;4.2414101563e+003;4.2310258789e+003;4.2523076172e+003;
4.6093750000e-001;4.1843588867e+003;4.1984614258e+003;4.2079487305e+003;4.2147436523e+003;4.1955126953e+003;4.2100000000e+003;4.2026923828e+003;4.2239741211e+003;4.2237177734e+003;4.1953847656e+003;4.2092309570e+003;4.2100000000e+003;4.1991025391e+003;4.2200000000e+003;
4.6875000000e-001;4.2012822266e+003;4.2178203125e+003;4.2235898438e+003;4.2305126953e+003;4.2189741211e+003;4.2323076172e+003;4.2264101563e+003;4.2415385742e+003;4.2389741211e+003;4.2126923828e+003;4.2265385742e+003;4.2246152344e+003;4.2153847656e+003;4.2344873047e+003;
4.7656250000e-001;4.2453847656e+003;4.2639741211e+003;4.2664101563e+003;4.2726923828e+003;4.2687177734e+003;4.2784614258e+003;4.2737177734e+003;4.2864101563e+003;4.2821796875e+003;4.2596152344e+003;4.2716665039e+003;4.2664101563e+003;4.2608974609e+003;4.2771796875e+003;
4.8437500000e-001;4.2497436523e+003;4.2698715820e+003;4.2773076172e+003;4.2796152344e+003;4.2748715820e+003;4.2897436523e+003;4.2808974609e+003;4.2835898438e+003;4.2843588867e+003;4.2610258789e+003;4.2771796875e+003;4.2685898438e+003;4.2638461914e+003;4.2811538086e+003;
4.9218750000e-001;4.2485898438e+003;4.2726923828e+003;4.2782050781e+003;4.2823076172e+003;4.2771796875e+003;4.2915385742e+003;4.2800000000e+003;4.2805126953e+003;4.2824360352e+003;4.2617949219e+003;4.2814101563e+003;4.2719228516e+003;4.2655126953e+003;4.2839741211e+003;
5.0000000000e-001;4.2155126953e+003;4.2391025391e+003;4.2465385742e+003;4.2528203125e+003;4.2416665039e+003;4.2593588867e+003;4.2469228516e+003;4.2364101563e+003;4.2391025391e+003;4.2226923828e+003;4.2498715820e+003;4.2415385742e+003;4.2325639648e+003;4.2517949219e+003;
5.0781250000e-001;4.2335898438e+003;4.2546152344e+003;4.2611538086e+003;4.2656411133e+003;4.2546152344e+003;4.2693588867e+003;4.2597436523e+003;4.2428203125e+003;4.2457690430e+003;4.2314101563e+003;4.2624360352e+003;4.2543588867e+003;4.2469228516e+003;4.2662822266e+003;
5.1562500000e-001;4.3480771484e+003;4.3706411133e+003;4.3703847656e+003;4.3678203125e+003;4.3596152344e+003;4.3569228516e+003;4.3505126953e+003;4.3456411133e+003;4.3503847656e+003;4.3469228516e+003;4.3791025391e+003;4.3679487305e+003;4.3644873047e+003;4.3878203125e+003;
5.2343750000e-001;4.3266665039e+003;4.3512822266e+003;4.3511538086e+003;4.3496152344e+003;4.3382050781e+003;4.3352563477e+003;4.3284614258e+003;4.3294873047e+003;4.3346152344e+003;4.3323076172e+003;4.3646152344e+003;4.3510258789e+003;4.3487177734e+003;4.3708974609e+003;
5.3125000000e-001;4.3166665039e+003;4.3406411133e+003;4.3417949219e+003;4.3341025391e+003;4.3239741211e+003;4.3169228516e+003;4.3183334961e+003;4.3344873047e+003;4.3384614258e+003;4.3328203125e+003;4.3593588867e+003;4.3443588867e+003;4.3469228516e+003;4.3624360352e+003;
5.3906250000e-001;4.3206411133e+003;4.3408974609e+003;4.3456411133e+003;4.3353847656e+003;4.3257690430e+003;4.3193588867e+003;4.3217949219e+003;4.3461538086e+003;4.3492309570e+003;4.3396152344e+003;4.3620512695e+003;4.3503847656e+003;4.3511538086e+003;4.3673076172e+003;
5.4687500000e-001;4.3191025391e+003;4.3319228516e+003;4.3417949219e+003;4.3364101563e+003;4.3275639648e+003;4.3224360352e+003;4.3251284180e+003;4.3606411133e+003;4.3662822266e+003;4.3448715820e+003;4.3605126953e+003;4.3482050781e+003;4.3494873047e+003;4.3637177734e+003;
5.5468750000e-001;4.3305126953e+003;4.3429487305e+003;4.3526923828e+003;4.3500000000e+003;4.3438461914e+003;4.3371796875e+003;4.3405126953e+003;4.3806411133e+003;4.3882050781e+003;4.3635898438e+003;4.3737177734e+003;4.3574360352e+003;4.3615385742e+003;4.3730771484e+003;
5.6250000000e-001;4.2578203125e+003;4.2746152344e+003;4.2883334961e+003;4.2838461914e+003;4.2750000000e+003;4.2842309570e+003;4.2826923828e+003;4.3250000000e+003;4.3251284180e+003;4.3038461914e+003;4.3029487305e+003;4.2878203125e+003;4.2874360352e+003;4.3002563477e+003;
5.7031250000e-001;4.2438461914e+003;4.2614101563e+003;4.2691025391e+003;4.2698715820e+003;4.2601284180e+003;4.2770512695e+003;4.2767949219e+003;4.3007690430e+003;4.2982050781e+003;4.2744873047e+003;4.2852563477e+003;4.2715385742e+003;4.2726923828e+003;4.2837177734e+003;
5.7812500000e-001;4.2276923828e+003;4.2428203125e+003;4.2507690430e+003;4.2546152344e+003;4.2450000000e+003;4.2644873047e+003;4.2617949219e+003;4.2815385742e+003;4.2797436523e+003;4.2553847656e+003;4.2675639648e+003;4.2537177734e+003;4.2547436523e+003;4.2664101563e+003;
5.8593750000e-001;4.1969228516e+003;4.2091025391e+003;4.2180771484e+003;4.2247436523e+003;4.2148715820e+003;4.2385898438e+003;4.2321796875e+003;4.2448715820e+003;4.2435898438e+003;4.2188461914e+003;4.2321796875e+003;4.2191025391e+003;4.2192309570e+003;4.2323076172e+003;
5.9375000000e-001;4.1853847656e+003;4.1960258789e+003;4.2046152344e+003;4.2126923828e+003;4.2037177734e+003;4.2301284180e+003;4.2207690430e+003;4.2247436523e+003;4.2239741211e+003;4.2000000000e+003;4.2142309570e+003;4.2017949219e+003;4.2017949219e+003;4.2157690430e+003;
6.0156250000e-001;4.2519228516e+003;4.2701284180e+003;4.2743588867e+003;4.2797436523e+003;4.2721796875e+003;4.2948715820e+003;4.2861538086e+003;4.2733334961e+003;4.2714101563e+003;4.2535898438e+003;4.2705126953e+003;4.2643588867e+003;4.2550000000e+003;4.2766665039e+003;
6.0937500000e-001;4.2384614258e+003;4.2546152344e+003;4.2602563477e+003;4.2662822266e+003;4.2573076172e+003;4.2779487305e+003;4.2703847656e+003;4.2525639648e+003;4.2478203125e+003;4.2317949219e+003;4.2532050781e+003;4.2493588867e+003;4.2384614258e+003;4.2616665039e+003;
6.1718750000e-001;4.2596152344e+003;4.2651284180e+003;4.2783334961e+003;4.2774360352e+003;4.2641025391e+003;4.2760258789e+003;4.2671796875e+003;4.2524360352e+003;4.2494873047e+003;4.2444873047e+003;4.2683334961e+003;4.2703847656e+003;4.2580771484e+003;4.2800000000e+003;
6.2500000000e-001;4.2782050781e+003;4.2788461914e+003;4.2939741211e+003;4.2896152344e+003;4.2702563477e+003;4.2711538086e+003;4.2689741211e+003;4.2639741211e+003;4.2679487305e+003;4.2612822266e+003;4.2853847656e+003;4.2867949219e+003;4.2783334961e+003;4.2980771484e+003;
6.3281250000e-001;4.3232050781e+003;4.3235898438e+003;4.3355126953e+003;4.3279487305e+003;4.3119228516e+003;4.3039741211e+003;4.3055126953e+003;4.3076923828e+003;4.3130771484e+003;4.3076923828e+003;4.3310258789e+003;4.3305126953e+003;4.3241025391e+003;4.3429487305e+003;
6.4062500000e-001;4.3367949219e+003;4.3333334961e+003;4.3492309570e+003;4.3328203125e+003;4.3142309570e+003;4.3051284180e+003;4.3110258789e+003;4.3311538086e+003;4.3328203125e+003;4.3301284180e+003;4.3455126953e+003;4.3502563477e+003;4.3384614258e+003;4.3591025391e+003;
6.4843750000e-001;4.3406411133e+003;4.3366665039e+003;4.3539741211e+003;4.3379487305e+003;4.3182050781e+003;4.3080771484e+003;4.3148715820e+003;4.3403847656e+003;4.3411538086e+003;4.3365385742e+003;4.3505126953e+003;4.3542309570e+003;4.3438461914e+003;4.3624360352e+003;
6.5625000000e-001;4.2939741211e+003;4.2961538086e+003;4.3100000000e+003;4.3025639648e+003;4.2801284180e+003;4.2725639648e+003;4.2758974609e+003;4.3098715820e+003;4.3130771484e+003;4.2942309570e+003;4.3096152344e+003;4.3061538086e+003;4.2998715820e+003;4.3157690430e+003;
6.6406250000e-001;4.2897436523e+003;4.3011538086e+003;4.3038461914e+003;4.3052563477e+003;4.2942309570e+003;4.2960258789e+003;4.2980771484e+003;4.3108974609e+003;4.3139741211e+003;4.2875639648e+003;4.3019228516e+003;4.2948715820e+003;4.2892309570e+003;4.3106411133e+003;
6.7187500000e-001;4.3001284180e+003;4.3148715820e+003;4.3157690430e+003;4.3187177734e+003;4.3134614258e+003;4.3167949219e+003;4.3157690430e+003;4.3284614258e+003;4.3308974609e+003;4.3056411133e+003;4.3167949219e+003;4.3103847656e+003;4.3030771484e+003;4.3243588867e+003;
6.7968750000e-001;4.2810258789e+003;4.2982050781e+003;4.2992309570e+003;4.3035898438e+003;4.3015385742e+003;4.3085898438e+003;4.3030771484e+003;4.3143588867e+003;4.3160258789e+003;4.2916665039e+003;4.3011538086e+003;4.2964101563e+003;4.2865385742e+003;4.3074360352e+003;
6.8750000000e-001;4.2500000000e+003;4.2706411133e+003;4.2687177734e+003;4.2751284180e+003;4.2770512695e+003;4.2903847656e+003;4.2783334961e+003;4.2774360352e+003;4.2783334961e+003;4.2555126953e+003;4.2671796875e+003;4.2625639648e+003;4.2538461914e+003;4.2726923828e+003;
6.9531250000e-001;4.2779487305e+003;4.2942309570e+003;4.2932050781e+003;4.2988461914e+003;4.3038461914e+003;4.3192309570e+003;4.3042309570e+003;4.2923076172e+003;4.2925639648e+003;4.2758974609e+003;4.2882050781e+003;4.2832050781e+003;4.2801284180e+003;4.2944873047e+003;
7.0312500000e-001;4.2706411133e+003;4.2828203125e+003;4.2847436523e+003;4.2905126953e+003;4.2951284180e+003;4.3096152344e+003;4.2962822266e+003;4.2789741211e+003;4.2793588867e+003;4.2630771484e+003;4.2787177734e+003;4.2744873047e+003;4.2712822266e+003;4.2852563477e+003;
7.1093750000e-001;4.2796152344e+003;4.2900000000e+003;4.2928203125e+003;4.2979487305e+003;4.3020512695e+003;4.3130771484e+003;4.3029487305e+003;4.2819228516e+003;4.2819228516e+003;4.2671796875e+003;4.2862822266e+003;4.2825639648e+003;4.2789741211e+003;4.2930771484e+003;
7.1875000000e-001;4.2982050781e+003;4.3098715820e+003;4.3130771484e+003;4.3164101563e+003;4.3187177734e+003;4.3258974609e+003;4.3182050781e+003;4.2982050781e+003;4.2971796875e+003;4.2855126953e+003;4.3056411133e+003;4.3033334961e+003;4.2984614258e+003;4.3132050781e+003;
7.2656250000e-001;4.3119228516e+003;4.3189741211e+003;4.3352563477e+003;4.3267949219e+003;4.3257690430e+003;4.3246152344e+003;4.3176923828e+003;4.3020512695e+003;4.2962822266e+003;4.2953847656e+003;4.3169228516e+003;4.3207690430e+003;4.3138461914e+003;4.3292309570e+003;
7.3437500000e-001;4.3661538086e+003;4.3733334961e+003;4.3887177734e+003;4.3762822266e+003;4.3792309570e+003;4.3714101563e+003;4.3664101563e+003;4.3552563477e+003;4.3488461914e+003;4.3514101563e+003;4.3747436523e+003;4.3752563477e+003;4.3705126953e+003;4.3855126953e+003;
7.4218750000e-001;4.3735898438e+003;4.3871796875e+003;4.4008974609e+003;4.3889741211e+003;4.3850000000e+003;4.3741025391e+003;4.3714101563e+003;4.3869228516e+003;4.3792309570e+003;4.3797436523e+003;4.3974360352e+003;4.3985898438e+003;4.3862822266e+003;4.4044873047e+003;
7.5000000000e-001;4.3597436523e+003;4.3703847656e+003;4.3824360352e+003;4.3716665039e+003;4.3710258789e+003;4.3546152344e+003;4.3532050781e+003;4.3833334961e+003;4.3850000000e+003;4.3708974609e+003;4.3817949219e+003;4.3802563477e+003;4.3724360352e+003;4.3810258789e+003;
7.5781250000e-001;4.3348715820e+003;4.3446152344e+003;4.3579487305e+003;4.3489741211e+003;4.3444873047e+003;4.3321796875e+003;4.3285898438e+003;4.3629487305e+003;4.3650000000e+003;4.3487177734e+003;4.3582050781e+003;4.3556411133e+003;4.3487177734e+003;4.3565385742e+003;
7.6562500000e-001;4.3551284180e+003;4.3717949219e+003;4.3766665039e+003;4.3747436523e+003;4.3683334961e+003;4.3529487305e+003;4.3550000000e+003;4.3805126953e+003;4.3814101563e+003;4.3638461914e+003;4.3756411133e+003;4.3698715820e+003;4.3657690430e+003;4.3738461914e+003;
7.7343750000e-001;4.3941025391e+003;4.4138461914e+003;4.4171796875e+003;4.4116665039e+003;4.4105126953e+003;4.3925639648e+003;4.3958974609e+003;4.4187177734e+003;4.4211538086e+003;4.4037177734e+003;4.4143588867e+003;4.4101284180e+003;4.4041025391e+003;4.4114101563e+003;
7.8125000000e-001;4.3665385742e+003;4.3889741211e+003;4.3962822266e+003;4.3889741211e+003;4.3938461914e+003;4.3900000000e+003;4.3900000000e+003;4.3965385742e+003;4.3974360352e+003;4.3783334961e+003;4.3883334961e+003;4.3908974609e+003;4.3815385742e+003;4.3842309570e+003;
7.8906250000e-001;4.3701284180e+003;4.3964101563e+003;4.4011538086e+003;4.3969228516e+003;4.4046152344e+003;4.4019228516e+003;4.4024360352e+003;4.4038461914e+003;4.4035898438e+003;4.3862822266e+003;4.3966665039e+003;4.3976923828e+003;4.3900000000e+003;4.3911538086e+003;
7.9687500000e-001;4.3551284180e+003;4.3875639648e+003;4.3929487305e+003;4.3889741211e+003;4.3991025391e+003;4.4006411133e+003;4.3994873047e+003;4.3952563477e+003;4.3952563477e+003;4.3814101563e+003;4.3919228516e+003;4.3911538086e+003;4.3823076172e+003;4.3856411133e+003;
8.0468750000e-001;4.3224360352e+003;4.3537177734e+003;4.3617949219e+003;4.3567949219e+003;4.3647436523e+003;4.3710258789e+003;4.3687177734e+003;4.3593588867e+003;4.3597436523e+003;4.3458974609e+003;4.3583334961e+003;4.3585898438e+003;4.3487177734e+003;4.3541025391e+003;
8.1250000000e-001;4.3055126953e+003;4.3283334961e+003;4.3355126953e+003;4.3335898438e+003;4.3325639648e+003;4.3417949219e+003;4.3416665039e+003;4.3229487305e+003;4.3184614258e+003;4.3107690430e+003;4.3287177734e+003;4.3316665039e+003;4.3237177734e+003;4.3315385742e+003;
8.2031250000e-001;4.1976923828e+003;4.2182050781e+003;4.2326923828e+003;4.2389741211e+003;4.2221796875e+003;4.2400000000e+003;4.2382050781e+003;4.2179487305e+003;4.2073076172e+003;4.1955126953e+003;4.2226923828e+003;4.2308974609e+003;4.2143588867e+003;4.2305126953e+003;
8.2812500000e-001;4.1893588867e+003;4.2085898438e+003;4.2221796875e+003;4.2301284180e+003;4.2134614258e+003;4.2294873047e+003;4.2280771484e+003;4.2089741211e+003;4.2010258789e+003;4.1865385742e+003;4.2144873047e+003;4.2212822266e+003;4.2079487305e+003;4.2217949219e+003;
8.3593750000e-001;4.1960258789e+003;4.2138461914e+003;4.2248715820e+003;4.2339741211e+003;4.2184614258e+003;4.2311538086e+003;4.2296152344e+003;4.2152563477e+003;4.2110258789e+003;4.1950000000e+003;4.2210258789e+003;4.2258974609e+003;4.2169228516e+003;4.2269228516e+003;
8.4375000000e-001;4.1941025391e+003;4.2102563477e+003;4.2198715820e+003;4.2300000000e+003;4.2133334961e+003;4.2244873047e+003;4.2219228516e+003;4.2132050781e+003;4.2115385742e+003;4.1946152344e+003;4.2184614258e+003;4.2223076172e+003;4.2158974609e+003;4.2221796875e+003;
8.5156250000e-001;4.1921796875e+003;4.2008974609e+003;4.2137177734e+003;4.2226923828e+003;4.1984614258e+003;4.2026923828e+003;4.2011538086e+003;4.2123076172e+003;4.2141025391e+003;4.1865385742e+003;4.2098715820e+003;4.2133334961e+003;4.2033334961e+003;4.2061538086e+003;
8.5937500000e-001;4.1633334961e+003;4.1687177734e+003;4.1842309570e+003;4.1939741211e+003;4.1671796875e+003;4.1710258789e+003;4.1689741211e+003;4.1875639648e+003;4.1926923828e+003;4.1621796875e+003;4.1812822266e+003;4.1850000000e+003;4.1734614258e+003;4.1780771484e+003;
8.6718750000e-001;4.0684614258e+003;4.0665385742e+003;4.0829487305e+003;4.0955129395e+003;4.0617949219e+003;4.0696154785e+003;4.0634614258e+003;4.0858974609e+003;4.0952563477e+003;4.0601281738e+003;4.0765385742e+003;4.0806411133e+003;4.0717949219e+003;4.0761538086e+003;
8.7500000000e-001;4.0746154785e+003;4.0673076172e+003;4.0875642090e+003;4.0991025391e+003;4.0706411133e+003;4.0860256348e+003;4.0743588867e+003;4.0970512695e+003;4.0997436523e+003;4.0650000000e+003;4.0824357910e+003;4.0858974609e+003;4.0775642090e+003;4.0811538086e+003;
8.8281250000e-001;4.0421794434e+003;4.0303845215e+003;4.0526923828e+003;4.0689743652e+003;4.0398718262e+003;4.0617949219e+003;4.0496154785e+003;4.0682050781e+003;4.0679487305e+003;4.0294870605e+003;4.0455129395e+003;4.0496154785e+003;4.0415385742e+003;4.0471794434e+003;
8.9062500000e-001;4.0535898438e+003;4.0355129395e+003;4.0567949219e+003;4.0816667480e+003;4.0534614258e+003;4.0869230957e+003;4.0797436523e+003;4.0793588867e+003;4.0720512695e+003;4.0320512695e+003;4.0441025391e+003;4.0443588867e+003;4.0366667480e+003;4.0475642090e+003;
8.9843750000e-001;4.0488461914e+003;4.0276923828e+003;4.0501281738e+003;4.0760256348e+003;4.0470512695e+003;4.0832050781e+003;4.0779487305e+003;4.0706411133e+003;4.0616667480e+003;4.0220512695e+003;4.0378205566e+003;4.0375642090e+003;4.0266667480e+003;4.0384614258e+003;
9.0625000000e-001;3.9821794434e+003;3.9514101563e+003;3.9743588867e+003;4.0003845215e+003;3.9705129395e+003;4.0105129395e+003;4.0044870605e+003;3.9887180176e+003;3.9739743652e+003;3.9400000000e+003;3.9701281738e+003;3.9707692871e+003;3.9589743652e+003;3.9691025391e+003;
9.1406250000e-001;3.9287180176e+003;3.8943588867e+003;3.9202563477e+003;3.9460256348e+003;3.9108974609e+003;3.9571794434e+003;3.9471794434e+003;3.9314101563e+003;3.9138461914e+003;3.8844870605e+003;3.9144870605e+003;3.9175642090e+003;3.9043588867e+003;3.9166667480e+003;
9.2187500000e-001;3.8210256348e+003;3.7738461914e+003;3.8070512695e+003;3.8384614258e+003;3.7902563477e+003;3.8466667480e+003;3.8305129395e+003;3.8061538086e+003;3.7856411133e+003;3.7584614258e+003;3.7916667480e+003;3.7996154785e+003;3.7812819824e+003;3.7992307129e+003;
9.2968750000e-001;3.8151281738e+003;3.7611538086e+003;3.7942307129e+003;3.8311538086e+003;3.7806411133e+003;3.8337180176e+003;3.8179487305e+003;3.7896154785e+003;3.7708974609e+003;3.7419230957e+003;3.7779487305e+003;3.7870512695e+003;3.7687180176e+003;3.7861538086e+003;
9.3750000000e-001;3.8041025391e+003;3.7367949219e+003;3.7710256348e+003;3.8152563477e+003;3.7607692871e+003;3.8074357910e+003;3.7915385742e+003;3.7708974609e+003;3.7582050781e+003;3.7274357910e+003;3.7610256348e+003;3.7735898438e+003;3.7591025391e+003;3.7723076172e+003;
9.4531250000e-001;3.7952563477e+003;3.7258974609e+003;3.7611538086e+003;3.8023076172e+003;3.7471794434e+003;3.7941025391e+003;3.7776923828e+003;3.7598718262e+003;3.7493588867e+003;3.7180769043e+003;3.7511538086e+003;3.7606411133e+003;3.7476923828e+003;3.7614101563e+003;
9.5312500000e-001;3.8632050781e+003;3.7919230957e+003;3.8219230957e+003;3.8573076172e+003;3.8053845215e+003;3.8405129395e+003;3.8248718262e+003;3.8217949219e+003;3.8221794434e+003;3.7874357910e+003;3.8194870605e+003;3.8170512695e+003;3.8074357910e+003;3.8205129395e+003;
9.6093750000e-001;3.8925642090e+003;3.8198718262e+003;3.8462819824e+003;3.8832050781e+003;3.8310256348e+003;3.8593588867e+003;3.8455129395e+003;3.8521794434e+003;3.8579487305e+003;3.8197436523e+003;3.8493588867e+003;3.8447436523e+003;3.8357692871e+003;3.8483332520e+003;
9.6875000000e-001;3.9087180176e+003;3.8348718262e+003;3.8579487305e+003;3.8992307129e+003;3.8456411133e+003;3.8698718262e+003;3.8596154785e+003;3.8698718262e+003;3.8788461914e+003;3.8367949219e+003;3.8643588867e+003;3.8606411133e+003;3.8532050781e+003;3.8648718262e+003;
9.7656250000e-001;3.9526923828e+003;3.8805129395e+003;3.8988461914e+003;3.9432050781e+003;3.8911538086e+003;3.9108974609e+003;3.9065385742e+003;3.9132050781e+003;3.9235898438e+003;3.8806411133e+003;3.9061538086e+003;3.9028205566e+003;3.9002563477e+003;3.9092307129e+003;
9.8437500000e-001;4.2767949219e+003;4.2319228516e+003;4.2350000000e+003;4.2523076172e+003;4.2320512695e+003;4.2207690430e+003;4.2206411133e+003;4.2507690430e+003;4.2601284180e+003;4.2487177734e+003;4.2474360352e+003;4.2338461914e+003;4.2412822266e+003;4.2400000000e+003;
9.9218750000e-001;3.8993588867e+003;3.8473076172e+003;3.8583332520e+003;3.8979487305e+003;3.8571794434e+003;3.8824357910e+003;3.8710256348e+003;3.8865385742e+003;3.8919230957e+003;3.8550000000e+003;3.8669230957e+003;3.8624357910e+003;3.8605129395e+003;3.8684614258e+003;
1.0000000000e+000;3.8626923828e+003;3.8075642090e+003;3.8191025391e+003;3.8619230957e+003;3.8166667480e+003;3.8519230957e+003;3.8369230957e+003;3.8441025391e+003;3.8458974609e+003;3.8080769043e+003;3.8230769043e+003;3.8215385742e+003;3.8167949219e+003;3.8274357910e+003;
1.0078125000e+000;3.8352563477e+003;3.7680769043e+003;3.7828205566e+003;3.8278205566e+003;3.7811538086e+003;3.8234614258e+003;3.8087180176e+003;3.7973076172e+003;3.7946154785e+003;3.7593588867e+003;3.7794870605e+003;3.7801281738e+003;3.7741025391e+003;3.7858974609e+003;
1.0156250000e+000;3.8325642090e+003;3.7585898438e+003;3.7761538086e+003;3.8210256348e+003;3.7748718262e+003;3.8161538086e+003;3.8035898438e+003;3.7867949219e+003;3.7825642090e+003;3.7498718262e+003;3.7714101563e+003;3.7714101563e+003;3.7665385742e+003;3.7769230957e+003;
1.0234375000e+000;3.7850000000e+003;3.6912819824e+003;3.7225642090e+003;3.7662819824e+003;3.7075642090e+003;3.7601281738e+003;3.7447436523e+003;3.7171794434e+003;3.6991025391e+003;3.6796154785e+003;3.7089743652e+003;3.7152563477e+003;3.7017949219e+003;3.7166667480e+003;
1.0312500000e+000;3.8182050781e+003;3.7192307129e+003;3.7500000000e+003;3.7919230957e+003;3.7326923828e+003;3.7852563477e+003;3.7708974609e+003;3.7369230957e+003;3.7165385742e+003;3.7011538086e+003;3.7339743652e+003;3.7444870605e+003;3.7291025391e+003;3.7464101563e+003;
1.0390625000e+000;3.9307692871e+003;3.8271794434e+003;3.8521794434e+003;3.8888461914e+003;3.8333332520e+003;3.8741025391e+003;3.8646154785e+003;3.8364101563e+003;3.8262819824e+003;3.8123076172e+003;3.8402563477e+003;3.8555129395e+003;3.8411538086e+003;3.8608974609e+003;
1.0468750000e+000;3.9182050781e+003;3.8150000000e+003;3.8442307129e+003;3.8776923828e+003;3.8225642090e+003;3.8564101563e+003;3.8441025391e+003;3.8260256348e+003;3.8260256348e+003;3.8101281738e+003;3.8351281738e+003;3.8387180176e+003;3.8342307129e+003;3.8439743652e+003;
1.0546875000e+000;3.9569230957e+003;3.8557692871e+003;3.8842307129e+003;3.9137180176e+003;3.8620512695e+003;3.8885898438e+003;3.8787180176e+003;3.8665385742e+003;3.8703845215e+003;3.8541025391e+003;3.8775642090e+003;3.8788461914e+003;3.8774357910e+003;3.8838461914e+003;
1.0625000000e+000;3.9806411133e+003;3.8812819824e+003;3.9098718262e+003;3.9355129395e+003;3.8846154785e+003;3.9056411133e+003;3.8987180176e+003;3.8930769043e+003;3.9001281738e+003;3.8815385742e+003;3.9034614258e+003;3.9060256348e+003;3.9043588867e+003;3.9094870605e+003;
1.0703125000e+000;3.9865385742e+003;3.8888461914e+003;3.9170512695e+003;3.9403845215e+003;3.8885898438e+003;3.9057692871e+003;3.9016667480e+003;3.9010256348e+003;3.9093588867e+003;3.8879487305e+003;3.9085898438e+003;3.9139743652e+003;3.9106411133e+003;3.9155129395e+003;
1.0781250000e+000;4.0008974609e+003;3.9124357910e+003;3.9291025391e+003;3.9611538086e+003;3.9142307129e+003;3.9237180176e+003;3.9184614258e+003;3.9325642090e+003;3.9400000000e+003;3.9174357910e+003;3.9256411133e+003;3.9297436523e+003;3.9287180176e+003;3.9332050781e+003;
1.0859375000e+000;3.9457692871e+003;3.8561538086e+003;3.8728205566e+003;3.9079487305e+003;3.8596154785e+003;3.8778205566e+003;3.8692307129e+003;3.8830769043e+003;3.8907692871e+003;3.8638461914e+003;3.8726923828e+003;3.8769230957e+003;3.8746154785e+003;3.8797436523e+003;
1.0937500000e+000;3.8461538086e+003;3.7521794434e+003;3.7701281738e+003;3.8053845215e+003;3.7547436523e+003;3.7887180176e+003;3.7793588867e+003;3.7866667480e+003;3.7908974609e+003;3.7552563477e+003;3.7697436523e+003;3.7725642090e+003;3.7737180176e+003;3.7773076172e+003;
1.1015625000e+000;3.7585898438e+003;3.6571794434e+003;3.6851281738e+003;3.7223076172e+003;3.6698718262e+003;3.7119230957e+003;3.6967949219e+003;3.6944870605e+003;3.6938461914e+003;3.6597436523e+003;3.6670512695e+003;3.6803845215e+003;3.6766667480e+003;3.6820512695e+003;
1.1093750000e+000;3.7447436523e+003;3.6400000000e+003;3.6669230957e+003;3.7067949219e+003;3.6558974609e+003;3.6978205566e+003;3.6812819824e+003;3.6750000000e+003;3.6737180176e+003;3.6405129395e+003;3.6502563477e+003;3.6625642090e+003;3.6582050781e+003;3.6647436523e+003;
1.1171875000e+000;3.6234614258e+003;3.5021794434e+003;3.5350000000e+003;3.5833332520e+003;3.5202563477e+003;3.5780769043e+003;3.5582050781e+003;3.5380769043e+003;3.5319230957e+003;3.4997436523e+003;3.5252563477e+003;3.5352563477e+003;3.5250000000e+003;3.5391025391e+003;
1.1250000000e+000;3.5802563477e+003;3.4526923828e+003;3.4894870605e+003;3.5396154785e+003;3.4715385742e+003;3.5341025391e+003;3.5151281738e+003;3.4873076172e+003;3.4782050781e+003;3.4458974609e+003;3.4732050781e+003;3.4869230957e+003;3.4761538086e+003;3.4901281738e+003;
1.1328125000e+000;3.5824357910e+003;3.4475642090e+003;3.4858974609e+003;3.5366667480e+003;3.4676923828e+003;3.5271794434e+003;3.5114101563e+003;3.4788461914e+003;3.4648718262e+003;3.4352563477e+003;3.4602563477e+003;3.4798718262e+003;3.4683332520e+003;3.4823076172e+003;
1.1406250000e+000;3.5744870605e+003;3.4358974609e+003;3.4750000000e+003;3.5267949219e+003;3.4566667480e+003;3.5162819824e+003;3.4994870605e+003;3.4679487305e+003;3.4533332520e+003;3.4238461914e+003;3.4492307129e+003;3.4706411133e+003;3.4558974609e+003;3.4728205566e+003;
1.1484375000e+000;3.5024357910e+003;3.3484614258e+003;3.3867949219e+003;3.4492307129e+003;3.3670512695e+003;3.4328205566e+003;3.4117949219e+003;3.3776923828e+003;3.3667949219e+003;3.3335898438e+003;3.3639743652e+003;3.3835898438e+003;3.3692307129e+003;3.3850000000e+003;
1.1562500000e+000;3.5052563477e+003;3.3465385742e+003;3.3838461914e+003;3.4473076172e+003;3.3624357910e+003;3.4276923828e+003;3.4070512695e+003;3.3791025391e+003;3.3702563477e+003;3.3370512695e+003;3.3625642090e+003;3.3811538086e+003;3.3693588867e+003;3.3823076172e+003;
1.1640625000e+000;3.4078205566e+003;3.2276923828e+003;3.2717949219e+003;3.3369230957e+003;3.2412819824e+003;3.3135898438e+003;3.2966667480e+003;3.2846154785e+003;3.2860256348e+003;3.2376923828e+003;3.2564101563e+003;3.2791025391e+003;3.2570512695e+003;3.2802563477e+003;
1.1718750000e+000;3.4010256348e+003;3.2156411133e+003;3.2579487305e+003;3.3250000000e+003;3.2283332520e+003;3.2983332520e+003;3.2833332520e+003;3.2732050781e+003;3.2787180176e+003;3.2252563477e+003;3.2457692871e+003;3.2683332520e+003;3.2437180176e+003;3.2696154785e+003;
1.1796875000e+000;3.4244870605e+003;3.2357692871e+003;3.2729487305e+003;3.3414101563e+003;3.2444870605e+003;3.3074357910e+003;3.2919230957e+003;3.2934614258e+003;3.2994870605e+003;3.2488461914e+003;3.2637180176e+003;3.2864101563e+003;3.2612819824e+003;3.2853845215e+003;
1.1875000000e+000;3.4116667480e+003;3.2202563477e+003;3.2587180176e+003;3.3278205566e+003;3.2301281738e+003;3.2933332520e+003;3.2757692871e+003;3.2811538086e+003;3.2837180176e+003;3.2376923828e+003;3.2480769043e+003;3.2715385742e+003;3.2473076172e+003;3.2692307129e+003;
1.1953125000e+000;3.4038461914e+003;3.2082050781e+003;3.2479487305e+003;3.3182050781e+003;3.2215385742e+003;3.2852563477e+003;3.2665385742e+003;3.2715385742e+003;3.2712819824e+003;3.2284614258e+003;3.2366667480e+003;3.2597436523e+003;3.2378205566e+003;3.2573076172e+003;
1.2031250000e+000;3.5816667480e+003;3.3855129395e+003;3.4125642090e+003;3.4775642090e+003;3.4033332520e+003;3.4608974609e+003;3.4482050781e+003;3.4506411133e+003;3.4562819824e+003;3.4057692871e+003;3.4047436523e+003;3.4234614258e+003;3.4125642090e+003;3.4183332520e+003;
1.2109375000e+000;3.6092307129e+003;3.4157692871e+003;3.4410256348e+003;3.5034614258e+003;3.4329487305e+003;3.4906411133e+003;3.4820512695e+003;3.4811538086e+003;3.4828205566e+003;3.4351281738e+003;3.4319230957e+003;3.4492307129e+003;3.4414101563e+003;3.4452563477e+003;
1.2187500000e+000;3.6644870605e+003;3.4687180176e+003;3.4951281738e+003;3.5514101563e+003;3.4897436523e+003;3.5465385742e+003;3.5400000000e+003;3.5389743652e+003;3.5253845215e+003;3.4970512695e+003;3.4916667480e+003;3.5093588867e+003;3.4973076172e+003;3.5033332520e+003;
1.2265625000e+000;3.7491025391e+003;3.5596154785e+003;3.5798718262e+003;3.6321794434e+003;3.5760256348e+003;3.6250000000e+003;3.6238461914e+003;3.5998718262e+003;3.5852563477e+003;3.5707692871e+003;3.5693588867e+003;3.5910256348e+003;3.5812819824e+003;3.5862819824e+003;
1.2343750000e+000;3.7750000000e+003;3.5900000000e+003;3.6101281738e+003;3.6582050781e+003;3.6039743652e+003;3.6498718262e+003;3.6488461914e+003;3.6215385742e+003;3.6058974609e+003;3.5980769043e+003;3.5971794434e+003;3.6202563477e+003;3.6073076172e+003;3.6151281738e+003;
1.2421875000e+000;3.7406411133e+003;3.5510256348e+003;3.5802563477e+003;3.6230769043e+003;3.5691025391e+003;3.6102563477e+003;3.6083332520e+003;3.5744870605e+003;3.5533332520e+003;3.5501281738e+003;3.5614101563e+003;3.5905129395e+003;3.5592307129e+003;3.5750000000e+003;
1.2500000000e+000;3.7765385742e+003;3.5857692871e+003;3.6105129395e+003;3.6557692871e+003;3.5987180176e+003;3.6311538086e+003;3.6278205566e+003;3.6073076172e+003;3.5951281738e+003;3.5934614258e+003;3.5960256348e+003;3.6305129395e+003;3.6003845215e+003;3.6133332520e+003;
1.2578125000e+000;3.7591025391e+003;3.5707692871e+003;3.5947436523e+003;3.6406411133e+003;3.5815385742e+003;3.6123076172e+003;3.6085898438e+003;3.5901281738e+003;3.5820512695e+003;3.5791025391e+003;3.5796154785e+003;3.6119230957e+003;3.5833332520e+003;3.5985898438e+003;
1.2656250000e+000;3.7605129395e+003;3.5761538086e+003;3.5980769043e+003;3.6430769043e+003;3.5852563477e+003;3.6110256348e+003;3.6091025391e+003;3.5923076172e+003;3.5889743652e+003;3.5817949219e+003;3.5824357910e+003;3.6100000000e+003;3.5842307129e+003;3.6015385742e+003;
1.2734375000e+000;3.8010256348e+003;3.6232050781e+003;3.6417949219e+003;3.6825642090e+003;3.6296154785e+003;3.6453845215e+003;3.6480769043e+003;3.6458974609e+003;3.6508974609e+003;3.6303845215e+003;3.6273076172e+003;3.6508974609e+003;3.6283332520e+003;3.6442307129e+003;
1.2812500000e+000;3.7901281738e+003;3.6114101563e+003;3.6315385742e+003;3.6721794434e+003;3.6175642090e+003;3.6361538086e+003;3.6389743652e+003;3.6450000000e+003;3.6510256348e+003;3.6247436523e+003;3.6173076172e+003;3.6442307129e+003;3.6196154785e+003;3.6335898438e+003;
1.2890625000e+000;3.7575642090e+003;3.5689743652e+003;3.5975642090e+003;3.6353845215e+003;3.5873076172e+003;3.6165385742e+003;3.6161538086e+003;3.6285898438e+003;3.6314101563e+003;3.6025642090e+003;3.5869230957e+003;3.6150000000e+003;3.5876923828e+003;3.5983332520e+003;
1.2968750000e+000;3.7617949219e+003;3.5735898438e+003;3.6051281738e+003;3.6400000000e+003;3.5970512695e+003;3.6274357910e+003;3.6251281738e+003;3.6389743652e+003;3.6425642090e+003;3.6141025391e+003;3.5958974609e+003;3.6211538086e+003;3.5953845215e+003;3.6051281738e+003;
1.3046875000e+000;3.7247436523e+003;3.5410256348e+003;3.5735898438e+003;3.6093588867e+003;3.5667949219e+003;3.6026923828e+003;3.5992307129e+003;3.6060256348e+003;3.6110256348e+003;3.5803845215e+003;3.5630769043e+003;3.5857692871e+003;3.5644870605e+003;3.5711538086e+003;
1.3125000000e+000;3.7306411133e+003;3.5484614258e+003;3.5771794434e+003;3.6153845215e+003;3.5728205566e+003;3.6071794434e+003;3.6051281738e+003;3.6048718262e+003;3.6100000000e+003;3.5807692871e+003;3.5671794434e+003;3.5885898438e+003;3.5716667480e+003;3.5751281738e+003;
1.3203125000e+000;3.7693588867e+003;3.5876923828e+003;3.6120512695e+003;3.6514101563e+003;3.6110256348e+003;3.6402563477e+003;3.6396154785e+003;3.6352563477e+003;3.6405129395e+003;3.6155129395e+003;3.6046154785e+003;3.6243588867e+003;3.6121794434e+003;3.6121794434e+003;
1.3281250000e+000;3.8201281738e+003;3.6462819824e+003;3.6628205566e+003;3.7012819824e+003;3.6700000000e+003;3.6979487305e+003;3.6992307129e+003;3.6846154785e+003;3.6808974609e+003;3.6683332520e+003;3.6588461914e+003;3.6789743652e+003;3.6706411133e+003;3.6643588867e+003;
1.3359375000e+000;3.8335898438e+003;3.6632050781e+003;3.6769230957e+003;3.7152563477e+003;3.6853845215e+003;3.7100000000e+003;3.7111538086e+003;3.6944870605e+003;3.6884614258e+003;3.6810256348e+003;3.6737180176e+003;3.6935898438e+003;3.6850000000e+003;3.6782050781e+003;
1.3437500000e+000;3.7810256348e+003;3.6053845215e+003;3.6273076172e+003;3.6638461914e+003;3.6214101563e+003;3.6492307129e+003;3.6460256348e+003;3.6150000000e+003;3.6038461914e+003;3.6111538086e+003;3.6125642090e+003;3.6421794434e+003;3.6260256348e+003;3.6262819824e+003;
1.3515625000e+000;3.8014101563e+003;3.6253845215e+003;3.6510256348e+003;3.6842307129e+003;3.6376923828e+003;3.6600000000e+003;3.6589743652e+003;3.6315385742e+003;3.6194870605e+003;3.6335898438e+003;3.6402563477e+003;3.6725642090e+003;3.6487180176e+003;3.6541025391e+003;
1.3593750000e+000;3.7697436523e+003;3.5941025391e+003;3.6207692871e+003;3.6555129395e+003;3.6073076172e+003;3.6298718262e+003;3.6287180176e+003;3.6042307129e+003;3.5934614258e+003;3.6041025391e+003;3.6115385742e+003;3.6443588867e+003;3.6170512695e+003;3.6234614258e+003;
1.3671875000e+000;3.7748718262e+003;3.6016667480e+003;3.6173076172e+003;3.6584614258e+003;3.6126923828e+003;3.6261538086e+003;3.6289743652e+003;3.6148718262e+003;3.6155129395e+003;3.6101281738e+003;3.6089743652e+003;3.6376923828e+003;3.6183332520e+003;3.6174357910e+003;
1.3750000000e+000;3.7937180176e+003;3.6221794434e+003;3.6346154785e+003;3.6757692871e+003;3.6292307129e+003;3.6414101563e+003;3.6455129395e+003;3.6380769043e+003;3.6420512695e+003;3.6342307129e+003;3.6255129395e+003;3.6535898438e+003;3.6357692871e+003;3.6342307129e+003;
1.3828125000e+000;3.8144870605e+003;3.6448718262e+003;3.6550000000e+003;3.6953845215e+003;3.6466667480e+003;3.6593588867e+003;3.6679487305e+003;3.6661538086e+003;3.6729487305e+003;3.6587180176e+003;3.6419230957e+003;3.6698718262e+003;3.6502563477e+003;3.6505129395e+003;
1.3906250000e+000;3.8450000000e+003;3.6773076172e+003;3.6857692871e+003;3.7255129395e+003;3.6787180176e+003;3.6889743652e+003;3.7003845215e+003;3.7005129395e+003;3.7057692871e+003;3.6905129395e+003;3.6720512695e+003;3.6982050781e+003;3.6784614258e+003;3.6796154785e+003;
1.3984375000e+000;3.8529487305e+003;3.6950000000e+003;3.7015385742e+003;3.7411538086e+003;3.7020512695e+003;3.7139743652e+003;3.7205129395e+003;3.7291025391e+003;3.7241025391e+003;3.7176923828e+003;3.6888461914e+003;3.7110256348e+003;3.6916667480e+003;3.6970512695e+003;
1.4062500000e+000;3.8405129395e+003;3.6853845215e+003;3.6902563477e+003;3.7315385742e+003;3.6957692871e+003;3.7094870605e+003;3.7150000000e+003;3.7202563477e+003;3.7165385742e+003;3.7085898438e+003;3.6796154785e+003;3.7005129395e+003;3.6830769043e+003;3.6870512695e+003;
1.4140625000e+000;3.8914101563e+003;3.7447436523e+003;3.7388461914e+003;3.7820512695e+003;3.7576923828e+003;3.7701281738e+003;3.7767949219e+003;3.7821794434e+003;3.7855129395e+003;3.7748718262e+003;3.7429487305e+003;3.7574357910e+003;3.7484614258e+003;3.7446154785e+003;
1.4218750000e+000;3.8657692871e+003;3.7183332520e+003;3.7134614258e+003;3.7553845215e+003;3.7317949219e+003;3.7489743652e+003;3.7505129395e+003;3.7566667480e+003;3.7582050781e+003;3.7501281738e+003;3.7165385742e+003;3.7316667480e+003;3.7229487305e+003;3.7198718262e+003;
1.4296875000e+000;3.8503845215e+003;3.7005129395e+003;3.6985898438e+003;3.7338461914e+003;3.7137180176e+003;3.7353845215e+003;3.7306411133e+003;3.7282050781e+003;3.7261538086e+003;3.7253845215e+003;3.6930769043e+003;3.7085898438e+003;3.7010256348e+003;3.7015385742e+003;
1.4375000000e+000;3.8798718262e+003;3.7307692871e+003;3.7292307129e+003;3.7619230957e+003;3.7421794434e+003;3.7614101563e+003;3.7582050781e+003;3.7521794434e+003;3.7501281738e+003;3.7529487305e+003;3.7217949219e+003;3.7370512695e+003;3.7285898438e+003;3.7311538086e+003;
1.4453125000e+000;3.8941025391e+003;3.7461538086e+003;3.7456411133e+003;3.7791025391e+003;3.7553845215e+003;3.7732050781e+003;3.7721794434e+003;3.7648718262e+003;3.7624357910e+003;3.7678205566e+003;3.7385898438e+003;3.7553845215e+003;3.7424357910e+003;3.7474357910e+003;
1.4531250000e+000;3.8769230957e+003;3.7294870605e+003;3.7303845215e+003;3.7675642090e+003;3.7369230957e+003;3.7558974609e+003;3.7557692871e+003;3.7469230957e+003;3.7426923828e+003;3.7494870605e+003;3.7244870605e+003;3.7447436523e+003;3.7252563477e+003;3.7324357910e+003;
1.4609375000e+000;3.8837180176e+003;3.7410256348e+003;3.7430769043e+003;3.7744870605e+003;3.7466667480e+003;3.7575642090e+003;3.7571794434e+003;3.7365385742e+003;3.7250000000e+003;3.7485898438e+003;3.7348718262e+003;3.7648718262e+003;3.7356411133e+003;3.7455129395e+003;
1.4687500000e+000;3.9634614258e+003;3.8210256348e+003;3.8219230957e+003;3.8546154785e+003;3.8251281738e+003;3.8193588867e+003;3.8264101563e+003;3.8115385742e+003;3.8141025391e+003;3.8292307129e+003;3.8179487305e+003;3.8508974609e+003;3.8252563477e+003;3.8319230957e+003;
1.4765625000e+000;3.9848718262e+003;3.8438461914e+003;3.8433332520e+003;3.8755129395e+003;3.8455129395e+003;3.8369230957e+003;3.8426923828e+003;3.8351281738e+003;3.8441025391e+003;3.8589743652e+003;3.8444870605e+003;3.8774357910e+003;3.8514101563e+003;3.8547436523e+003;
1.4843750000e+000;3.9558974609e+003;3.8208974609e+003;3.8206411133e+003;3.8524357910e+003;3.8229487305e+003;3.8151281738e+003;3.8208974609e+003;3.8193588867e+003;3.8330769043e+003;3.8467949219e+003;3.8267949219e+003;3.8578205566e+003;3.8302563477e+003;3.8310256348e+003;
1.4921875000e+000;3.9117949219e+003;3.7903845215e+003;3.7874357910e+003;3.8201281738e+003;3.8032050781e+003;3.7985898438e+003;3.7978205566e+003;3.8096154785e+003;3.8211538086e+003;3.8266667480e+003;3.7907692871e+003;3.8185898438e+003;3.7950000000e+003;3.7923076172e+003;
1.5000000000e+000;3.8894870605e+003;3.7658974609e+003;3.7608974609e+003;3.7958974609e+003;3.7798718262e+003;3.7780769043e+003;3.7762819824e+003;3.7847436523e+003;3.7962819824e+003;3.7979487305e+003;3.7616667480e+003;3.7900000000e+003;3.7680769043e+003;3.7639743652e+003;
1.5078125000e+000;3.9306411133e+003;3.8070512695e+003;3.7935898438e+003;3.8324357910e+003;3.8226923828e+003;3.8200000000e+003;3.8201281738e+003;3.8228205566e+003;3.8303845215e+003;3.8317949219e+003;3.7973076172e+003;3.8219230957e+003;3.8050000000e+003;3.7982050781e+003;
1.5156250000e+000;3.9555129395e+003;3.8358974609e+003;3.8215385742e+003;3.8594870605e+003;3.8523076172e+003;3.8514101563e+003;3.8494870605e+003;3.8551281738e+003;3.8597436523e+003;3.8625642090e+003;3.8284614258e+003;3.8514101563e+003;3.8347436523e+003;3.8267949219e+003;
1.5234375000e+000;3.9746154785e+003;3.8635898438e+003;3.8508974609e+003;3.8837180176e+003;3.8803845215e+003;3.8839743652e+003;3.8821794434e+003;3.8816667480e+003;3.8855129395e+003;3.8852563477e+003;3.8556411133e+003;3.8765385742e+003;3.8625642090e+003;3.8511538086e+003;
1.5312500000e+000;4.0167949219e+003;3.9060256348e+003;3.8908974609e+003;3.9219230957e+003;3.9230769043e+003;3.9197436523e+003;3.9233332520e+003;3.9191025391e+003;3.9232050781e+003;3.9257692871e+003;3.8953845215e+003;3.9150000000e+003;3.9034614258e+003;3.8923076172e+003;
1.5390625000e+000;3.9883332520e+003;3.8798718262e+003;3.8725642090e+003;3.8984614258e+003;3.9037180176e+003;3.9019230957e+003;3.9062819824e+003;3.8971794434e+003;3.8889743652e+003;3.9073076172e+003;3.8728205566e+003;3.8958974609e+003;3.8788461914e+003;3.8710256348e+003;
1.5468750000e+000;3.9688461914e+003;3.8637180176e+003;3.8556411133e+003;3.8820512695e+003;3.8874357910e+003;3.8878205566e+003;3.8917949219e+003;3.8757692871e+003;3.8650000000e+003;3.8855129395e+003;3.8548718262e+003;3.8775642090e+003;3.8610256348e+003;3.8511538086e+003;
1.5546875000e+000;4.0160256348e+003;3.9158974609e+003;3.9012819824e+003;3.9284614258e+003;3.9328205566e+003;3.9265385742e+003;3.9337180176e+003;3.9088461914e+003;3.9015385742e+003;3.9264101563e+003;3.9012819824e+003;3.9246154785e+003;3.9069230957e+003;3.8975642090e+003;
1.5625000000e+000;4.0275642090e+003;3.9266667480e+003;3.9142307129e+003;3.9410256348e+003;3.9402563477e+003;3.9319230957e+003;3.9400000000e+003;3.9138461914e+003;3.9094870605e+003;3.9371794434e+003;3.9119230957e+003;3.9389743652e+003;3.9164101563e+003;3.9102563477e+003;
1.5703125000e+000;4.0203845215e+003;3.9176923828e+003;3.9103845215e+003;3.9358974609e+003;3.9293588867e+003;3.9206411133e+003;3.9289743652e+003;3.9012819824e+003;3.8992307129e+003;3.9296154785e+003;3.9048718262e+003;3.9350000000e+003;3.9087180176e+003;3.9035898438e+003;
1.5781250000e+000;4.0183332520e+003;3.9152563477e+003;3.9120512695e+003;3.9348718262e+003;3.9258974609e+003;3.9150000000e+003;3.9234614258e+003;3.8950000000e+003;3.8952563477e+003;3.9280769043e+003;3.9053845215e+003;3.9352563477e+003;3.9091025391e+003;3.9015385742e+003;
1.5859375000e+000;4.0400000000e+003;3.9442307129e+003;3.9430769043e+003;3.9514101563e+003;3.9384614258e+003;3.9160256348e+003;3.9293588867e+003;3.9203845215e+003;3.9258974609e+003;3.9569230957e+003;3.9403845215e+003;3.9650000000e+003;3.9369230957e+003;3.9297436523e+003;
1.5937500000e+000;4.0676923828e+003;3.9811538086e+003;3.9797436523e+003;3.9875642090e+003;3.9753845215e+003;3.9492307129e+003;3.9635898438e+003;3.9861538086e+003;3.9844870605e+003;4.0075642090e+003;3.9823076172e+003;4.0037180176e+003;3.9847436523e+003;3.9708974609e+003;
1.6015625000e+000;4.0384614258e+003;3.9537180176e+003;3.9519230957e+003;3.9594870605e+003;3.9469230957e+003;3.9266667480e+003;3.9393588867e+003;3.9635898438e+003;3.9591025391e+003;3.9793588867e+003;3.9544870605e+003;3.9735898438e+003;3.9548718262e+003;3.9433332520e+003;
1.6093750000e+000;4.0338461914e+003;3.9521794434e+003;3.9461538086e+003;3.9551281738e+003;3.9460256348e+003;3.9303845215e+003;3.9420512695e+003;3.9593588867e+003;3.9546154785e+003;3.9689743652e+003;3.9443588867e+003;3.9630769043e+003;3.9432050781e+003;3.9382050781e+003;
1.6171875000e+000;3.9582050781e+003;3.8779487305e+003;3.8741025391e+003;3.8942307129e+003;3.8916667480e+003;3.8934614258e+003;3.8967949219e+003;3.9051281738e+003;3.8987180176e+003;3.9029487305e+003;3.8698718262e+003;3.8905129395e+003;3.8792307129e+003;3.8658974609e+003;
1.6250000000e+000;3.9511538086e+003;3.8738461914e+003;3.8674357910e+003;3.8879487305e+003;3.8888461914e+003;3.8939743652e+003;3.8979487305e+003;3.9028205566e+003;3.8944870605e+003;3.8982050781e+003;3.8653845215e+003;3.8829487305e+003;3.8762819824e+003;3.8591025391e+003;
1.6328125000e+000;3.9482050781e+003;3.8758974609e+003;3.8666667480e+003;3.8879487305e+003;3.8889743652e+003;3.9001281738e+003;3.9046154785e+003;3.9050000000e+003;3.8957692871e+003;3.9023076172e+003;3.8701281738e+003;3.8887180176e+003;3.8789743652e+003;3.8605129395e+003;
1.6406250000e+000;3.9265385742e+003;3.8525642090e+003;3.8457692871e+003;3.8687180176e+003;3.8660256348e+003;3.8808974609e+003;3.8847436523e+003;3.8789743652e+003;3.8703845215e+003;3.8776923828e+003;3.8488461914e+003;3.8702563477e+003;3.8553845215e+003;3.8396154785e+003;
1.6484375000e+000;4.0202563477e+003;3.9405129395e+003;3.9387180176e+003;3.9548718262e+003;3.9562819824e+003;3.9579487305e+003;3.9691025391e+003;3.9444870605e+003;3.9398718262e+003;3.9562819824e+003;3.9382050781e+003;3.9542307129e+003;3.9380769043e+003;3.9279487305e+003;
1.6562500000e+000;4.0657692871e+003;3.9878205566e+003;3.9862819824e+003;3.9973076172e+003;4.0012819824e+003;3.9970512695e+003;4.0108974609e+003;3.9858974609e+003;3.9824357910e+003;4.0055129395e+003;3.9876923828e+003;4.0020512695e+003;3.9851281738e+003;3.9748718262e+003;
1.6640625000e+000;4.0562819824e+003;3.9883332520e+003;3.9823076172e+003;3.9914101563e+003;3.9898718262e+003;3.9771794434e+003;3.9862819824e+003;3.9585898438e+003;3.9625642090e+003;4.0028205566e+003;3.9888461914e+003;4.0050000000e+003;3.9835898438e+003;3.9751281738e+003;
1.6718750000e+000;4.0401281738e+003;3.9762819824e+003;3.9667949219e+003;3.9773076172e+003;3.9726923828e+003;3.9576923828e+003;3.9628205566e+003;3.9378205566e+003;3.9464101563e+003;3.9887180176e+003;3.9748718262e+003;3.9911538086e+003;3.9700000000e+003;3.9638461914e+003;
1.6796875000e+000;3.9610256348e+003;3.8988461914e+003;3.8900000000e+003;3.9010256348e+003;3.8869230957e+003;3.8752563477e+003;3.8776923828e+003;3.8567949219e+003;3.8726923828e+003;3.9066667480e+003;3.8957692871e+003;3.9162819824e+003;3.8928205566e+003;3.8934614258e+003;
1.6875000000e+000;3.9329487305e+003;3.8676923828e+003;3.8616667480e+003;3.8707692871e+003;3.8537180176e+003;3.8430769043e+003;3.8482050781e+003;3.8279487305e+003;3.8443588867e+003;3.8716667480e+003;3.8638461914e+003;3.8867949219e+003;3.8629487305e+003;3.8651281738e+003;
1.6953125000e+000;3.9379487305e+003;3.8692307129e+003;3.8665385742e+003;3.8719230957e+003;3.8551281738e+003;3.8414101563e+003;3.8500000000e+003;3.8350000000e+003;3.8493588867e+003;3.8721794434e+003;3.8652563477e+003;3.8901281738e+003;3.8664101563e+003;3.8683332520e+003;
1.7031250000e+000;3.9567949219e+003;3.8853845215e+003;3.8867949219e+003;3.8884614258e+003;3.8723076172e+003;3.8547436523e+003;3.8651281738e+003;3.8617949219e+003;3.8717949219e+003;3.8925642090e+003;3.8833332520e+003;3.9098718262e+003;3.8853845215e+003;3.8865385742e+003;
1.7109375000e+000;3.8879487305e+003;3.8065385742e+003;3.8205129395e+003;3.8202563477e+003;3.7952563477e+003;3.7908974609e+003;3.8088461914e+003;3.8275642090e+003;3.8206411133e+003;3.8216667480e+003;3.8142307129e+003;3.8484614258e+003;3.8150000000e+003;3.8216667480e+003;
1.7187500000e+000;3.8511538086e+003;3.7594870605e+003;3.7789743652e+003;3.7720512695e+003;3.7575642090e+003;3.7641025391e+003;3.7737180176e+003;3.7846154785e+003;3.7683332520e+003;3.7714101563e+003;3.7669230957e+003;3.8051281738e+003;3.7664101563e+003;3.7808974609e+003;
1.7265625000e+000;3.8398718262e+003;3.7470512695e+003;3.7646154785e+003;3.7628205566e+003;3.7476923828e+003;3.7596154785e+003;3.7664101563e+003;3.7708974609e+003;3.7580769043e+003;3.7592307129e+003;3.7547436523e+003;3.7919230957e+003;3.7550000000e+003;3.7687180176e+003;
1.7343750000e+000;3.8552563477e+003;3.7661538086e+003;3.7756411133e+003;3.7811538086e+003;3.7675642090e+003;3.7839743652e+003;3.7906411133e+003;3.7874357910e+003;3.7828205566e+003;3.7842307129e+003;3.7760256348e+003;3.8084614258e+003;3.7767949219e+003;3.7861538086e+003;
1.7421875000e+000;3.8412819824e+003;3.7532050781e+003;3.7624357910e+003;3.7682050781e+003;3.7556411133e+003;3.7726923828e+003;3.7800000000e+003;3.7729487305e+003;3.7697436523e+003;3.7737180176e+003;3.7637180176e+003;3.7934614258e+003;3.7651281738e+003;3.7717949219e+003;
1.7500000000e+000;3.8551281738e+003;3.7664101563e+003;3.7764101563e+003;3.7802563477e+003;3.7750000000e+003;3.7856411133e+003;3.7906411133e+003;3.7670512695e+003;3.7710256348e+003;3.7801281738e+003;3.7689743652e+003;3.7898718262e+003;3.7765385742e+003;3.7742307129e+003;
1.7578125000e+000;3.8528205566e+003;3.7705129395e+003;3.7750000000e+003;3.7887180176e+003;3.7758974609e+003;3.7883332520e+003;3.7876923828e+003;3.7515385742e+003;3.7651281738e+003;3.7760256348e+003;3.7617949219e+003;3.7851281738e+003;3.7656411133e+003;3.7671794434e+003;
1.7656250000e+000;3.8588461914e+003;3.7779487305e+003;3.7806411133e+003;3.7932050781e+003;3.7819230957e+003;3.7903845215e+003;3.7917949219e+003;3.7494870605e+003;3.7638461914e+003;3.7769230957e+003;3.7662819824e+003;3.7876923828e+003;3.7694870605e+003;3.7688461914e+003;
1.7734375000e+000;3.8919230957e+003;3.8091025391e+003;3.8137180176e+003;3.8148718262e+003;3.8076923828e+003;3.8005129395e+003;3.8033332520e+003;3.7685898438e+003;3.7841025391e+003;3.8015385742e+003;3.7997436523e+003;3.8229487305e+003;3.8052563477e+003;3.8012819824e+003;
1.7812500000e+000;3.8901281738e+003;3.8065385742e+003;3.8106411133e+003;3.8129487305e+003;3.8015385742e+003;3.7914101563e+003;3.7952563477e+003;3.7629487305e+003;3.7787180176e+003;3.7956411133e+003;3.7960256348e+003;3.8216667480e+003;3.8019230957e+003;3.8000000000e+003;
1.7890625000e+000;3.9207692871e+003;3.8392307129e+003;3.8402563477e+003;3.8439743652e+003;3.8291025391e+003;3.8129487305e+003;3.8207692871e+003;3.7912819824e+003;3.8074357910e+003;3.8242307129e+003;3.8257692871e+003;3.8514101563e+003;3.8312819824e+003;3.8305129395e+003;
1.7968750000e+000;4.0214101563e+003;3.9464101563e+003;3.9475642090e+003;3.9437180176e+003;3.9271794434e+003;3.8973076172e+003;3.9132050781e+003;3.9050000000e+003;3.9202563477e+003;3.9369230957e+003;3.9344870605e+003;3.9589743652e+003;3.9375642090e+003;3.9355129395e+003;
1.8046875000e+000;3.9897436523e+003;3.9093588867e+003;3.9255129395e+003;3.9066667480e+003;3.8941025391e+003;3.8666667480e+003;3.8842307129e+003;3.8978205566e+003;3.9062819824e+003;3.9143588867e+003;3.9103845215e+003;3.9375642090e+003;3.9144870605e+003;3.9071794434e+003;
1.8125000000e+000;4.0056411133e+003;3.9264101563e+003;3.9387180176e+003;3.9208974609e+003;3.9124357910e+003;3.8852563477e+003;3.9043588867e+003;3.9173076172e+003;3.9247436523e+003;3.9321794434e+003;3.9278205566e+003;3.9506411133e+003;3.9328205566e+003;3.9246154785e+003;
1.8203125000e+000;4.0193588867e+003;3.9437180176e+003;3.9515385742e+003;3.9358974609e+003;3.9303845215e+003;3.9057692871e+003;3.9247436523e+003;3.9383332520e+003;3.9437180176e+003;3.9519230957e+003;3.9446154785e+003;3.9641025391e+003;3.9496154785e+003;3.9423076172e+003;
1.8281250000e+000;4.0038461914e+003;3.9324357910e+003;3.9385898438e+003;3.9251281738e+003;3.9200000000e+003;3.9023076172e+003;3.9192307129e+003;3.9326923828e+003;3.9347436523e+003;3.9435898438e+003;3.9319230957e+003;3.9517949219e+003;3.9361538086e+003;3.9308974609e+003;
1.8359375000e+000;4.0825642090e+003;4.0271794434e+003;4.0267949219e+003;4.0167949219e+003;4.0258974609e+003;4.0147436523e+003;4.0301281738e+003;4.0270512695e+003;4.0248718262e+003;4.0357692871e+003;4.0173076172e+003;4.0360256348e+003;4.0203845215e+003;4.0108974609e+003;
1.8437500000e+000;4.2006411133e+003;4.1588461914e+003;4.1493588867e+003;4.1357690430e+003;4.1629487305e+003;4.1441025391e+003;4.1625639648e+003;4.1529487305e+003;4.1603847656e+003;4.1821796875e+003;4.1525639648e+003;4.1670512695e+003;4.1565385742e+003;4.1448715820e+003;
1.8515625000e+000;4.1891025391e+003;4.1520512695e+003;4.1417949219e+003;4.1265385742e+003;4.1552563477e+003;4.1355126953e+003;4.1525639648e+003;4.1411538086e+003;4.1475639648e+003;4.1741025391e+003;4.1435898438e+003;4.1601284180e+003;4.1489741211e+003;4.1360258789e+003;
1.8593750000e+000;4.1252563477e+003;4.0948718262e+003;4.0862819824e+003;4.0729487305e+003;4.0946154785e+003;4.0835898438e+003;4.0944870605e+003;4.0687180176e+003;4.0734614258e+003;4.1008974609e+003;4.0830769043e+003;4.0991025391e+003;4.0864101563e+003;4.0755129395e+003;
1.8671875000e+000;4.3157690430e+003;4.2956411133e+003;4.2802563477e+003;4.2601284180e+003;4.2951284180e+003;4.2585898438e+003;4.2808974609e+003;4.2524360352e+003;4.2526923828e+003;4.3003847656e+003;4.2843588867e+003;4.2953847656e+003;4.2900000000e+003;4.2748715820e+003;
1.8750000000e+000;4.3194873047e+003;4.3060258789e+003;4.2910258789e+003;4.2673076172e+003;4.3011538086e+003;4.2637177734e+003;4.2876923828e+003;4.2634614258e+003;4.2620512695e+003;4.3156411133e+003;4.2947436523e+003;4.3074360352e+003;4.3007690430e+003;4.2856411133e+003;
1.8828125000e+000;4.3114101563e+003;4.3114101563e+003;4.2920512695e+003;4.2673076172e+003;4.2958974609e+003;4.2608974609e+003;4.2841025391e+003;4.2661538086e+003;4.2639741211e+003;4.3157690430e+003;4.2970512695e+003;4.3093588867e+003;4.3002563477e+003;4.2875639648e+003;
1.8906250000e+000;4.3179487305e+003;4.3207690430e+003;4.2996152344e+003;4.2753847656e+003;4.3030771484e+003;4.2665385742e+003;4.2897436523e+003;4.2788461914e+003;4.2764101563e+003;4.3238461914e+003;4.3084614258e+003;4.3184614258e+003;4.3084614258e+003;4.2971796875e+003;
1.8984375000e+000;4.2553847656e+003;4.2555126953e+003;4.2455126953e+003;4.2207690430e+003;4.2415385742e+003;4.1984614258e+003;4.2328203125e+003;4.2401284180e+003;4.2356411133e+003;4.2696152344e+003;4.2571796875e+003;4.2652563477e+003;4.2539741211e+003;4.2421796875e+003;
1.9062500000e+000;4.2479487305e+003;4.2514101563e+003;4.2412822266e+003;4.2156411133e+003;4.2342309570e+003;4.1900000000e+003;4.2279487305e+003;4.2385898438e+003;4.2356411133e+003;4.2675639648e+003;4.2532050781e+003;4.2619228516e+003;4.2517949219e+003;4.2396152344e+003;
1.9140625000e+000;4.2433334961e+003;4.2519228516e+003;4.2392309570e+003;4.2132050781e+003;4.2296152344e+003;4.1865385742e+003;4.2250000000e+003;4.2400000000e+003;4.2388461914e+003;4.2691025391e+003;4.2521796875e+003;4.2619228516e+003;4.2520512695e+003;4.2412822266e+003;
1.9218750000e+000;4.1741025391e+003;4.1856411133e+003;4.1721796875e+003;4.1508974609e+003;4.1623076172e+003;4.1294873047e+003;4.1611538086e+003;4.1779487305e+003;4.1775639648e+003;4.2000000000e+003;4.1825639648e+003;4.1937177734e+003;4.1832050781e+003;4.1771796875e+003;
1.9296875000e+000;4.1466665039e+003;4.1558974609e+003;4.1403847656e+003;4.1261538086e+003;4.1439741211e+003;4.1187177734e+003;4.1417949219e+003;4.1448715820e+003;4.1439741211e+003;4.1620512695e+003;4.1451284180e+003;4.1539741211e+003;4.1505126953e+003;4.1401284180e+003;
1.9375000000e+000;4.1426923828e+003;4.1532050781e+003;4.1361538086e+003;4.1221796875e+003;4.1414101563e+003;4.1205126953e+003;4.1407690430e+003;4.1425639648e+003;4.1447436523e+003;4.1615385742e+003;4.1432050781e+003;4.1529487305e+003;4.1480771484e+003;4.1374360352e+003;
1.9453125000e+000;4.1175639648e+003;4.1297436523e+003;4.1114101563e+003;4.0983334961e+003;4.1178203125e+003;4.1020512695e+003;4.1205126953e+003;4.1201284180e+003;4.1255126953e+003;4.1385898438e+003;4.1206411133e+003;4.1312822266e+003;4.1244873047e+003;4.1143588867e+003;
1.9531250000e+000;4.0966665039e+003;4.1107690430e+003;4.0907692871e+003;4.0792307129e+003;4.1001284180e+003;4.0869230957e+003;4.1047436523e+003;4.1014101563e+003;4.1087177734e+003;4.1178203125e+003;4.1012822266e+003;4.1114101563e+003;4.1048715820e+003;4.0943588867e+003;
1.9609375000e+000;4.0823076172e+003;4.0950000000e+003;4.0820512695e+003;4.0703845215e+003;4.0969228516e+003;4.0903845215e+003;4.0951281738e+003;4.0947436523e+003;4.0993588867e+003;4.1157690430e+003;4.0905129395e+003;4.0974360352e+003;4.0885898438e+003;4.0819230957e+003;
1.9687500000e+000;4.0512819824e+003;4.0593588867e+003;4.0502563477e+003;4.0380769043e+003;4.0630769043e+003;4.0616667480e+003;4.0651281738e+003;4.0588461914e+003;4.0673076172e+003;4.0806411133e+003;4.0578205566e+003;4.0658974609e+003;4.0533332520e+003;4.0491025391e+003;
1.9765625000e+000;4.0975639648e+003;4.1024360352e+003;4.0991025391e+003;4.0770512695e+003;4.1052563477e+003;4.1015385742e+003;4.1143588867e+003;4.0991025391e+003;4.1135898438e+003;4.1242309570e+003;4.1062822266e+003;4.1152563477e+003;4.1012822266e+003;4.0908974609e+003;
1.9843750000e+000;4.0864101563e+003;4.0829487305e+003;4.0883332520e+003;4.0620512695e+003;4.0838461914e+003;4.0726923828e+003;4.0892307129e+003;4.0694870605e+003;4.0756411133e+003;4.1003847656e+003;4.0829487305e+003;4.0987177734e+003;4.0816667480e+003;4.0784614258e+003;
1.9921875000e+000;4.1041025391e+003;4.0984614258e+003;4.1038461914e+003;4.0769230957e+003;4.0950000000e+003;4.0784614258e+003;4.0966665039e+003;4.0812819824e+003;4.0858974609e+003;4.1125639648e+003;4.0975639648e+003;4.1128203125e+003;4.0961538086e+003;4.0961538086e+003;
2.0000000000e+000;4.0015385742e+003;3.9930769043e+003;3.9979487305e+003;3.9788461914e+003;3.9708974609e+003;3.9651281738e+003;3.9832050781e+003;3.9769230957e+003;3.9761538086e+003;4.0012819824e+003;3.9933332520e+003;4.0112819824e+003;3.9891025391e+003;3.9930769043e+003;
2.0078125000e+000;3.9691025391e+003;3.9594870605e+003;3.9632050781e+003;3.9461538086e+003;3.9370512695e+003;3.9306411133e+003;3.9498718262e+003;3.9408974609e+003;3.9406411133e+003;3.9644870605e+003;3.9591025391e+003;3.9769230957e+003;3.9538461914e+003;3.9582050781e+003;
2.0156250000e+000;3.9719230957e+003;3.9597436523e+003;3.9650000000e+003;3.9461538086e+003;3.9443588867e+003;3.9269230957e+003;3.9483332520e+003;3.9466667480e+003;3.9492307129e+003;3.9714101563e+003;3.9628205566e+003;3.9794870605e+003;3.9551281738e+003;3.9630769043e+003;
2.0234375000e+000;3.9633332520e+003;3.9488461914e+003;3.9561538086e+003;3.9379487305e+003;3.9362819824e+003;3.9184614258e+003;3.9400000000e+003;3.9429487305e+003;3.9458974609e+003;3.9665385742e+003;3.9533332520e+003;3.9715385742e+003;3.9466667480e+003;3.9564101563e+003;
2.0312500000e+000;4.0043588867e+003;3.9860256348e+003;3.9855129395e+003;3.9739743652e+003;3.9752563477e+003;3.9632050781e+003;3.9825642090e+003;3.9823076172e+003;3.9860256348e+003;4.0023076172e+003;3.9847436523e+003;3.9982050781e+003;3.9837180176e+003;3.9852563477e+003;
2.0390625000e+000;4.0241025391e+003;4.0070512695e+003;4.0058974609e+003;3.9939743652e+003;3.9988461914e+003;3.9875642090e+003;4.0033332520e+003;4.0058974609e+003;4.0101281738e+003;4.0253845215e+003;4.0066667480e+003;4.0169230957e+003;4.0038461914e+003;4.0026923828e+003;
2.0468750000e+000;4.0071794434e+003;3.9916667480e+003;3.9928205566e+003;3.9815385742e+003;3.9880769043e+003;3.9797436523e+003;3.9915385742e+003;3.9969230957e+003;4.0007692871e+003;4.0135898438e+003;3.9930769043e+003;4.0028205566e+003;3.9884614258e+003;3.9867949219e+003;
2.0546875000e+000;4.0369230957e+003;4.0371794434e+003;4.0211538086e+003;4.0192307129e+003;4.0376923828e+003;4.0310256348e+003;4.0437180176e+003;4.0415385742e+003;4.0492307129e+003;4.0612819824e+003;4.0261538086e+003;4.0344870605e+003;4.0328205566e+003;4.0226923828e+003;
2.0625000000e+000;4.0319230957e+003;4.0330769043e+003;4.0178205566e+003;4.0155129395e+003;4.0328205566e+003;4.0276923828e+003;4.0369230957e+003;4.0329487305e+003;4.0439743652e+003;4.0561538086e+003;4.0226923828e+003;4.0292307129e+003;4.0278205566e+003;4.0157692871e+003;
2.0703125000e+000;4.0105129395e+003;4.0080769043e+003;3.9928205566e+003;3.9956411133e+003;4.0116667480e+003;4.0051281738e+003;4.0097436523e+003;3.9983332520e+003;4.0132050781e+003;4.0314101563e+003;4.0019230957e+003;4.0085898438e+003;4.0037180176e+003;3.9915385742e+003;
2.0781250000e+000;3.9784614258e+003;3.9737180176e+003;3.9608974609e+003;3.9606411133e+003;3.9700000000e+003;3.9656411133e+003;3.9691025391e+003;3.9473076172e+003;3.9571794434e+003;3.9812819824e+003;3.9665385742e+003;3.9788461914e+003;3.9656411133e+003;3.9589743652e+003;
2.0859375000e+000;4.0217949219e+003;4.0178205566e+003;4.0053845215e+003;4.0005129395e+003;4.0100000000e+003;3.9988461914e+003;4.0069230957e+003;3.9830769043e+003;3.9914101563e+003;4.0205129395e+003;4.0091025391e+003;4.0203845215e+003;4.0089743652e+003;4.0028205566e+003;
2.0937500000e+000;4.0550000000e+003;4.0452563477e+003;4.0401281738e+003;4.0276923828e+003;4.0335898438e+003;4.0167949219e+003;4.0320512695e+003;4.0135898438e+003;4.0148718262e+003;4.0598718262e+003;4.0420512695e+003;4.0597436523e+003;4.0447436523e+003;4.0405129395e+003;
2.1015625000e+000;4.0448718262e+003;4.0342307129e+003;4.0296154785e+003;4.0182050781e+003;4.0212819824e+003;4.0055129395e+003;4.0203845215e+003;4.0053845215e+003;4.0039743652e+003;4.0479487305e+003;4.0319230957e+003;4.0502563477e+003;4.0337180176e+003;4.0302563477e+003;
2.1093750000e+000;4.0605129395e+003;4.0564101563e+003;4.0512819824e+003;4.0385898438e+003;4.0393588867e+003;4.0157692871e+003;4.0329487305e+003;4.0312819824e+003;4.0296154785e+003;4.0656411133e+003;4.0564101563e+003;4.0721794434e+003;4.0547436523e+003;4.0537180176e+003;
2.1171875000e+000;4.0423076172e+003;4.0407692871e+003;4.0380769043e+003;4.0242307129e+003;4.0237180176e+003;3.9971794434e+003;4.0169230957e+003;4.0210256348e+003;4.0208974609e+003;4.0523076172e+003;4.0437180176e+003;4.0603845215e+003;4.0415385742e+003;4.0428205566e+003;
2.1250000000e+000;3.9897436523e+003;3.9839743652e+003;3.9765385742e+003;3.9692307129e+003;3.9700000000e+003;3.9500000000e+003;3.9706411133e+003;3.9779487305e+003;3.9857692871e+003;4.0091025391e+003;3.9905129395e+003;4.0078205566e+003;3.9937180176e+003;3.9938461914e+003;
2.1328125000e+000;4.0032050781e+003;3.9956411133e+003;3.9847436523e+003;3.9798718262e+003;3.9817949219e+003;3.9644870605e+003;3.9814101563e+003;3.9924357910e+003;4.0028205566e+003;4.0256411133e+003;4.0024357910e+003;4.0176923828e+003;4.0069230957e+003;4.0033332520e+003;
2.1406250000e+000;3.9697436523e+003;3.9605129395e+003;3.9538461914e+003;3.9506411133e+003;3.9512819824e+003;3.9383332520e+003;3.9512819824e+003;3.9638461914e+003;3.9739743652e+003;3.9919230957e+003;3.9643588867e+003;3.9787180176e+003;3.9694870605e+003;3.9608974609e+003;
2.1484375000e+000;3.9539743652e+003;3.9458974609e+003;3.9411538086e+003;3.9380769043e+003;3.9407692871e+003;3.9271794434e+003;3.9415385742e+003;3.9500000000e+003;3.9598718262e+003;3.9741025391e+003;3.9456411133e+003;3.9589743652e+003;3.9503845215e+003;3.9406411133e+003;
2.1562500000e+000;3.9789743652e+003;3.9767949219e+003;3.9641025391e+003;3.9647436523e+003;3.9787180176e+003;3.9662819824e+003;3.9762819824e+003;3.9824357910e+003;4.0034614258e+003;4.0124357910e+003;3.9755129395e+003;3.9839743652e+003;3.9769230957e+003;3.9667949219e+003;
2.1640625000e+000;3.9475642090e+003;3.9453845215e+003;3.9321794434e+003;3.9353845215e+003;3.9487180176e+003;3.9405129395e+003;3.9470512695e+003;3.9505129395e+003;3.9747436523e+003;3.9811538086e+003;3.9462819824e+003;3.9553845215e+003;3.9465385742e+003;3.9371794434e+003;
2.1718750000e+000;3.9215385742e+003;3.9187180176e+003;3.9061538086e+003;3.9110256348e+003;3.9242307129e+003;3.9171794434e+003;3.9232050781e+003;3.9208974609e+003;3.9466667480e+003;3.9497436523e+003;3.9193588867e+003;3.9288461914e+003;3.9196154785e+003;3.9098718262e+003;
2.1796875000e+000;3.9262819824e+003;3.9224357910e+003;3.9107692871e+003;3.9161538086e+003;3.9312819824e+003;3.9216667480e+003;3.9298718262e+003;3.9224357910e+003;3.9483332520e+003;3.9487180176e+003;3.9217949219e+003;3.9311538086e+003;3.9230769043e+003;3.9114101563e+003;
2.1875000000e+000;3.9692307129e+003;3.9576923828e+003;3.9591025391e+003;3.9603845215e+003;3.9782050781e+003;3.9716667480e+003;3.9847436523e+003;3.9666667480e+003;3.9865385742e+003;3.9876923828e+003;3.9680769043e+003;3.9852563477e+003;3.9691025391e+003;3.9542307129e+003;
2.1953125000e+000;3.9903845215e+003;3.9761538086e+003;3.9801281738e+003;3.9780769043e+003;3.9978205566e+003;3.9860256348e+003;4.0006411133e+003;3.9810256348e+003;3.9979487305e+003;4.0025642090e+003;3.9900000000e+003;4.0085898438e+003;3.9906411133e+003;3.9757692871e+003;
2.2031250000e+000;4.0091025391e+003;3.9878205566e+003;4.0021794434e+003;3.9906411133e+003;4.0023076172e+003;3.9810256348e+003;4.0024357910e+003;3.9893588867e+003;3.9938461914e+003;4.0087180176e+003;4.0041025391e+003;4.0334614258e+003;4.0029487305e+003;3.9946154785e+003;
2.2109375000e+000;4.0607692871e+003;4.0444870605e+003;4.0542307129e+003;4.0382050781e+003;4.0482050781e+003;4.0171794434e+003;4.0480769043e+003;4.0265385742e+003;4.0215385742e+003;4.0441025391e+003;4.0476923828e+003;4.0793588867e+003;4.0478205566e+003;4.0423076172e+003;
2.2187500000e+000;3.9978205566e+003;3.9807692871e+003;3.9934614258e+003;3.9850000000e+003;3.9853845215e+003;3.9552563477e+003;3.9855129395e+003;3.9883332520e+003;3.9833332520e+003;3.9942307129e+003;3.9914101563e+003;4.0238461914e+003;3.9917949219e+003;3.9846154785e+003;
2.2265625000e+000;3.9980769043e+003;3.9832050781e+003;3.9930769043e+003;3.9842307129e+003;3.9843588867e+003;3.9533332520e+003;3.9842307129e+003;3.9933332520e+003;3.9929487305e+003;3.9985898438e+003;3.9948718262e+003;4.0224357910e+003;3.9944870605e+003;3.9858974609e+003;
2.2343750000e+000;3.9643588867e+003;3.9543588867e+003;3.9594870605e+003;3.9519230957e+003;3.9516667480e+003;3.9269230957e+003;3.9494870605e+003;3.9656411133e+003;3.9728205566e+003;3.9703845215e+003;3.9669230957e+003;3.9855129395e+003;3.9587180176e+003;3.9543588867e+003;
2.2421875000e+000;3.9432050781e+003;3.9321794434e+003;3.9367949219e+003;3.9319230957e+003;3.9346154785e+003;3.9134614258e+003;3.9319230957e+003;3.9435898438e+003;3.9529487305e+003;3.9482050781e+003;3.9444870605e+003;3.9608974609e+003;3.9341025391e+003;3.9323076172e+003;
2.2500000000e+000;4.0105129395e+003;3.9992307129e+003;4.0001281738e+003;3.9956411133e+003;4.0126923828e+003;3.9914101563e+003;4.0110256348e+003;4.0135898438e+003;4.0271794434e+003;4.0262819824e+003;4.0114101563e+003;4.0291025391e+003;4.0117949219e+003;4.0034614258e+003;
2.2578125000e+000;4.0135898438e+003;4.0033332520e+003;4.0014101563e+003;3.9970512695e+003;4.0120512695e+003;3.9950000000e+003;4.0130769043e+003;4.0171794434e+003;4.0311538086e+003;4.0303845215e+003;4.0139743652e+003;4.0326923828e+003;4.0160256348e+003;4.0069230957e+003;
2.2656250000e+000;4.0062819824e+003;3.9962819824e+003;3.9873076172e+003;3.9864101563e+003;4.0007692871e+003;3.9876923828e+003;4.0006411133e+003;4.0023076172e+003;4.0167949219e+003;4.0143588867e+003;4.0024357910e+003;4.0174357910e+003;4.0000000000e+003;3.9939743652e+003;
2.2734375000e+000;4.0121794434e+003;4.0026923828e+003;3.9933332520e+003;3.9921794434e+003;4.0111538086e+003;3.9955129395e+003;4.0069230957e+003;4.0071794434e+003;4.0224357910e+003;4.0203845215e+003;4.0085898438e+003;4.0225642090e+003;4.0043588867e+003;3.9998718262e+003;
2.2812500000e+000;3.9421794434e+003;3.9317949219e+003;3.9338461914e+003;3.9305129395e+003;3.9480769043e+003;3.9388461914e+003;3.9475642090e+003;3.9388461914e+003;3.9580769043e+003;3.9515385742e+003;3.9375642090e+003;3.9593588867e+003;3.9416667480e+003;3.9346154785e+003;
2.2890625000e+000;3.9547436523e+003;3.9461538086e+003;3.9438461914e+003;3.9424357910e+003;3.9573076172e+003;3.9484614258e+003;3.9591025391e+003;3.9452563477e+003;3.9665385742e+003;3.9589743652e+003;3.9480769043e+003;3.9685898438e+003;3.9552563477e+003;3.9441025391e+003;
2.2968750000e+000;3.9989743652e+003;3.9933332520e+003;3.9848718262e+003;3.9838461914e+003;3.9988461914e+003;3.9857692871e+003;3.9994870605e+003;3.9839743652e+003;4.0065385742e+003;4.0017949219e+003;3.9930769043e+003;4.0105129395e+003;4.0006411133e+003;3.9869230957e+003;
2.3046875000e+000;4.0316667480e+003;4.0276923828e+003;4.0173076172e+003;4.0143588867e+003;4.0303845215e+003;4.0125642090e+003;4.0275642090e+003;4.0141025391e+003;4.0360256348e+003;4.0370512695e+003;4.0285898438e+003;4.0446154785e+003;4.0338461914e+003;4.0216667480e+003;
2.3125000000e+000;3.9438461914e+003;3.9270512695e+003;3.9353845215e+003;3.9266667480e+003;3.9364101563e+003;3.9178205566e+003;3.9279487305e+003;3.9074357910e+003;3.9250000000e+003;3.9375642090e+003;3.9347436523e+003;3.9560256348e+003;3.9325642090e+003;3.9312819824e+003;
2.3203125000e+000;3.9561538086e+003;3.9373076172e+003;3.9507692871e+003;3.9366667480e+003;3.9394870605e+003;3.9157692871e+003;3.9316667480e+003;3.9223076172e+003;3.9301281738e+003;3.9467949219e+003;3.9500000000e+003;3.9644870605e+003;3.9489743652e+003;3.9402563477e+003;
2.3281250000e+000;3.9700000000e+003;3.9516667480e+003;3.9669230957e+003;3.9496154785e+003;3.9543588867e+003;3.9253845215e+003;3.9433332520e+003;3.9412819824e+003;3.9471794434e+003;3.9634614258e+003;3.9653845215e+003;3.9805129395e+003;3.9637180176e+003;3.9561538086e+003;
2.3359375000e+000;3.9608974609e+003;3.9446154785e+003;3.9593588867e+003;3.9425642090e+003;3.9451281738e+003;3.9152563477e+003;3.9357692871e+003;3.9432050781e+003;3.9501281738e+003;3.9596154785e+003;3.9571794434e+003;3.9744870605e+003;3.9532050781e+003;3.9503845215e+003;
2.3437500000e+000;3.9414101563e+003;3.9257692871e+003;3.9374357910e+003;3.9248718262e+003;3.9250000000e+003;3.8993588867e+003;3.9208974609e+003;3.9256411133e+003;3.9337180176e+003;3.9382050781e+003;3.9357692871e+003;3.9525642090e+003;3.9326923828e+003;3.9294870605e+003;
2.3515625000e+000;4.0192307129e+003;4.0096154785e+003;4.0102563477e+003;3.9994870605e+003;4.0121794434e+003;3.9875642090e+003;4.0089743652e+003;4.0194870605e+003;4.0285898438e+003;4.0289743652e+003;4.0226923828e+003;4.0274357910e+003;4.0238461914e+003;4.0043588867e+003;
2.3593750000e+000;3.9379487305e+003;3.9337180176e+003;3.9371794434e+003;3.9267949219e+003;3.9402563477e+003;3.9319230957e+003;3.9496154785e+003;3.9591025391e+003;3.9752563477e+003;3.9657692871e+003;3.9511538086e+003;3.9606411133e+003;3.9507692871e+003;3.9317949219e+003;
2.3671875000e+000;3.9300000000e+003;3.9239743652e+003;3.9271794434e+003;3.9178205566e+003;3.9335898438e+003;3.9287180176e+003;3.9464101563e+003;3.9470512695e+003;3.9671794434e+003;3.9546154785e+003;3.9396154785e+003;3.9474357910e+003;3.9393588867e+003;3.9233332520e+003;
2.3750000000e+000;3.9712819824e+003;3.9593588867e+003;3.9651281738e+003;3.9553845215e+003;3.9776923828e+003;3.9741025391e+003;3.9855129395e+003;3.9776923828e+003;4.0016667480e+003;3.9894870605e+003;3.9753845215e+003;3.9801281738e+003;3.9738461914e+003;3.9592307129e+003;
2.3828125000e+000;4.0008974609e+003;3.9892307129e+003;3.9933332520e+003;3.9834614258e+003;4.0056411133e+003;3.9987180176e+003;4.0112819824e+003;4.0005129395e+003;4.0255129395e+003;4.0161538086e+003;4.0035898438e+003;4.0114101563e+003;4.0026923828e+003;3.9860256348e+003;
2.3906250000e+000;4.0728205566e+003;4.0632050781e+003;4.0652563477e+003;4.0485898438e+003;4.0715385742e+003;4.0575642090e+003;4.0725642090e+003;4.0601281738e+003;4.0892307129e+003;4.0894870605e+003;4.0774357910e+003;4.0901281738e+003;4.0761538086e+003;4.0605129395e+003;
2.3984375000e+000;4.0669230957e+003;4.0564101563e+003;4.0619230957e+003;4.0403845215e+003;4.0630769043e+003;4.0496154785e+003;4.0638461914e+003;4.0508974609e+003;4.0812819824e+003;4.0850000000e+003;4.0737180176e+003;4.0867949219e+003;4.0711538086e+003;4.0593588867e+003;
2.4062500000e+000;4.0919230957e+003;4.0751281738e+003;4.0864101563e+003;4.0566667480e+003;4.0835898438e+003;4.0558974609e+003;4.0737180176e+003;4.0523076172e+003;4.0803845215e+003;4.0928205566e+003;4.0934614258e+003;4.0991025391e+003;4.0917949219e+003;4.0841025391e+003;
2.4140625000e+000;4.1525639648e+003;4.1371796875e+003;4.1458974609e+003;4.1151284180e+003;4.1426923828e+003;4.1065385742e+003;4.1256411133e+003;4.1082050781e+003;4.1342309570e+003;4.1530771484e+003;4.1547436523e+003;4.1603847656e+003;4.1532050781e+003;4.1438461914e+003;
2.4218750000e+000;4.1830771484e+003;4.1712822266e+003;4.1780771484e+003;4.1473076172e+003;4.1719228516e+003;4.1335898438e+003;4.1521796875e+003;4.1407690430e+003;4.1638461914e+003;4.1878203125e+003;4.1884614258e+003;4.1974360352e+003;4.1864101563e+003;4.1753847656e+003;
2.4296875000e+000;4.1733334961e+003;4.1661538086e+003;4.1720512695e+003;4.1428203125e+003;4.1625639648e+003;4.1270512695e+003;4.1450000000e+003;4.1378203125e+003;4.1565385742e+003;4.1826923828e+003;4.1825639648e+003;4.1953847656e+003;4.1801284180e+003;4.1673076172e+003;
2.4375000000e+000;4.2106411133e+003;4.2203847656e+003;4.2193588867e+003;4.1921796875e+003;4.2150000000e+003;4.1688461914e+003;4.1983334961e+003;4.2043588867e+003;4.2032050781e+003;4.2326923828e+003;4.2330771484e+003;4.2396152344e+003;4.2335898438e+003;4.2188461914e+003;
2.4453125000e+000;4.2188461914e+003;4.2293588867e+003;4.2282050781e+003;4.2011538086e+003;4.2247436523e+003;4.1764101563e+003;4.2074360352e+003;4.2160258789e+003;4.2162822266e+003;4.2439741211e+003;4.2433334961e+003;4.2473076172e+003;4.2429487305e+003;4.2296152344e+003;
2.4531250000e+000;4.2961538086e+003;4.3207690430e+003;4.3058974609e+003;4.2810258789e+003;4.3170512695e+003;4.2652563477e+003;4.2944873047e+003;4.3096152344e+003;4.3215385742e+003;4.3396152344e+003;4.3300000000e+003;4.3273076172e+003;4.3311538086e+003;4.3060258789e+003;
2.4609375000e+000;4.2916665039e+003;4.3287177734e+003;4.3112822266e+003;4.2888461914e+003;4.3312822266e+003;4.2883334961e+003;4.3093588867e+003;4.3237177734e+003;4.3348715820e+003;4.3519228516e+003;4.3339741211e+003;4.3310258789e+003;4.3358974609e+003;4.3125639648e+003;
2.4687500000e+000;4.3198715820e+003;4.3588461914e+003;4.3394873047e+003;4.3179487305e+003;4.3639741211e+003;4.3193588867e+003;4.3398715820e+003;4.3505126953e+003;4.3634614258e+003;4.3800000000e+003;4.3619228516e+003;4.3569228516e+003;4.3643588867e+003;4.3416665039e+003;
2.4765625000e+000;4.3593588867e+003;4.4098715820e+003;4.3839741211e+003;4.3638461914e+003;4.4171796875e+003;4.3698715820e+003;4.3871796875e+003;4.3989741211e+003;4.4157690430e+003;4.4335898438e+003;4.4102563477e+003;4.4046152344e+003;4.4171796875e+003;4.3861538086e+003;
2.4843750000e+000;4.2597436523e+003;4.3138461914e+003;4.2846152344e+003;4.2707690430e+003;4.3198715820e+003;4.2798715820e+003;4.2925639648e+003;4.2873076172e+003;4.3039741211e+003;4.3217949219e+003;4.3019228516e+003;4.2996152344e+003;4.3117949219e+003;4.2864101563e+003;
2.4921875000e+000;4.2565385742e+003;4.3097436523e+003;4.2796152344e+003;4.2655126953e+003;4.3133334961e+003;4.2738461914e+003;4.2853847656e+003;4.2785898438e+003;4.2960258789e+003;4.3152563477e+003;4.2960258789e+003;4.2957690430e+003;4.3050000000e+003;4.2830771484e+003;
2.5000000000e+000;4.2391025391e+003;4.2916665039e+003;4.2670512695e+003;4.2456411133e+003;4.2878203125e+003;4.2515385742e+003;4.2676923828e+003;4.2511538086e+003;4.2701284180e+003;4.2901284180e+003;4.2783334961e+003;4.2870512695e+003;4.2856411133e+003;4.2642309570e+003;
2.5078125000e+000;4.2420512695e+003;4.2941025391e+003;4.2716665039e+003;4.2485898438e+003;4.2897436523e+003;4.2529487305e+003;4.2702563477e+003;4.2538461914e+003;4.2723076172e+003;4.2932050781e+003;4.2821796875e+003;4.2923076172e+003;4.2897436523e+003;4.2662822266e+003;
2.5156250000e+000;4.1793588867e+003;4.2253847656e+003;4.2089741211e+003;4.1905126953e+003;4.2248715820e+003;4.1932050781e+003;4.2069228516e+003;4.1965385742e+003;4.2089741211e+003;4.2300000000e+003;4.2194873047e+003;4.2306411133e+003;4.2266665039e+003;4.2033334961e+003;
2.5234375000e+000;4.1378203125e+003;4.1807690430e+003;4.1656411133e+003;4.1519228516e+003;4.1826923828e+003;4.1532050781e+003;4.1665385742e+003;4.1565385742e+003;4.1651284180e+003;4.1842309570e+003;4.1769228516e+003;4.1865385742e+003;4.1841025391e+003;4.1617949219e+003;
2.5312500000e+000;4.1594873047e+003;4.2003847656e+003;4.1867949219e+003;4.1741025391e+003;4.2020512695e+003;4.1605126953e+003;4.1805126953e+003;4.1847436523e+003;4.1857690430e+003;4.2047436523e+003;4.2008974609e+003;4.2030771484e+003;4.2038461914e+003;4.1838461914e+003;
2.5390625000e+000;4.1451284180e+003;4.1834614258e+003;4.1739741211e+003;4.1589741211e+003;4.1844873047e+003;4.1438461914e+003;4.1632050781e+003;4.1737177734e+003;4.1732050781e+003;4.1914101563e+003;4.1847436523e+003;4.1892309570e+003;4.1864101563e+003;4.1687177734e+003;
2.5468750000e+000;4.1183334961e+003;4.1530771484e+003;4.1457690430e+003;4.1306411133e+003;4.1543588867e+003;4.1169228516e+003;4.1357690430e+003;4.1475639648e+003;4.1470512695e+003;4.1615385742e+003;4.1533334961e+003;4.1606411133e+003;4.1555126953e+003;4.1402563477e+003;
2.5546875000e+000;4.1083334961e+003;4.1401284180e+003;4.1324360352e+003;4.1178203125e+003;4.1429487305e+003;4.1064101563e+003;4.1269228516e+003;4.1365385742e+003;4.1376923828e+003;4.1470512695e+003;4.1391025391e+003;4.1474360352e+003;4.1426923828e+003;4.1287177734e+003;
2.5625000000e+000;4.0956411133e+003;4.1300000000e+003;4.1243588867e+003;4.1124360352e+003;4.1338461914e+003;4.0983334961e+003;4.1197436523e+003;4.1365385742e+003;4.1428203125e+003;4.1411538086e+003;4.1338461914e+003;4.1396152344e+003;4.1388461914e+003;4.1214101563e+003;
2.5703125000e+000;4.0925642090e+003;4.1269228516e+003;4.1206411133e+003;4.1106411133e+003;4.1328203125e+003;4.0982050781e+003;4.1164101563e+003;4.1317949219e+003;4.1393588867e+003;4.1382050781e+003;4.1317949219e+003;4.1339741211e+003;4.1357690430e+003;4.1155126953e+003;
2.5781250000e+000;4.0961538086e+003;4.1306411133e+003;4.1202563477e+003;4.1101284180e+003;4.1474360352e+003;4.1142309570e+003;4.1257690430e+003;4.1297436523e+003;4.1475639648e+003;4.1476923828e+003;4.1378203125e+003;4.1360258789e+003;4.1385898438e+003;4.1161538086e+003;
2.5859375000e+000;4.0869230957e+003;4.1247436523e+003;4.1102563477e+003;4.1052563477e+003;4.1426923828e+003;4.1171796875e+003;4.1265385742e+003;4.1125639648e+003;4.1324360352e+003;4.1371796875e+003;4.1225639648e+003;4.1225639648e+003;4.1330771484e+003;4.1058974609e+003;
2.5937500000e+000;4.1182050781e+003;4.1584614258e+003;4.1433334961e+003;4.1366665039e+003;4.1753847656e+003;4.1471796875e+003;4.1561538086e+003;4.1415385742e+003;4.1621796875e+003;4.1716665039e+003;4.1565385742e+003;4.1543588867e+003;4.1674360352e+003;4.1387177734e+003;
2.6015625000e+000;4.1102563477e+003;4.1438461914e+003;4.1380771484e+003;4.1229487305e+003;4.1601284180e+003;4.1312822266e+003;4.1379487305e+003;4.1164101563e+003;4.1330771484e+003;4.1478203125e+003;4.1428203125e+003;4.1455126953e+003;4.1493588867e+003;4.1271796875e+003;
2.6093750000e+000;4.1617949219e+003;4.1994873047e+003;4.1855126953e+003;4.1728203125e+003;4.2043588867e+003;4.1730771484e+003;4.1855126953e+003;4.1673076172e+003;4.1734614258e+003;4.1961538086e+003;4.1908974609e+003;4.1933334961e+003;4.1983334961e+003;4.1778203125e+003;
2.6171875000e+000;4.1394873047e+003;4.1779487305e+003;4.1648715820e+003;4.1534614258e+003;4.1832050781e+003;4.1532050781e+003;4.1658974609e+003;4.1494873047e+003;4.1535898438e+003;4.1747436523e+003;4.1720512695e+003;4.1738461914e+003;4.1764101563e+003;4.1575639648e+003;
2.6250000000e+000;4.1273076172e+003;4.1656411133e+003;4.1537177734e+003;4.1420512695e+003;4.1730771484e+003;4.1415385742e+003;4.1556411133e+003;4.1410258789e+003;4.1443588867e+003;4.1624360352e+003;4.1619228516e+003;4.1634614258e+003;4.1641025391e+003;4.1457690430e+003;
2.6328125000e+000;4.1717949219e+003;4.2108974609e+003;4.1984614258e+003;4.1830771484e+003;4.2196152344e+003;4.1815385742e+003;4.2006411133e+003;4.1985898438e+003;4.2020512695e+003;4.2171796875e+003;4.2089741211e+003;4.2102563477e+003;4.2116665039e+003;4.1926923828e+003;
2.6406250000e+000;4.1800000000e+003;4.2194873047e+003;4.2111538086e+003;4.1935898438e+003;4.2261538086e+003;4.1894873047e+003;4.2112822266e+003;4.2233334961e+003;4.2238461914e+003;4.2369228516e+003;4.2203847656e+003;4.2224360352e+003;4.2214101563e+003;4.2044873047e+003;
2.6484375000e+000;4.1978203125e+003;4.2383334961e+003;4.2287177734e+003;4.2092309570e+003;4.2429487305e+003;4.2029487305e+003;4.2256411133e+003;4.2387177734e+003;4.2407690430e+003;4.2519228516e+003;4.2391025391e+003;4.2397436523e+003;4.2391025391e+003;4.2214101563e+003;
2.6562500000e+000;4.2155126953e+003;4.2570512695e+003;4.2460258789e+003;4.2238461914e+003;4.2589741211e+003;4.2157690430e+003;4.2387177734e+003;4.2538461914e+003;4.2591025391e+003;4.2692309570e+003;4.2578203125e+003;4.2582050781e+003;4.2582050781e+003;4.2396152344e+003;
2.6640625000e+000;4.1787177734e+003;4.2187177734e+003;4.2098715820e+003;4.1857690430e+003;4.2184614258e+003;4.1773076172e+003;4.1991025391e+003;4.2139741211e+003;4.2234614258e+003;4.2337177734e+003;4.2197436523e+003;4.2223076172e+003;4.2234614258e+003;4.2030771484e+003;
2.6718750000e+000;4.1534614258e+003;4.1920512695e+003;4.1847436523e+003;4.1621796875e+003;4.1934614258e+003;4.1542309570e+003;4.1746152344e+003;4.1852563477e+003;4.1958974609e+003;4.2064101563e+003;4.1929487305e+003;4.1942309570e+003;4.1973076172e+003;4.1755126953e+003;
2.6796875000e+000;4.1484614258e+003;4.1870512695e+003;4.1792309570e+003;4.1594873047e+003;4.1906411133e+003;4.1521796875e+003;4.1694873047e+003;4.1769228516e+003;4.1896152344e+003;4.2003847656e+003;4.1882050781e+003;4.1870512695e+003;4.1914101563e+003;4.1692309570e+003;
2.6875000000e+000;4.0993588867e+003;4.1402563477e+003;4.1253847656e+003;4.1120512695e+003;4.1465385742e+003;4.1243588867e+003;4.1278203125e+003;4.1192309570e+003;4.1461538086e+003;4.1519228516e+003;4.1378203125e+003;4.1378203125e+003;4.1407690430e+003;4.1232050781e+003;
2.6953125000e+000;4.1178203125e+003;4.1584614258e+003;4.1469228516e+003;4.1296152344e+003;4.1676923828e+003;4.1426923828e+003;4.1475639648e+003;4.1373076172e+003;4.1626923828e+003;4.1717949219e+003;4.1592309570e+003;4.1562822266e+003;4.1605126953e+003;4.1416665039e+003;
2.7031250000e+000;4.0606411133e+003;4.0974360352e+003;4.0925642090e+003;4.0834614258e+003;4.1106411133e+003;4.0952563477e+003;4.0979487305e+003;4.0751281738e+003;4.0948718262e+003;4.1065385742e+003;4.1012822266e+003;4.1052563477e+003;4.1034614258e+003;4.0911538086e+003;
2.7109375000e+000;4.1647436523e+003;4.2030771484e+003;4.1897436523e+003;4.1750000000e+003;4.2075639648e+003;4.1861538086e+003;4.1879487305e+003;4.1683334961e+003;4.1826923828e+003;4.2015385742e+003;4.1950000000e+003;4.2007690430e+003;4.2033334961e+003;4.1946152344e+003;
2.7187500000e+000;4.1662822266e+003;4.2028203125e+003;4.1937177734e+003;4.1748715820e+003;4.2052563477e+003;4.1835898438e+003;4.1858974609e+003;4.1715385742e+003;4.1830771484e+003;4.2030771484e+003;4.1951284180e+003;4.2011538086e+003;4.2020512695e+003;4.1938461914e+003;
2.7265625000e+000;4.1889741211e+003;4.2221796875e+003;4.2158974609e+003;4.1961538086e+003;4.2208974609e+003;4.1896152344e+003;4.1962822266e+003;4.1916665039e+003;4.1971796875e+003;4.2193588867e+003;4.2132050781e+003;4.2193588867e+003;4.2183334961e+003;4.2078203125e+003;
2.7343750000e+000;4.2032050781e+003;4.2383334961e+003;4.2300000000e+003;4.2101284180e+003;4.2353847656e+003;4.2005126953e+003;4.2053847656e+003;4.2065385742e+003;4.2110258789e+003;4.2356411133e+003;4.2293588867e+003;4.2364101563e+003;4.2347436523e+003;4.2252563477e+003;
2.7421875000e+000;4.1735898438e+003;4.2119228516e+003;4.2006411133e+003;4.1838461914e+003;4.2052563477e+003;4.1692309570e+003;4.1738461914e+003;4.1792309570e+003;4.1846152344e+003;4.2052563477e+003;4.2034614258e+003;4.2088461914e+003;4.2083334961e+003;4.2033334961e+003;
2.7500000000e+000;4.1684614258e+003;4.2075639648e+003;4.1942309570e+003;4.1792309570e+003;4.1993588867e+003;4.1606411133e+003;4.1705126953e+003;4.1766665039e+003;4.1823076172e+003;4.1987177734e+003;4.1998715820e+003;4.2029487305e+003;4.2038461914e+003;4.1991025391e+003;
2.7578125000e+000;4.1582050781e+003;4.1971796875e+003;4.1870512695e+003;4.1693588867e+003;4.1885898438e+003;4.1500000000e+003;4.1734614258e+003;4.1875639648e+003;4.1870512695e+003;4.2037177734e+003;4.2001284180e+003;4.2044873047e+003;4.1978203125e+003;4.1910258789e+003;
2.7656250000e+000;4.1433334961e+003;4.1829487305e+003;4.1738461914e+003;4.1566665039e+003;4.1752563477e+003;4.1407690430e+003;4.1651284180e+003;4.1766665039e+003;4.1765385742e+003;4.1932050781e+003;4.1866665039e+003;4.1917949219e+003;4.1833334961e+003;4.1771796875e+003;
2.7734375000e+000;4.1678203125e+003;4.2106411133e+003;4.1980771484e+003;4.1828203125e+003;4.2057690430e+003;4.1729487305e+003;4.1952563477e+003;4.2050000000e+003;4.2139741211e+003;4.2247436523e+003;4.2114101563e+003;4.2135898438e+003;4.2092309570e+003;4.2023076172e+003;
2.7812500000e+000;4.1679487305e+003;4.2115385742e+003;4.1985898438e+003;4.1837177734e+003;4.2084614258e+003;4.1783334961e+003;4.1965385742e+003;4.2085898438e+003;4.2225639648e+003;4.2283334961e+003;4.2119228516e+003;4.2132050781e+003;4.2101284180e+003;4.2023076172e+003;
2.7890625000e+000;4.1119228516e+003;4.1541025391e+003;4.1380771484e+003;4.1315385742e+003;4.1593588867e+003;4.1380771484e+003;4.1487177734e+003;4.1470512695e+003;4.1643588867e+003;4.1621796875e+003;4.1470512695e+003;4.1506411133e+003;4.1434614258e+003;4.1375639648e+003;
2.7968750000e+000;4.1341025391e+003;4.1783334961e+003;4.1591025391e+003;4.1538461914e+003;4.1853847656e+003;4.1611538086e+003;4.1714101563e+003;4.1655126953e+003;4.1837177734e+003;4.1834614258e+003;4.1667949219e+003;4.1714101563e+003;4.1621796875e+003;4.1588461914e+003;
2.8046875000e+000;4.1408974609e+003;4.1865385742e+003;4.1673076172e+003;4.1616665039e+003;4.1948715820e+003;4.1705126953e+003;4.1769228516e+003;4.1712822266e+003;4.1905126953e+003;4.1930771484e+003;4.1732050781e+003;4.1803847656e+003;4.1678203125e+003;4.1675639648e+003;
2.8125000000e+000;4.0070512695e+003;4.0355129395e+003;4.0287180176e+003;4.0282050781e+003;4.0453845215e+003;4.0401281738e+003;4.0317949219e+003;4.0191025391e+003;4.0344870605e+003;4.0373076172e+003;4.0296154785e+003;4.0376923828e+003;4.0321794434e+003;4.0297436523e+003;
2.8203125000e+000;3.9953845215e+003;4.0228205566e+003;4.0185898438e+003;4.0185898438e+003;4.0323076172e+003;4.0275642090e+003;4.0202563477e+003;4.0076923828e+003;4.0203845215e+003;4.0232050781e+003;4.0165385742e+003;4.0266667480e+003;4.0193588867e+003;4.0160256348e+003;
2.8281250000e+000;4.0041025391e+003;4.0230769043e+003;4.0244870605e+003;4.0229487305e+003;4.0289743652e+003;4.0216667480e+003;4.0162819824e+003;4.0076923828e+003;4.0098718262e+003;4.0241025391e+003;4.0171794434e+003;4.0312819824e+003;4.0183332520e+003;4.0173076172e+003;
2.8359375000e+000;4.0233332520e+003;4.0379487305e+003;4.0398718262e+003;4.0362819824e+003;4.0410256348e+003;4.0311538086e+003;4.0264101563e+003;4.0244870605e+003;4.0250000000e+003;4.0415385742e+003;4.0361538086e+003;4.0498718262e+003;4.0364101563e+003;4.0369230957e+003;
2.8437500000e+000;4.0039743652e+003;4.0106411133e+003;4.0161538086e+003;4.0120512695e+003;4.0123076172e+003;4.0006411133e+003;3.9993588867e+003;4.0042307129e+003;4.0002563477e+003;4.0137180176e+003;4.0170512695e+003;4.0333332520e+003;4.0167949219e+003;4.0166667480e+003;
2.8515625000e+000;4.0278205566e+003;4.0324357910e+003;4.0376923828e+003;4.0317949219e+003;4.0339743652e+003;4.0160256348e+003;4.0264101563e+003;4.0367949219e+003;4.0301281738e+003;4.0451281738e+003;4.0429487305e+003;4.0598718262e+003;4.0432050781e+003;4.0352563477e+003;
2.8593750000e+000;4.0028205566e+003;4.0039743652e+003;4.0124357910e+003;4.0058974609e+003;4.0053845215e+003;3.9907692871e+003;4.0025642090e+003;4.0132050781e+003;4.0089743652e+003;4.0180769043e+003;4.0155129395e+003;4.0332050781e+003;4.0147436523e+003;4.0064101563e+003;
2.8671875000e+000;4.0364101563e+003;4.0323076172e+003;4.0403845215e+003;4.0315385742e+003;4.0352563477e+003;4.0166667480e+003;4.0319230957e+003;4.0435898438e+003;4.0462819824e+003;4.0429487305e+003;4.0442307129e+003;4.0588461914e+003;4.0417949219e+003;4.0264101563e+003;
2.8750000000e+000;4.0771794434e+003;4.0737180176e+003;4.0796154785e+003;4.0685898438e+003;4.0766667480e+003;4.0558974609e+003;4.0698718262e+003;4.0864101563e+003;4.0925642090e+003;4.0867949219e+003;4.0866667480e+003;4.0994873047e+003;4.0823076172e+003;4.0650000000e+003;
2.8828125000e+000;4.0644870605e+003;4.0697436523e+003;4.0762819824e+003;4.0651281738e+003;4.0779487305e+003;4.0676923828e+003;4.0757692871e+003;4.0876923828e+003;4.1020512695e+003;4.0937180176e+003;4.0816667480e+003;4.0941025391e+003;4.0757692871e+003;4.0637180176e+003;
2.8906250000e+000;4.0692307129e+003;4.0789743652e+003;4.0819230957e+003;4.0738461914e+003;4.0912819824e+003;4.0794870605e+003;4.0888461914e+003;4.0939743652e+003;4.1110258789e+003;4.1039741211e+003;4.0883332520e+003;4.0985898438e+003;4.0844870605e+003;4.0714101563e+003;
2.8984375000e+000;4.0630769043e+003;4.0758974609e+003;4.0698718262e+003;4.0692307129e+003;4.0934614258e+003;4.0833332520e+003;4.0878205566e+003;4.0866667480e+003;4.1057690430e+003;4.1020512695e+003;4.0834614258e+003;4.0883332520e+003;4.0796154785e+003;4.0653845215e+003;
2.9062500000e+000;4.0360256348e+003;4.0467949219e+003;4.0376923828e+003;4.0401281738e+003;4.0644870605e+003;4.0602563477e+003;4.0593588867e+003;4.0546154785e+003;4.0732050781e+003;4.0674357910e+003;4.0521794434e+003;4.0553845215e+003;4.0474357910e+003;4.0347436523e+003;
2.9140625000e+000;4.0724357910e+003;4.0797436523e+003;4.0691025391e+003;4.0693588867e+003;4.0948718262e+003;4.0917949219e+003;4.0917949219e+003;4.0782050781e+003;4.0916667480e+003;4.0852563477e+003;4.0760256348e+003;4.0820512695e+003;4.0775642090e+003;4.0646154785e+003;
2.9218750000e+000;4.0850000000e+003;4.0930769043e+003;4.0860256348e+003;4.0846154785e+003;4.1071796875e+003;4.1034614258e+003;4.1066665039e+003;4.0924357910e+003;4.1030771484e+003;4.1015385742e+003;4.0905129395e+003;4.1003847656e+003;4.0934614258e+003;4.0815385742e+003;
2.9296875000e+000;4.0802563477e+003;4.0892307129e+003;4.0846154785e+003;4.0821794434e+003;4.1016665039e+003;4.0985898438e+003;4.1038461914e+003;4.0874357910e+003;4.0950000000e+003;4.0975639648e+003;4.0874357910e+003;4.1006411133e+003;4.0898718262e+003;4.0810256348e+003;
2.9375000000e+000;4.1580771484e+003;4.1637177734e+003;4.1608974609e+003;4.1470512695e+003;4.1620512695e+003;4.1493588867e+003;4.1585898438e+003;4.1605126953e+003;4.1550000000e+003;4.1661538086e+003;4.1666665039e+003;4.1819228516e+003;4.1667949219e+003;4.1650000000e+003;
2.9453125000e+000;4.1614101563e+003;4.1660258789e+003;4.1670512695e+003;4.1502563477e+003;4.1629487305e+003;4.1496152344e+003;4.1608974609e+003;4.1638461914e+003;4.1556411133e+003;4.1684614258e+003;4.1694873047e+003;4.1883334961e+003;4.1712822266e+003;4.1680771484e+003;
2.9531250000e+000;4.2484614258e+003;4.2635898438e+003;4.2665385742e+003;4.2402563477e+003;4.2562822266e+003;4.2308974609e+003;4.2508974609e+003;4.2638461914e+003;4.2517949219e+003;4.2753847656e+003;4.2741025391e+003;4.2923076172e+003;4.2684614258e+003;4.2710258789e+003;
2.9609375000e+000;4.2324360352e+003;4.2516665039e+003;4.2579487305e+003;4.2252563477e+003;4.2469228516e+003;4.2185898438e+003;4.2435898438e+003;4.2562822266e+003;4.2614101563e+003;4.2751284180e+003;4.2710258789e+003;4.2830771484e+003;4.2639741211e+003;4.2615385742e+003;
2.9687500000e+000;4.2512822266e+003;4.2730771484e+003;4.2778203125e+003;4.2442309570e+003;4.2671796875e+003;4.2370512695e+003;4.2597436523e+003;4.2741025391e+003;4.2848715820e+003;4.2983334961e+003;4.2907690430e+003;4.3007690430e+003;4.2865385742e+003;4.2798715820e+003;
2.9765625000e+000;4.2657690430e+003;4.2919228516e+003;4.2891025391e+003;4.2656411133e+003;4.2833334961e+003;4.2515385742e+003;4.2717949219e+003;4.2837177734e+003;4.2974360352e+003;4.3138461914e+003;4.3033334961e+003;4.3060258789e+003;4.2993588867e+003;4.2932050781e+003;
2.9843750000e+000;4.3316665039e+003;4.3598715820e+003;4.3506411133e+003;4.3271796875e+003;4.3526923828e+003;4.3142309570e+003;4.3379487305e+003;4.3455126953e+003;4.3623076172e+003;4.3775639648e+003;4.3685898438e+003;4.3664101563e+003;4.3632050781e+003;4.3553847656e+003;
2.9921875000e+000;4.4903847656e+003;4.5305126953e+003;4.5132050781e+003;4.4805126953e+003;4.5270512695e+003;4.4785898438e+003;4.5010258789e+003;4.5105126953e+003;4.5361538086e+003;4.5496152344e+003;4.5351284180e+003;4.5298715820e+003;4.5284614258e+003;4.5144873047e+003;
3.0000000000e+000;4.4962822266e+003;4.5430771484e+003;4.5275639648e+003;4.4923076172e+003;4.5414101563e+003;4.4966665039e+003;4.5151284180e+003;4.5262822266e+003;4.5517949219e+003;4.5653847656e+003;4.5460258789e+003;4.5442309570e+003;4.5405126953e+003;4.5255126953e+003;
3.0078125000e+000;4.3825639648e+003;4.4330771484e+003;4.4219228516e+003;4.3908974609e+003;4.4351284180e+003;4.4082050781e+003;4.4183334961e+003;4.4239741211e+003;4.4346152344e+003;4.4496152344e+003;4.4343588867e+003;4.4334614258e+003;4.4289741211e+003;4.4198715820e+003;
3.0156250000e+000;4.3501284180e+003;4.3987177734e+003;4.3883334961e+003;4.3573076172e+003;4.4021796875e+003;4.3784614258e+003;4.3851284180e+003;4.3898715820e+003;4.3988461914e+003;4.4119228516e+003;4.4010258789e+003;4.4006411133e+003;4.3935898438e+003;4.3878203125e+003;
3.0234375000e+000;4.2743588867e+003;4.3217949219e+003;4.3148715820e+003;4.2844873047e+003;4.3262822266e+003;4.3084614258e+003;4.3133334961e+003;4.3102563477e+003;4.3194873047e+003;4.3256411133e+003;4.3202563477e+003;4.3280771484e+003;4.3147436523e+003;4.3132050781e+003;
3.0312500000e+000;4.2620512695e+003;4.3111538086e+003;4.3048715820e+003;4.2748715820e+003;4.3142309570e+003;4.2970512695e+003;4.3051284180e+003;4.2976923828e+003;4.3052563477e+003;4.3110258789e+003;4.3062822266e+003;4.3158974609e+003;4.3039741211e+003;4.3028203125e+003;
3.0390625000e+000;4.2338461914e+003;4.2797436523e+003;4.2784614258e+003;4.2488461914e+003;4.2811538086e+003;4.2650000000e+003;4.2755126953e+003;4.2723076172e+003;4.2675639648e+003;4.2832050781e+003;4.2780771484e+003;4.2871796875e+003;4.2757690430e+003;4.2802563477e+003;
3.0468750000e+000;4.2012822266e+003;4.2430771484e+003;4.2438461914e+003;4.2164101563e+003;4.2452563477e+003;4.2305126953e+003;4.2396152344e+003;4.2355126953e+003;4.2284614258e+003;4.2450000000e+003;4.2417949219e+003;4.2539741211e+003;4.2383334961e+003;4.2451284180e+003;
3.0546875000e+000;4.1892309570e+003;4.2287177734e+003;4.2292309570e+003;4.2043588867e+003;4.2302563477e+003;4.2147436523e+003;4.2243588867e+003;4.2180771484e+003;4.2107690430e+003;4.2276923828e+003;4.2256411133e+003;4.2403847656e+003;4.2226923828e+003;4.2294873047e+003;
3.0625000000e+000;4.1982050781e+003;4.2373076172e+003;4.2367949219e+003;4.2135898438e+003;4.2362822266e+003;4.2185898438e+003;4.2312822266e+003;4.2244873047e+003;4.2176923828e+003;4.2356411133e+003;4.2328203125e+003;4.2482050781e+003;4.2308974609e+003;4.2362822266e+003;
3.0703125000e+000;4.2035898438e+003;4.2346152344e+003;4.2393588867e+003;4.2142309570e+003;4.2296152344e+003;4.2047436523e+003;4.2253847656e+003;4.2208974609e+003;4.2156411133e+003;4.2385898438e+003;4.2341025391e+003;4.2417949219e+003;4.2330771484e+003;4.2351284180e+003;
3.0781250000e+000;4.2358974609e+003;4.2688461914e+003;4.2702563477e+003;4.2458974609e+003;4.2634614258e+003;4.2317949219e+003;4.2512822266e+003;4.2501284180e+003;4.2479487305e+003;4.2717949219e+003;4.2671796875e+003;4.2741025391e+003;4.2674360352e+003;4.2665385742e+003;
3.0859375000e+000;4.1861538086e+003;4.2251284180e+003;4.2214101563e+003;4.2060258789e+003;4.2162822266e+003;4.1873076172e+003;4.1979487305e+003;4.2071796875e+003;4.2148715820e+003;4.2332050781e+003;4.2273076172e+003;4.2344873047e+003;4.2243588867e+003;4.2255126953e+003;
3.0937500000e+000;4.1765385742e+003;4.2132050781e+003;4.2005126953e+003;4.1917949219e+003;4.2030771484e+003;4.1775639648e+003;4.1866665039e+003;4.1957690430e+003;4.2205126953e+003;4.2271796875e+003;4.2171796875e+003;4.2142309570e+003;4.2103847656e+003;4.2107690430e+003;
3.1015625000e+000;4.1737177734e+003;4.2102563477e+003;4.1982050781e+003;4.1902563477e+003;4.2015385742e+003;4.1800000000e+003;4.1866665039e+003;4.1980771484e+003;4.2241025391e+003;4.2292309570e+003;4.2134614258e+003;4.2111538086e+003;4.2080771484e+003;4.2064101563e+003;
3.1093750000e+000;4.1721796875e+003;4.2079487305e+003;4.1920512695e+003;4.1889741211e+003;4.2078203125e+003;4.1950000000e+003;4.1973076172e+003;4.2024360352e+003;4.2210258789e+003;4.2217949219e+003;4.2084614258e+003;4.2002563477e+003;4.2048715820e+003;4.1971796875e+003;
3.1171875000e+000;4.1335898438e+003;4.1621796875e+003;4.1523076172e+003;4.1529487305e+003;4.1697436523e+003;4.1647436523e+003;4.1647436523e+003;4.1624360352e+003;4.1762822266e+003;4.1761538086e+003;4.1656411133e+003;4.1594873047e+003;4.1629487305e+003;4.1582050781e+003;
3.1250000000e+000;4.1274360352e+003;4.1546152344e+003;4.1474360352e+003;4.1474360352e+003;4.1621796875e+003;4.1611538086e+003;4.1615385742e+003;4.1530771484e+003;4.1637177734e+003;4.1647436523e+003;4.1529487305e+003;4.1491025391e+003;4.1521796875e+003;4.1480771484e+003;
3.1328125000e+000;4.1493588867e+003;4.1756411133e+003;4.1683334961e+003;4.1666665039e+003;4.1819228516e+003;4.1823076172e+003;4.1842309570e+003;4.1728203125e+003;4.1797436523e+003;4.1830771484e+003;4.1701284180e+003;4.1665385742e+003;4.1700000000e+003;4.1652563477e+003;
3.1406250000e+000;4.1583334961e+003;4.1819228516e+003;4.1738461914e+003;4.1698715820e+003;4.1846152344e+003;4.1883334961e+003;4.1925639648e+003;4.1852563477e+003;4.1835898438e+003;4.1896152344e+003;4.1800000000e+003;4.1767949219e+003;4.1764101563e+003;4.1714101563e+003;
3.1484375000e+000;4.1266665039e+003;4.1487177734e+003;4.1426923828e+003;4.1396152344e+003;4.1511538086e+003;4.1573076172e+003;4.1623076172e+003;4.1547436523e+003;4.1494873047e+003;4.1551284180e+003;4.1500000000e+003;4.1487177734e+003;4.1455126953e+003;4.1411538086e+003;
3.1562500000e+000;4.1121796875e+003;4.1334614258e+003;4.1297436523e+003;4.1278203125e+003;4.1370512695e+003;4.1424360352e+003;4.1494873047e+003;4.1385898438e+003;4.1310258789e+003;4.1378203125e+003;4.1361538086e+003;4.1364101563e+003;4.1326923828e+003;4.1283334961e+003;
3.1640625000e+000;4.1923076172e+003;4.2046152344e+003;4.2120512695e+003;4.1984614258e+003;4.2048715820e+003;4.2020512695e+003;4.2156411133e+003;4.1946152344e+003;4.1812822266e+003;4.2048715820e+003;4.2123076172e+003;4.2160258789e+003;4.2097436523e+003;4.2047436523e+003;
3.1718750000e+000;4.2252563477e+003;4.2398715820e+003;4.2473076172e+003;4.2308974609e+003;4.2378203125e+003;4.2293588867e+003;4.2433334961e+003;4.2232050781e+003;4.2091025391e+003;4.2353847656e+003;4.2475639648e+003;4.2500000000e+003;4.2438461914e+003;4.2403847656e+003;
3.1796875000e+000;4.2621796875e+003;4.2855126953e+003;4.2964101563e+003;4.2748715820e+003;4.2744873047e+003;4.2580771484e+003;4.2742309570e+003;4.2642309570e+003;4.2630771484e+003;4.2929487305e+003;4.3026923828e+003;4.3038461914e+003;4.2951284180e+003;4.2917949219e+003;
3.1875000000e+000;4.2679487305e+003;4.2946152344e+003;4.2967949219e+003;4.2808974609e+003;4.2842309570e+003;4.2569228516e+003;4.2674360352e+003;4.2712822266e+003;4.2875639648e+003;4.3093588867e+003;4.3070512695e+003;4.3096152344e+003;4.3014101563e+003;4.2976923828e+003;
3.1953125000e+000;4.2503847656e+003;4.2826923828e+003;4.2820512695e+003;4.2692309570e+003;4.2728203125e+003;4.2446152344e+003;4.2501284180e+003;4.2643588867e+003;4.2797436523e+003;4.2993588867e+003;4.2943588867e+003;4.2967949219e+003;4.2850000000e+003;4.2841025391e+003;
3.2031250000e+000;4.1997436523e+003;4.2334614258e+003;4.2335898438e+003;4.2297436523e+003;4.2291025391e+003;4.2078203125e+003;4.2164101563e+003;4.2311538086e+003;4.2388461914e+003;4.2429487305e+003;4.2461538086e+003;4.2402563477e+003;4.2335898438e+003;4.2267949219e+003;
3.2109375000e+000;4.2471796875e+003;4.2829487305e+003;4.2780771484e+003;4.2798715820e+003;4.2820512695e+003;4.2648715820e+003;4.2725639648e+003;4.2821796875e+003;4.2901284180e+003;4.2928203125e+003;4.2837177734e+003;4.2815385742e+003;4.2747436523e+003;4.2702563477e+003;
3.2187500000e+000;4.2337177734e+003;4.2728203125e+003;4.2655126953e+003;4.2710258789e+003;4.2737177734e+003;4.2619228516e+003;4.2676923828e+003;4.2715385742e+003;4.2791025391e+003;4.2794873047e+003;4.2697436523e+003;4.2683334961e+003;4.2594873047e+003;4.2571796875e+003;
3.2265625000e+000;4.2425639648e+003;4.2841025391e+003;4.2738461914e+003;4.2817949219e+003;4.2865385742e+003;4.2785898438e+003;4.2848715820e+003;4.2829487305e+003;4.2893588867e+003;4.2874360352e+003;4.2791025391e+003;4.2753847656e+003;4.2680771484e+003;4.2657690430e+003;
3.2343750000e+000;4.2869228516e+003;4.3294873047e+003;4.3155126953e+003;4.3251284180e+003;4.3301284180e+003;4.3269228516e+003;4.3379487305e+003;4.3324360352e+003;4.3348715820e+003;4.3341025391e+003;4.3237177734e+003;4.3167949219e+003;4.3158974609e+003;4.3107690430e+003;
3.2421875000e+000;4.2810258789e+003;4.3202563477e+003;4.3075639648e+003;4.3210258789e+003;4.3188461914e+003;4.3112822266e+003;4.3278203125e+003;4.3167949219e+003;4.3167949219e+003;4.3258974609e+003;4.3146152344e+003;4.3111538086e+003;4.3080771484e+003;4.3026923828e+003;
3.2500000000e+000;4.2920512695e+003;4.3311538086e+003;4.3206411133e+003;4.3316665039e+003;4.3293588867e+003;4.3175639648e+003;4.3351284180e+003;4.3244873047e+003;4.3235898438e+003;4.3367949219e+003;4.3283334961e+003;4.3235898438e+003;4.3205126953e+003;4.3137177734e+003;
3.2578125000e+000;4.2866665039e+003;4.3256411133e+003;4.3196152344e+003;4.3273076172e+003;4.3230771484e+003;4.3106411133e+003;4.3274360352e+003;4.3179487305e+003;4.3153847656e+003;4.3323076172e+003;4.3258974609e+003;4.3208974609e+003;4.3179487305e+003;4.3098715820e+003;
3.2656250000e+000;4.2428203125e+003;4.2832050781e+003;4.2830771484e+003;4.2902563477e+003;4.2769228516e+003;4.2667949219e+003;4.2815385742e+003;4.2689741211e+003;4.2638461914e+003;4.2856411133e+003;4.2821796875e+003;4.2794873047e+003;4.2780771484e+003;4.2700000000e+003;
3.2734375000e+000;4.2502563477e+003;4.2938461914e+003;4.2919228516e+003;4.3008974609e+003;4.2846152344e+003;4.2700000000e+003;4.2858974609e+003;4.2725639648e+003;4.2673076172e+003;4.2917949219e+003;4.2900000000e+003;4.2878203125e+003;4.2873076172e+003;4.2805126953e+003;
3.2812500000e+000;4.2729487305e+003;4.3206411133e+003;4.3167949219e+003;4.3258974609e+003;4.3078203125e+003;4.2873076172e+003;4.3041025391e+003;4.2935898438e+003;4.2884614258e+003;4.3167949219e+003;4.3160258789e+003;4.3142309570e+003;4.3126923828e+003;4.3088461914e+003;
3.2890625000e+000;4.2647436523e+003;4.3188461914e+003;4.3076923828e+003;4.3233334961e+003;4.3038461914e+003;4.2757690430e+003;4.2900000000e+003;4.2876923828e+003;4.2961538086e+003;4.3270512695e+003;4.3210258789e+003;4.3129487305e+003;4.3178203125e+003;4.3080771484e+003;
3.2968750000e+000;4.2688461914e+003;4.3267949219e+003;4.3138461914e+003;4.3317949219e+003;4.3138461914e+003;4.2851284180e+003;4.2978203125e+003;4.3037177734e+003;4.3178203125e+003;4.3433334961e+003;4.3332050781e+003;4.3210258789e+003;4.3280771484e+003;4.3139741211e+003;
3.3046875000e+000;4.2148715820e+003;4.2715385742e+003;4.2632050781e+003;4.2820512695e+003;4.2658974609e+003;4.2483334961e+003;4.2571796875e+003;4.2720512695e+003;4.2867949219e+003;4.2969228516e+003;4.2792309570e+003;4.2667949219e+003;4.2702563477e+003;4.2608974609e+003;
3.3125000000e+000;4.2493588867e+003;4.2979487305e+003;4.2884614258e+003;4.3073076172e+003;4.2974360352e+003;4.2835898438e+003;4.2887177734e+003;4.3105126953e+003;4.3146152344e+003;4.3293588867e+003;4.3065385742e+003;4.2974360352e+003;4.3010258789e+003;4.2884614258e+003;
3.3203125000e+000;4.2220512695e+003;4.2708974609e+003;4.2617949219e+003;4.2835898438e+003;4.2703847656e+003;4.2628203125e+003;4.2678203125e+003;4.2853847656e+003;4.2870512695e+003;4.2987177734e+003;4.2800000000e+003;4.2702563477e+003;4.2755126953e+003;4.2634614258e+003;
3.3281250000e+000;4.2966665039e+003;4.3510258789e+003;4.3333334961e+003;4.3570512695e+003;4.3488461914e+003;4.3446152344e+003;4.3562822266e+003;4.3585898438e+003;4.3597436523e+003;4.3678203125e+003;4.3464101563e+003;4.3384614258e+003;4.3474360352e+003;4.3396152344e+003;
3.3359375000e+000;4.2891025391e+003;4.3442309570e+003;4.3352563477e+003;4.3539741211e+003;4.3474360352e+003;4.3470512695e+003;4.3555126953e+003;4.3617949219e+003;4.3535898438e+003;4.3630771484e+003;4.3412822266e+003;4.3366665039e+003;4.3334614258e+003;4.3289741211e+003;
3.3437500000e+000;4.3044873047e+003;4.3625639648e+003;4.3530771484e+003;4.3693588867e+003;4.3633334961e+003;4.3591025391e+003;4.3698715820e+003;4.3762822266e+003;4.3660258789e+003;4.3757690430e+003;4.3593588867e+003;4.3512822266e+003;4.3497436523e+003;4.3453847656e+003;
3.3515625000e+000;4.3246152344e+003;4.3855126953e+003;4.3741025391e+003;4.3878203125e+003;4.3812822266e+003;4.3734614258e+003;4.3867949219e+003;4.3933334961e+003;4.3819228516e+003;4.3938461914e+003;4.3812822266e+003;4.3708974609e+003;4.3703847656e+003;4.3678203125e+003;
3.3593750000e+000;4.3061538086e+003;4.3664101563e+003;4.3547436523e+003;4.3666665039e+003;4.3550000000e+003;4.3482050781e+003;4.3610258789e+003;4.3624360352e+003;4.3493588867e+003;4.3678203125e+003;4.3584614258e+003;4.3530771484e+003;4.3482050781e+003;4.3524360352e+003;
3.3671875000e+000;4.2916665039e+003;4.3501284180e+003;4.3402563477e+003;4.3515385742e+003;4.3394873047e+003;4.3332050781e+003;4.3435898438e+003;4.3403847656e+003;4.3280771484e+003;4.3496152344e+003;4.3414101563e+003;4.3389741211e+003;4.3320512695e+003;4.3384614258e+003;
3.3750000000e+000;4.2970512695e+003;4.3541025391e+003;4.3494873047e+003;4.3561538086e+003;4.3491025391e+003;4.3365385742e+003;4.3442309570e+003;4.3370512695e+003;4.3297436523e+003;4.3565385742e+003;4.3511538086e+003;4.3487177734e+003;4.3391025391e+003;4.3480771484e+003;
3.3828125000e+000;4.2884614258e+003;4.3444873047e+003;4.3430771484e+003;4.3469228516e+003;4.3400000000e+003;4.3253847656e+003;4.3333334961e+003;4.3253847656e+003;4.3200000000e+003;4.3480771484e+003;4.3456411133e+003;4.3420512695e+003;4.3310258789e+003;4.3411538086e+003;
3.3906250000e+000;4.3126923828e+003;4.3669228516e+003;4.3620512695e+003;4.3621796875e+003;4.3516665039e+003;4.3279487305e+003;4.3416665039e+003;4.3361538086e+003;4.3362822266e+003;4.3647436523e+003;4.3683334961e+003;4.3632050781e+003;4.3591025391e+003;4.3621796875e+003;
3.3984375000e+000;4.3393588867e+003;4.3953847656e+003;4.3885898438e+003;4.3876923828e+003;4.3779487305e+003;4.3494873047e+003;4.3633334961e+003;4.3669228516e+003;4.3701284180e+003;4.3985898438e+003;4.3976923828e+003;4.3926923828e+003;4.3906411133e+003;4.3908974609e+003;
3.4062500000e+000;4.3388461914e+003;4.3964101563e+003;4.3906411133e+003;4.3888461914e+003;4.3793588867e+003;4.3491025391e+003;4.3611538086e+003;4.3743588867e+003;4.3807690430e+003;4.4070512695e+003;4.4007690430e+003;4.3962822266e+003;4.3942309570e+003;4.3932050781e+003;
3.4140625000e+000;4.3243588867e+003;4.3950000000e+003;4.3800000000e+003;4.3847436523e+003;4.3796152344e+003;4.3561538086e+003;4.3641025391e+003;4.3808974609e+003;4.3888461914e+003;4.4005126953e+003;4.3830771484e+003;4.3796152344e+003;4.3770512695e+003;4.3773076172e+003;
3.4218750000e+000;4.3094873047e+003;4.3812822266e+003;4.3666665039e+003;4.3737177734e+003;4.3682050781e+003;4.3485898438e+003;4.3567949219e+003;4.3696152344e+003;4.3747436523e+003;4.3833334961e+003;4.3646152344e+003;4.3643588867e+003;4.3610258789e+003;4.3611538086e+003;
3.4296875000e+000;4.3565385742e+003;4.4365385742e+003;4.4210258789e+003;4.4260258789e+003;4.4342309570e+003;4.4156411133e+003;4.4224360352e+003;4.4266665039e+003;4.4287177734e+003;4.4357690430e+003;4.4123076172e+003;4.4089741211e+003;4.4061538086e+003;4.4024360352e+003;
