Time (s);AF3;F7;F3;FC5;T7;P7;O1;O2;P8;T8;FC6;F4;F8;AF4;Sampling Rate
0.0000000000e+000;4.2619228516e+003;4.3279487305e+003;4.3498715820e+003;4.3930771484e+003;4.3196152344e+003;4.3243588867e+003;4.3298715820e+003;4.3444873047e+003;4.3220512695e+003;4.2656411133e+003;4.3423076172e+003;4.3271796875e+003;4.3332050781e+003;4.3484614258e+003;128
7.8125000000e-003;4.3191025391e+003;4.3750000000e+003;4.3780771484e+003;4.4425639648e+003;4.3833334961e+003;4.3948715820e+003;4.3806411133e+003;4.3648715820e+003;4.3608974609e+003;4.3046152344e+003;4.3720512695e+003;4.3426923828e+003;4.3667949219e+003;4.3783334961e+003;
1.5625000000e-002;4.3283334961e+003;4.3819228516e+003;4.3858974609e+003;4.4474360352e+003;4.3930771484e+003;4.4076923828e+003;4.3882050781e+003;4.3720512695e+003;4.3702563477e+003;4.3124360352e+003;4.3796152344e+003;4.3489741211e+003;4.3771796875e+003;4.3894873047e+003;
2.3437500000e-002;4.2828203125e+003;4.3365385742e+003;4.3346152344e+003;4.3962822266e+003;4.3433334961e+003;4.3667949219e+003;4.3437177734e+003;4.3302563477e+003;4.3320512695e+003;4.2778203125e+003;4.3316665039e+003;4.3065385742e+003;4.3310258789e+003;4.3370512695e+003;
3.1250000000e-002;4.2452563477e+003;4.2944873047e+003;4.2935898438e+003;4.3583334961e+003;4.3056411133e+003;4.3288461914e+003;4.3080771484e+003;4.2934614258e+003;4.2930771484e+003;4.2367949219e+003;4.2919228516e+003;4.2657690430e+003;4.2853847656e+003;4.2930771484e+003;
3.9062500000e-002;4.1297436523e+003;4.1616665039e+003;4.1720512695e+003;4.2432050781e+003;4.1843588867e+003;4.2139741211e+003;4.1935898438e+003;4.1721796875e+003;4.1673076172e+003;4.0950000000e+003;4.1639741211e+003;4.1379487305e+003;4.1491025391e+003;4.1675639648e+003;
4.6875000000e-002;4.0782050781e+003;4.1033334961e+003;4.1180771484e+003;4.1921796875e+003;4.1264101563e+003;4.1615385742e+003;4.1388461914e+003;4.1146152344e+003;4.1083334961e+003;4.0296154785e+003;4.1035898438e+003;4.0802563477e+003;4.0915385742e+003;4.1115385742e+003;
5.4687500000e-002;3.9970512695e+003;4.0125642090e+003;4.0367949219e+003;4.1101284180e+003;4.0284614258e+003;4.0692307129e+003;4.0505129395e+003;4.0312819824e+003;4.0091025391e+003;3.9401281738e+003;4.0116667480e+003;4.0008974609e+003;4.0080769043e+003;4.0170512695e+003;
6.2500000000e-002;3.9450000000e+003;3.9239743652e+003;3.9662819824e+003;4.0328205566e+003;3.9448718262e+003;3.9753845215e+003;3.9714101563e+003;3.9576923828e+003;3.9284614258e+003;3.8548718262e+003;3.9374357910e+003;3.9284614258e+003;3.9264101563e+003;3.9435898438e+003;
7.0312500000e-002;3.9428205566e+003;3.9143588867e+003;3.9565385742e+003;4.0232050781e+003;3.9300000000e+003;3.9556411133e+003;3.9537180176e+003;3.9425642090e+003;3.9121794434e+003;3.8388461914e+003;3.9241025391e+003;3.9165385742e+003;3.9165385742e+003;3.9394870605e+003;
7.8125000000e-002;3.9397436523e+003;3.9082050781e+003;3.9493588867e+003;4.0164101563e+003;3.9166667480e+003;3.9398718262e+003;3.9385898438e+003;3.9303845215e+003;3.8969230957e+003;3.8253845215e+003;3.9138461914e+003;3.9107692871e+003;3.9088461914e+003;3.9383332520e+003;
8.5937500000e-002;3.9396154785e+003;3.9060256348e+003;3.9476923828e+003;4.0143588867e+003;3.9094870605e+003;3.9332050781e+003;3.9319230957e+003;3.9265385742e+003;3.8897436523e+003;3.8201281738e+003;3.9125642090e+003;3.9143588867e+003;3.9061538086e+003;3.9406411133e+003;
9.3750000000e-002;4.0425642090e+003;3.9834614258e+003;4.0297436523e+003;4.0901281738e+003;3.9898718262e+003;4.0120512695e+003;4.0126923828e+003;4.0250000000e+003;4.0066667480e+003;3.9483332520e+003;4.0078205566e+003;4.0047436523e+003;3.9993588867e+003;4.0200000000e+003;
1.0156250000e-001;4.0539743652e+003;3.9930769043e+003;4.0357692871e+003;4.0958974609e+003;3.9953845215e+003;4.0164101563e+003;4.0160256348e+003;4.0284614258e+003;4.0150000000e+003;3.9591025391e+003;4.0076923828e+003;4.0050000000e+003;4.0034614258e+003;4.0232050781e+003;
1.0937500000e-001;4.1055126953e+003;4.0611538086e+003;4.0780769043e+003;4.1410258789e+003;4.0546154785e+003;4.0762819824e+003;4.0662819824e+003;4.0705129395e+003;4.0587180176e+003;4.0042307129e+003;4.0570512695e+003;4.0442307129e+003;4.0412819824e+003;4.0637180176e+003;
1.1718750000e-001;4.0423076172e+003;3.9957692871e+003;4.0166667480e+003;4.0808974609e+003;4.0041025391e+003;4.0416667480e+003;4.0203845215e+003;4.0126923828e+003;4.0117949219e+003;3.9493588867e+003;3.9815385742e+003;3.9806411133e+003;3.9843588867e+003;4.0071794434e+003;
1.2500000000e-001;4.0255129395e+003;3.9771794434e+003;3.9975642090e+003;4.0623076172e+003;3.9883332520e+003;4.0271794434e+003;4.0037180176e+003;3.9896154785e+003;3.9920512695e+003;3.9287180176e+003;3.9557692871e+003;3.9582050781e+003;3.9675642090e+003;3.9885898438e+003;
1.3281250000e-001;4.0092307129e+003;3.9652563477e+003;3.9773076172e+003;4.0387180176e+003;3.9691025391e+003;4.0153845215e+003;3.9861538086e+003;3.9706411133e+003;3.9688461914e+003;3.9087180176e+003;3.9657692871e+003;3.9447436523e+003;3.9341025391e+003;3.9646154785e+003;
1.4062500000e-001;3.9964101563e+003;3.9526923828e+003;3.9650000000e+003;4.0250000000e+003;3.9543588867e+003;4.0025642090e+003;3.9767949219e+003;3.9619230957e+003;3.9587180176e+003;3.8929487305e+003;3.9605129395e+003;3.9337180176e+003;3.9130769043e+003;3.9524357910e+003;
1.4843750000e-001;4.0712819824e+003;4.0196154785e+003;4.0355129395e+003;4.0908974609e+003;4.0289743652e+003;4.0639743652e+003;4.0480769043e+003;4.0300000000e+003;4.0194870605e+003;3.9611538086e+003;3.9994870605e+003;3.9910256348e+003;3.9992307129e+003;4.0256411133e+003;
1.5625000000e-001;4.1146152344e+003;4.0603845215e+003;4.0778205566e+003;4.1283334961e+003;4.0688461914e+003;4.1003847656e+003;4.0846154785e+003;4.0661538086e+003;4.0483332520e+003;4.0028205566e+003;4.0333332520e+003;4.0325642090e+003;4.0482050781e+003;4.0635898438e+003;
1.6406250000e-001;4.1934614258e+003;4.1430771484e+003;4.1557690430e+003;4.1942309570e+003;4.1325639648e+003;4.1585898438e+003;4.1506411133e+003;4.1375639648e+003;4.1064101563e+003;4.0678205566e+003;4.1183334961e+003;4.1192309570e+003;4.1144873047e+003;4.1283334961e+003;
1.7187500000e-001;4.2324360352e+003;4.1875639648e+003;4.1941025391e+003;4.2284614258e+003;4.1648715820e+003;4.1853847656e+003;4.1851284180e+003;4.1782050781e+003;4.1444873047e+003;4.0984614258e+003;4.1674360352e+003;4.1646152344e+003;4.1423076172e+003;4.1661538086e+003;
1.7968750000e-001;4.2908974609e+003;4.2544873047e+003;4.2564101563e+003;4.2774360352e+003;4.2207690430e+003;4.2297436523e+003;4.2314101563e+003;4.2423076172e+003;4.2050000000e+003;4.1671796875e+003;4.2430771484e+003;4.2343588867e+003;4.2123076172e+003;4.2602563477e+003;
1.8750000000e-001;4.2615385742e+003;4.2283334961e+003;4.2305126953e+003;4.2476923828e+003;4.1926923828e+003;4.2046152344e+003;4.1997436523e+003;4.2143588867e+003;4.1755126953e+003;4.1498715820e+003;4.2103847656e+003;4.2053847656e+003;4.1969228516e+003;4.2411538086e+003;
1.9531250000e-001;4.1188461914e+003;4.0992309570e+003;4.0939743652e+003;4.1120512695e+003;4.0515385742e+003;4.0765385742e+003;4.0658974609e+003;4.0816667480e+003;4.0482050781e+003;4.0173076172e+003;4.0703845215e+003;4.0697436523e+003;4.0632050781e+003;4.0996152344e+003;
2.0312500000e-001;4.0596154785e+003;4.0452563477e+003;4.0351281738e+003;4.0558974609e+003;3.9942307129e+003;4.0226923828e+003;4.0152563477e+003;4.0267949219e+003;3.9997436523e+003;3.9530769043e+003;4.0219230957e+003;4.0147436523e+003;3.9973076172e+003;4.0367949219e+003;
2.1093750000e-001;4.0587180176e+003;4.0451281738e+003;4.0319230957e+003;4.0543588867e+003;3.9964101563e+003;4.0226923828e+003;4.0201281738e+003;4.0257692871e+003;4.0055129395e+003;3.9443588867e+003;4.0312819824e+003;4.0132050781e+003;3.9878205566e+003;4.0323076172e+003;
2.1875000000e-001;4.2034614258e+003;4.2124360352e+003;4.1794873047e+003;4.2044873047e+003;4.1665385742e+003;4.1869228516e+003;4.1743588867e+003;4.1817949219e+003;4.1656411133e+003;4.1058974609e+003;4.1489741211e+003;4.1423076172e+003;4.1397436523e+003;4.1753847656e+003;
2.2656250000e-001;4.1538461914e+003;4.1788461914e+003;4.1317949219e+003;4.1610258789e+003;4.1258974609e+003;4.1484614258e+003;4.1332050781e+003;4.1356411133e+003;4.1216665039e+003;4.0582050781e+003;4.1143588867e+003;4.0996152344e+003;4.0903845215e+003;4.1301284180e+003;
2.3437500000e-001;4.1716665039e+003;4.1988461914e+003;4.1417949219e+003;4.1705126953e+003;4.1443588867e+003;4.1697436523e+003;4.1503847656e+003;4.1410258789e+003;4.1342309570e+003;4.0719230957e+003;4.1332050781e+003;4.1073076172e+003;4.1082050781e+003;4.1428203125e+003;
2.4218750000e-001;4.2278203125e+003;4.2565385742e+003;4.2046152344e+003;4.2284614258e+003;4.2046152344e+003;4.2323076172e+003;4.2171796875e+003;4.2078203125e+003;4.1906411133e+003;4.1175639648e+003;4.1779487305e+003;4.1608974609e+003;4.1680771484e+003;4.2047436523e+003;
2.5000000000e-001;4.2460258789e+003;4.2906411133e+003;4.2266665039e+003;4.2530771484e+003;4.2310258789e+003;4.2550000000e+003;4.2428203125e+003;4.2362822266e+003;4.2179487305e+003;4.1341025391e+003;4.2174360352e+003;4.1930771484e+003;4.1864101563e+003;4.2338461914e+003;
2.5781250000e-001;4.2841025391e+003;4.3398715820e+003;4.2653847656e+003;4.2853847656e+003;4.2601284180e+003;4.2711538086e+003;4.2657690430e+003;4.2607690430e+003;4.2344873047e+003;4.1705126953e+003;4.2487177734e+003;4.2202563477e+003;4.2251284180e+003;4.2693588867e+003;
2.6562500000e-001;4.2893588867e+003;4.3388461914e+003;4.2683334961e+003;4.2817949219e+003;4.2561538086e+003;4.2651284180e+003;4.2591025391e+003;4.2561538086e+003;4.2255126953e+003;4.1776923828e+003;4.2396152344e+003;4.2114101563e+003;4.2292309570e+003;4.2657690430e+003;
2.7343750000e-001;4.2324360352e+003;4.2852563477e+003;4.2170512695e+003;4.2230771484e+003;4.1937177734e+003;4.2073076172e+003;4.2028203125e+003;4.2144873047e+003;4.1833334961e+003;4.1205126953e+003;4.2083334961e+003;4.1801284180e+003;4.1685898438e+003;4.2157690430e+003;
2.8125000000e-001;4.2146152344e+003;4.2705126953e+003;4.2016665039e+003;4.2074360352e+003;4.1778203125e+003;4.1897436523e+003;4.1897436523e+003;4.2026923828e+003;4.1744873047e+003;4.1012822266e+003;4.2025639648e+003;4.1744873047e+003;4.1532050781e+003;4.2037177734e+003;
2.8906250000e-001;4.1929487305e+003;4.2461538086e+003;4.1796152344e+003;4.1819228516e+003;4.1561538086e+003;4.1629487305e+003;4.1667949219e+003;4.1807690430e+003;4.1583334961e+003;4.0856411133e+003;4.1789741211e+003;4.1491025391e+003;4.1400000000e+003;4.1847436523e+003;
2.9687500000e-001;4.1633334961e+003;4.2133334961e+003;4.1492309570e+003;4.1515385742e+003;4.1248715820e+003;4.1343588867e+003;4.1343588867e+003;4.1502563477e+003;4.1312822266e+003;4.0588461914e+003;4.1421796875e+003;4.1129487305e+003;4.1125639648e+003;4.1550000000e+003;
3.0468750000e-001;4.1217949219e+003;4.1700000000e+003;4.1069228516e+003;4.1125639648e+003;4.0823076172e+003;4.0975639648e+003;4.0915385742e+003;4.1101284180e+003;4.0952563477e+003;4.0174357910e+003;4.0974360352e+003;4.0685898438e+003;4.0700000000e+003;4.1146152344e+003;
3.1250000000e-001;4.0169230957e+003;4.0594870605e+003;3.9944870605e+003;4.0143588867e+003;3.9925642090e+003;4.0271794434e+003;4.0074357910e+003;4.0138461914e+003;3.9988461914e+003;3.9138461914e+003;3.9885898438e+003;3.9582050781e+003;3.9607692871e+003;4.0108974609e+003;
3.2031250000e-001;4.0183332520e+003;4.0502563477e+003;3.9906411133e+003;4.0094870605e+003;3.9888461914e+003;4.0274357910e+003;4.0076923828e+003;4.0080769043e+003;3.9914101563e+003;3.9017949219e+003;3.9760256348e+003;3.9508974609e+003;3.9538461914e+003;4.0037180176e+003;
3.2812500000e-001;4.0593588867e+003;4.0903845215e+003;4.0267949219e+003;4.0493588867e+003;4.0255129395e+003;4.0689743652e+003;4.0466667480e+003;4.0448718262e+003;4.0282050781e+003;3.9244870605e+003;4.0157692871e+003;3.9880769043e+003;3.9716667480e+003;4.0357692871e+003;
3.3593750000e-001;4.0487180176e+003;4.0888461914e+003;4.0179487305e+003;4.0428205566e+003;4.0184614258e+003;4.0635898438e+003;4.0400000000e+003;4.0353845215e+003;4.0197436523e+003;3.9200000000e+003;4.0055129395e+003;3.9791025391e+003;3.9644870605e+003;4.0276923828e+003;
3.4375000000e-001;4.0348718262e+003;4.0806411133e+003;4.0011538086e+003;4.0283332520e+003;4.0074357910e+003;4.0501281738e+003;4.0269230957e+003;4.0148718262e+003;4.0021794434e+003;3.9135898438e+003;3.9856411133e+003;3.9561538086e+003;3.9634614258e+003;4.0129487305e+003;
3.5156250000e-001;4.0433332520e+003;4.0838461914e+003;4.0058974609e+003;4.0314101563e+003;4.0146154785e+003;4.0517949219e+003;4.0310256348e+003;4.0183332520e+003;4.0047436523e+003;3.9180769043e+003;3.9948718262e+003;3.9592307129e+003;3.9725642090e+003;4.0184614258e+003;
3.5937500000e-001;4.0491025391e+003;4.0866667480e+003;4.0070512695e+003;4.0238461914e+003;4.0117949219e+003;4.0370512695e+003;4.0233332520e+003;4.0158974609e+003;3.9861538086e+003;3.9033332520e+003;4.0010256348e+003;3.9675642090e+003;3.9616667480e+003;4.0198718262e+003;
3.6718750000e-001;4.0374357910e+003;4.0832050781e+003;3.9979487305e+003;4.0080769043e+003;3.9910256348e+003;4.0158974609e+003;4.0038461914e+003;4.0065385742e+003;3.9805129395e+003;3.9066667480e+003;3.9839743652e+003;3.9594870605e+003;3.9697436523e+003;4.0115385742e+003;
3.7500000000e-001;4.0288461914e+003;4.0666667480e+003;3.9866667480e+003;3.9935898438e+003;3.9746154785e+003;4.0011538086e+003;3.9888461914e+003;3.9929487305e+003;3.9721794434e+003;3.8933332520e+003;3.9765385742e+003;3.9505129395e+003;3.9601281738e+003;4.0026923828e+003;
3.8281250000e-001;4.0342307129e+003;4.0644870605e+003;3.9878205566e+003;3.9932050781e+003;3.9721794434e+003;3.9994870605e+003;3.9871794434e+003;3.9910256348e+003;3.9741025391e+003;3.8884614258e+003;3.9801281738e+003;3.9544870605e+003;3.9578205566e+003;4.0065385742e+003;
3.9062500000e-001;4.0942307129e+003;4.1292309570e+003;4.0458974609e+003;4.0523076172e+003;4.0289743652e+003;4.0496154785e+003;4.0405129395e+003;4.0457692871e+003;4.0324357910e+003;3.9471794434e+003;4.0365385742e+003;4.0146154785e+003;4.0088461914e+003;4.0665385742e+003;
3.9843750000e-001;4.1175639648e+003;4.1616665039e+003;4.0742307129e+003;4.0794870605e+003;4.0558974609e+003;4.0708974609e+003;4.0650000000e+003;4.0732050781e+003;4.0617949219e+003;3.9856411133e+003;4.0656411133e+003;4.0421794434e+003;4.0380769043e+003;4.0937180176e+003;
4.0625000000e-001;4.1158974609e+003;4.1682050781e+003;4.0787180176e+003;4.0730769043e+003;4.0608974609e+003;4.0712819824e+003;4.0650000000e+003;4.0824357910e+003;4.0803845215e+003;4.0048718262e+003;4.0775642090e+003;4.0437180176e+003;4.0471794434e+003;4.0960258789e+003;
4.1406250000e-001;4.1232050781e+003;4.1734614258e+003;4.0841025391e+003;4.0760256348e+003;4.0698718262e+003;4.0857692871e+003;4.0746154785e+003;4.0937180176e+003;4.0921794434e+003;4.0064101563e+003;4.0805129395e+003;4.0478205566e+003;4.0485898438e+003;4.1011538086e+003;
4.2187500000e-001;4.1326923828e+003;4.1802563477e+003;4.0942307129e+003;4.0882050781e+003;4.0846154785e+003;4.1132050781e+003;4.0979487305e+003;4.1125639648e+003;4.1061538086e+003;4.0147436523e+003;4.0837180176e+003;4.0558974609e+003;4.0498718262e+003;4.1078203125e+003;
4.2968750000e-001;4.1308974609e+003;4.1789741211e+003;4.0924357910e+003;4.0892307129e+003;4.0869230957e+003;4.1167949219e+003;4.1048715820e+003;4.1130771484e+003;4.1042309570e+003;4.0187180176e+003;4.0841025391e+003;4.0552563477e+003;4.0511538086e+003;4.1056411133e+003;
4.3750000000e-001;4.1292309570e+003;4.1783334961e+003;4.0891025391e+003;4.0869230957e+003;4.0900000000e+003;4.1179487305e+003;4.1097436523e+003;4.1126923828e+003;4.1028203125e+003;4.0234614258e+003;4.0870512695e+003;4.0547436523e+003;4.0561538086e+003;4.1035898438e+003;
4.4531250000e-001;4.1228203125e+003;4.1719228516e+003;4.0812819824e+003;4.0773076172e+003;4.0873076172e+003;4.1143588867e+003;4.1067949219e+003;4.1080771484e+003;4.0979487305e+003;4.0206411133e+003;4.0847436523e+003;4.0497436523e+003;4.0552563477e+003;4.0966665039e+003;
4.5312500000e-001;4.0079487305e+003;4.0520512695e+003;3.9762819824e+003;3.9738461914e+003;3.9703845215e+003;4.0144870605e+003;3.9907692871e+003;3.9842307129e+003;3.9696154785e+003;3.8800000000e+003;3.9543588867e+003;3.9328205566e+003;3.9179487305e+003;3.9723076172e+003;
4.6093750000e-001;4.0015385742e+003;4.0470512695e+003;3.9653845215e+003;3.9697436523e+003;3.9628205566e+003;4.0057692871e+003;3.9847436523e+003;3.9737180176e+003;3.9574357910e+003;3.8696154785e+003;3.9441025391e+003;3.9230769043e+003;3.9085898438e+003;3.9614101563e+003;
4.6875000000e-001;4.0067949219e+003;4.0356411133e+003;3.9557692871e+003;3.9561538086e+003;3.9608974609e+003;4.0024357910e+003;3.9910256348e+003;3.9767949219e+003;3.9628205566e+003;3.8706411133e+003;3.9414101563e+003;3.9216667480e+003;3.9179487305e+003;3.9606411133e+003;
4.7656250000e-001;4.0623076172e+003;4.0885898438e+003;4.0234614258e+003;4.0074357910e+003;4.0093588867e+003;4.0444870605e+003;4.0364101563e+003;4.0234614258e+003;4.0046154785e+003;3.9328205566e+003;3.9978205566e+003;3.9874357910e+003;3.9698718262e+003;4.0234614258e+003;
4.8437500000e-001;4.0674357910e+003;4.0946154785e+003;4.0315385742e+003;4.0176923828e+003;4.0100000000e+003;4.0420512695e+003;4.0371794434e+003;4.0265385742e+003;4.0033332520e+003;3.9387180176e+003;4.0105129395e+003;4.0011538086e+003;3.9744870605e+003;4.0319230957e+003;
4.9218750000e-001;4.0924357910e+003;4.1060258789e+003;4.0455129395e+003;4.0337180176e+003;4.0200000000e+003;4.0382050781e+003;4.0397436523e+003;4.0420512695e+003;4.0200000000e+003;3.9576923828e+003;4.0374357910e+003;4.0261538086e+003;4.0162819824e+003;4.0544870605e+003;
5.0000000000e-001;4.1038461914e+003;4.1137177734e+003;4.0538461914e+003;4.0374357910e+003;4.0258974609e+003;4.0419230957e+003;4.0419230957e+003;4.0494870605e+003;4.0321794434e+003;3.9703845215e+003;4.0415385742e+003;4.0335898438e+003;4.0319230957e+003;4.0648718262e+003;
5.0781250000e-001;4.0860256348e+003;4.0948718262e+003;4.0383332520e+003;4.0143588867e+003;4.0011538086e+003;4.0187180176e+003;4.0133332520e+003;4.0270512695e+003;4.0165385742e+003;3.9565385742e+003;4.0202563477e+003;4.0194870605e+003;4.0070512695e+003;4.0489743652e+003;
5.1562500000e-001;4.0753845215e+003;4.0852563477e+003;4.0289743652e+003;4.0053845215e+003;3.9916667480e+003;4.0084614258e+003;4.0015385742e+003;4.0173076172e+003;4.0083332520e+003;3.9478205566e+003;4.0148718262e+003;4.0128205566e+003;3.9919230957e+003;4.0380769043e+003;
5.2343750000e-001;4.0766667480e+003;4.0846154785e+003;4.0234614258e+003;4.0110256348e+003;4.0043588867e+003;4.0183332520e+003;4.0096154785e+003;4.0291025391e+003;4.0258974609e+003;3.9542307129e+003;4.0144870605e+003;4.0097436523e+003;3.9989743652e+003;4.0378205566e+003;
5.3125000000e-001;4.0756411133e+003;4.0816667480e+003;4.0217949219e+003;4.0105129395e+003;4.0048718262e+003;4.0241025391e+003;4.0137180176e+003;4.0297436523e+003;4.0282050781e+003;3.9521794434e+003;4.0084614258e+003;4.0051281738e+003;3.9971794434e+003;4.0382050781e+003;
5.3906250000e-001;4.0837180176e+003;4.0885898438e+003;4.0306411133e+003;4.0191025391e+003;4.0138461914e+003;4.0402563477e+003;4.0271794434e+003;4.0388461914e+003;4.0374357910e+003;3.9593588867e+003;4.0151281738e+003;4.0101281738e+003;4.0023076172e+003;4.0467949219e+003;
5.4687500000e-001;4.1026923828e+003;4.1084614258e+003;4.0508974609e+003;4.0388461914e+003;4.0355129395e+003;4.0678205566e+003;4.0516667480e+003;4.0600000000e+003;4.0566667480e+003;3.9797436523e+003;4.0357692871e+003;4.0269230957e+003;4.0193588867e+003;4.0650000000e+003;
5.5468750000e-001;4.1600000000e+003;4.1671796875e+003;4.1105126953e+003;4.0952563477e+003;4.1183334961e+003;4.1484614258e+003;4.1344873047e+003;4.1296152344e+003;4.1169228516e+003;4.0437180176e+003;4.0889743652e+003;4.0778205566e+003;4.0761538086e+003;4.1169228516e+003;
5.6250000000e-001;4.2100000000e+003;4.2107690430e+003;4.1648715820e+003;4.1451284180e+003;4.1661538086e+003;4.1973076172e+003;4.1855126953e+003;4.1735898438e+003;4.1621796875e+003;4.0947436523e+003;4.1412822266e+003;4.1334614258e+003;4.1258974609e+003;4.1564101563e+003;
5.7031250000e-001;4.2202563477e+003;4.2255126953e+003;4.1734614258e+003;4.1541025391e+003;4.1773076172e+003;4.2075639648e+003;4.1955126953e+003;4.1842309570e+003;4.1680771484e+003;4.1085898438e+003;4.1479487305e+003;4.1462822266e+003;4.1430771484e+003;4.1684614258e+003;
5.7812500000e-001;4.2567949219e+003;4.2608974609e+003;4.2119228516e+003;4.1821796875e+003;4.2125639648e+003;4.2383334961e+003;4.2270512695e+003;4.2194873047e+003;4.1997436523e+003;4.1487177734e+003;4.1861538086e+003;4.1821796875e+003;4.1832050781e+003;4.2110258789e+003;
5.8593750000e-001;4.2656411133e+003;4.2503847656e+003;4.2258974609e+003;4.1900000000e+003;4.2100000000e+003;4.2288461914e+003;4.2210258789e+003;4.2241025391e+003;4.2084614258e+003;4.1558974609e+003;4.2055126953e+003;4.1953847656e+003;4.1851284180e+003;4.2223076172e+003;
5.9375000000e-001;4.2700000000e+003;4.2550000000e+003;4.2297436523e+003;4.1948715820e+003;4.2117949219e+003;4.2291025391e+003;4.2207690430e+003;4.2294873047e+003;4.2106411133e+003;4.1665385742e+003;4.2111538086e+003;4.2039741211e+003;4.1948715820e+003;4.2297436523e+003;
6.0156250000e-001;4.2550000000e+003;4.2384614258e+003;4.2203847656e+003;4.1778203125e+003;4.1896152344e+003;4.2037177734e+003;4.1960258789e+003;4.2132050781e+003;4.1964101563e+003;4.1603847656e+003;4.2017949219e+003;4.2007690430e+003;4.1888461914e+003;4.2234614258e+003;
6.0937500000e-001;4.2548715820e+003;4.2375639648e+003;4.2232050781e+003;4.1756411133e+003;4.1883334961e+003;4.1979487305e+003;4.1923076172e+003;4.2121796875e+003;4.2023076172e+003;4.1611538086e+003;4.2044873047e+003;4.2034614258e+003;4.1912822266e+003;4.2262822266e+003;
6.1718750000e-001;4.2796152344e+003;4.2737177734e+003;4.2519228516e+003;4.2097436523e+003;4.2310258789e+003;4.2325639648e+003;4.2261538086e+003;4.2616665039e+003;4.2603847656e+003;4.2026923828e+003;4.2424360352e+003;4.2319228516e+003;4.2228203125e+003;4.2598715820e+003;
6.2500000000e-001;4.2684614258e+003;4.2651284180e+003;4.2423076172e+003;4.2055126953e+003;4.2252563477e+003;4.2333334961e+003;4.2234614258e+003;4.2593588867e+003;4.2523076172e+003;4.1970512695e+003;4.2326923828e+003;4.2224360352e+003;4.2120512695e+003;4.2493588867e+003;
6.3281250000e-001;4.2810258789e+003;4.2808974609e+003;4.2560258789e+003;4.2260258789e+003;4.2464101563e+003;4.2644873047e+003;4.2511538086e+003;4.2739741211e+003;4.2603847656e+003;4.2115385742e+003;4.2439741211e+003;4.2333334961e+003;4.2221796875e+003;4.2548715820e+003;
6.4062500000e-001;4.3087177734e+003;4.3117949219e+003;4.2842309570e+003;4.2547436523e+003;4.2812822266e+003;4.2980771484e+003;4.2851284180e+003;4.3011538086e+003;4.2897436523e+003;4.2402563477e+003;4.2746152344e+003;4.2601284180e+003;4.2496152344e+003;4.2800000000e+003;
6.4843750000e-001;4.2980771484e+003;4.3024360352e+003;4.2741025391e+003;4.2456411133e+003;4.2833334961e+003;4.2996152344e+003;4.2870512695e+003;4.2934614258e+003;4.2885898438e+003;4.2315385742e+003;4.2687177734e+003;4.2494873047e+003;4.2397436523e+003;4.2751284180e+003;
6.5625000000e-001;4.2644873047e+003;4.2666665039e+003;4.2388461914e+003;4.2142309570e+003;4.2483334961e+003;4.2689741211e+003;4.2553847656e+003;4.2582050781e+003;4.2517949219e+003;4.1973076172e+003;4.2288461914e+003;4.2129487305e+003;4.2056411133e+003;4.2408974609e+003;
6.6406250000e-001;4.2274360352e+003;4.2285898438e+003;4.2007690430e+003;4.1797436523e+003;4.2105126953e+003;4.2361538086e+003;4.2207690430e+003;4.2194873047e+003;4.2112822266e+003;4.1610258789e+003;4.1858974609e+003;4.1735898438e+003;4.1683334961e+003;4.2010258789e+003;
6.7187500000e-001;4.1883334961e+003;4.1896152344e+003;4.1623076172e+003;4.1428203125e+003;4.1723076172e+003;4.2025639648e+003;4.1853847656e+003;4.1797436523e+003;4.1706411133e+003;4.1228203125e+003;4.1437177734e+003;4.1342309570e+003;4.1294873047e+003;4.1591025391e+003;
6.7968750000e-001;4.1179487305e+003;4.1112822266e+003;4.0908974609e+003;4.0728205566e+003;4.0971796875e+003;4.1274360352e+003;4.1144873047e+003;4.1032050781e+003;4.0882050781e+003;4.0329487305e+003;4.0689743652e+003;4.0639743652e+003;4.0520512695e+003;4.0829487305e+003;
6.8750000000e-001;4.1094873047e+003;4.0957692871e+003;4.0807692871e+003;4.0646154785e+003;4.0806411133e+003;4.1112822266e+003;4.0997436523e+003;4.0888461914e+003;4.0692307129e+003;4.0180769043e+003;4.0579487305e+003;4.0556411133e+003;4.0341025391e+003;4.0720512695e+003;
6.9531250000e-001;4.0619230957e+003;4.0348718262e+003;4.0266667480e+003;4.0105129395e+003;4.0185898438e+003;4.0456411133e+003;4.0332050781e+003;4.0219230957e+003;3.9987180176e+003;3.9552563477e+003;4.0024357910e+003;4.0001281738e+003;3.9716667480e+003;4.0138461914e+003;
7.0312500000e-001;4.0382050781e+003;4.0048718262e+003;4.0029487305e+003;3.9780769043e+003;3.9905129395e+003;4.0066667480e+003;3.9998718262e+003;4.0001281738e+003;3.9883332520e+003;3.9333332520e+003;3.9612819824e+003;3.9738461914e+003;3.9575642090e+003;3.9883332520e+003;
7.1093750000e-001;4.0250000000e+003;3.9866667480e+003;3.9908974609e+003;3.9639743652e+003;3.9706411133e+003;3.9873076172e+003;3.9838461914e+003;3.9878205566e+003;3.9761538086e+003;3.9215385742e+003;3.9526923828e+003;3.9657692871e+003;3.9416667480e+003;3.9779487305e+003;
7.1875000000e-001;4.0378205566e+003;3.9925642090e+003;3.9970512695e+003;3.9751281738e+003;3.9711538086e+003;3.9903845215e+003;3.9838461914e+003;4.0047436523e+003;3.9911538086e+003;3.9415385742e+003;3.9776923828e+003;3.9803845215e+003;3.9505129395e+003;3.9889743652e+003;
7.2656250000e-001;4.0230769043e+003;3.9770512695e+003;3.9823076172e+003;3.9729487305e+003;3.9619230957e+003;3.9879487305e+003;3.9762819824e+003;3.9938461914e+003;3.9894870605e+003;3.9233332520e+003;3.9505129395e+003;3.9556411133e+003;3.9326923828e+003;3.9693588867e+003;
7.3437500000e-001;4.0152563477e+003;3.9706411133e+003;3.9747436523e+003;3.9702563477e+003;3.9573076172e+003;3.9851281738e+003;3.9735898438e+003;3.9866667480e+003;3.9839743652e+003;3.9191025391e+003;3.9478205566e+003;3.9474357910e+003;3.9288461914e+003;3.9635898438e+003;
7.4218750000e-001;3.9465385742e+003;3.9006411133e+003;3.8984614258e+003;3.9092307129e+003;3.8988461914e+003;3.9323076172e+003;3.9134614258e+003;3.9146154785e+003;3.9100000000e+003;3.8552563477e+003;3.8787180176e+003;3.8739743652e+003;3.8720512695e+003;3.8896154785e+003;
7.5000000000e-001;3.9380769043e+003;3.8870512695e+003;3.8850000000e+003;3.8967949219e+003;3.8932050781e+003;3.9255129395e+003;3.9033332520e+003;3.9017949219e+003;3.8978205566e+003;3.8402563477e+003;3.8617949219e+003;3.8596154785e+003;3.8578205566e+003;3.8741025391e+003;
7.5781250000e-001;3.9444870605e+003;3.8870512695e+003;3.8882050781e+003;3.8967949219e+003;3.9003845215e+003;3.9342307129e+003;3.9100000000e+003;3.9047436523e+003;3.9028205566e+003;3.8423076172e+003;3.8624357910e+003;3.8615385742e+003;3.8511538086e+003;3.8771794434e+003;
7.6562500000e-001;3.9365385742e+003;3.8805129395e+003;3.8824357910e+003;3.8910256348e+003;3.8906411133e+003;3.9300000000e+003;3.9061538086e+003;3.8979487305e+003;3.8947436523e+003;3.8388461914e+003;3.8566667480e+003;3.8565385742e+003;3.8415385742e+003;3.8737180176e+003;
7.7343750000e-001;3.9591025391e+003;3.9057692871e+003;3.9033332520e+003;3.9157692871e+003;3.9130769043e+003;3.9520512695e+003;3.9285898438e+003;3.9128205566e+003;3.9048718262e+003;3.8611538086e+003;3.8796154785e+003;3.8761538086e+003;3.8673076172e+003;3.8937180176e+003;
7.8125000000e-001;3.9816667480e+003;3.9250000000e+003;3.9233332520e+003;3.9353845215e+003;3.9357692871e+003;3.9683332520e+003;3.9467949219e+003;3.9316667480e+003;3.9250000000e+003;3.8778205566e+003;3.9037180176e+003;3.8965385742e+003;3.8914101563e+003;3.9133332520e+003;
7.8906250000e-001;3.9878205566e+003;3.9267949219e+003;3.9282050781e+003;3.9398718262e+003;3.9391025391e+003;3.9689743652e+003;3.9500000000e+003;3.9357692871e+003;3.9305129395e+003;3.8783332520e+003;3.9119230957e+003;3.9028205566e+003;3.8987180176e+003;3.9197436523e+003;
7.9687500000e-001;3.9792307129e+003;3.9156411133e+003;3.9203845215e+003;3.9321794434e+003;3.9257692871e+003;3.9575642090e+003;3.9408974609e+003;3.9273076172e+003;3.9223076172e+003;3.8664101563e+003;3.9044870605e+003;3.8961538086e+003;3.8902563477e+003;3.9138461914e+003;
8.0468750000e-001;3.9865385742e+003;3.9255129395e+003;3.9335898438e+003;3.9397436523e+003;3.9267949219e+003;3.9633332520e+003;3.9470512695e+003;3.9480769043e+003;3.9382050781e+003;3.8920512695e+003;3.9166667480e+003;3.9157692871e+003;3.8974357910e+003;3.9187180176e+003;
8.1250000000e-001;3.9841025391e+003;3.9124357910e+003;3.9284614258e+003;3.9310256348e+003;3.9203845215e+003;3.9548718262e+003;3.9408974609e+003;3.9461538086e+003;3.9367949219e+003;3.8905129395e+003;3.9158974609e+003;3.9125642090e+003;3.8941025391e+003;3.9133332520e+003;
8.2031250000e-001;3.9446154785e+003;3.8578205566e+003;3.8857692871e+003;3.8870512695e+003;3.8691025391e+003;3.9064101563e+003;3.8960256348e+003;3.9107692871e+003;3.9058974609e+003;3.8561538086e+003;3.8817949219e+003;3.8710256348e+003;3.8547436523e+003;3.8812819824e+003;
8.2812500000e-001;3.8784614258e+003;3.7992307129e+003;3.8200000000e+003;3.8267949219e+003;3.8028205566e+003;3.8437180176e+003;3.8373076172e+003;3.8485898438e+003;3.8443588867e+003;3.7975642090e+003;3.8200000000e+003;3.8107692871e+003;3.7976923828e+003;3.8156411133e+003;
8.3593750000e-001;3.8873076172e+003;3.8047436523e+003;3.8256411133e+003;3.8315385742e+003;3.8117949219e+003;3.8485898438e+003;3.8466667480e+003;3.8548718262e+003;3.8526923828e+003;3.8060256348e+003;3.8237180176e+003;3.8144870605e+003;3.8052563477e+003;3.8207692871e+003;
8.4375000000e-001;3.8865385742e+003;3.7969230957e+003;3.8183332520e+003;3.8302563477e+003;3.8015385742e+003;3.8450000000e+003;3.8357692871e+003;3.8407692871e+003;3.8420512695e+003;3.7980769043e+003;3.8029487305e+003;3.7998718262e+003;3.7876923828e+003;3.8123076172e+003;
8.5156250000e-001;3.9078205566e+003;3.8169230957e+003;3.8265385742e+003;3.8480769043e+003;3.8191025391e+003;3.8670512695e+003;3.8457692871e+003;3.8393588867e+003;3.8474357910e+003;3.7998718262e+003;3.8165385742e+003;3.8066667480e+003;3.8041025391e+003;3.8237180176e+003;
8.5937500000e-001;3.9210256348e+003;3.8275642090e+003;3.8384614258e+003;3.8576923828e+003;3.8353845215e+003;3.8800000000e+003;3.8593588867e+003;3.8503845215e+003;3.8602563477e+003;3.8110256348e+003;3.8279487305e+003;3.8197436523e+003;3.8138461914e+003;3.8357692871e+003;
8.6718750000e-001;3.9339743652e+003;3.8393588867e+003;3.8556411133e+003;3.8752563477e+003;3.8547436523e+003;3.8980769043e+003;3.8753845215e+003;3.8589743652e+003;3.8680769043e+003;3.8203845215e+003;3.8402563477e+003;3.8348718262e+003;3.8189743652e+003;3.8461538086e+003;
8.7500000000e-001;3.9384614258e+003;3.8447436523e+003;3.8580769043e+003;3.8816667480e+003;3.8584614258e+003;3.9028205566e+003;3.8792307129e+003;3.8634614258e+003;3.8705129395e+003;3.8255129395e+003;3.8471794434e+003;3.8382050781e+003;3.8253845215e+003;3.8475642090e+003;
8.8281250000e-001;3.9332050781e+003;3.8396154785e+003;3.8502563477e+003;3.8767949219e+003;3.8526923828e+003;3.8971794434e+003;3.8746154785e+003;3.8603845215e+003;3.8635898438e+003;3.8211538086e+003;3.8434614258e+003;3.8330769043e+003;3.8223076172e+003;3.8396154785e+003;
8.9062500000e-001;3.9206411133e+003;3.8267949219e+003;3.8360256348e+003;3.8634614258e+003;3.8405129395e+003;3.8837180176e+003;3.8639743652e+003;3.8500000000e+003;3.8488461914e+003;3.8082050781e+003;3.8300000000e+003;3.8220512695e+003;3.8103845215e+003;3.8258974609e+003;
8.9843750000e-001;3.9462819824e+003;3.8453845215e+003;3.8582050781e+003;3.8770512695e+003;3.8533332520e+003;3.8969230957e+003;3.8843588867e+003;3.8692307129e+003;3.8648718262e+003;3.8285898438e+003;3.8534614258e+003;3.8508974609e+003;3.8320512695e+003;3.8574357910e+003;
9.0625000000e-001;3.9612819824e+003;3.8551281738e+003;3.8706411133e+003;3.8882050781e+003;3.8608974609e+003;3.9048718262e+003;3.8933332520e+003;3.8819230957e+003;3.8780769043e+003;3.8421794434e+003;3.8670512695e+003;3.8656411133e+003;3.8460256348e+003;3.8720512695e+003;
9.1406250000e-001;4.0369230957e+003;3.9334614258e+003;3.9451281738e+003;3.9565385742e+003;3.9302563477e+003;3.9541025391e+003;3.9514101563e+003;3.9589743652e+003;3.9593588867e+003;3.9248718262e+003;3.9332050781e+003;3.9392307129e+003;3.9217949219e+003;3.9410256348e+003;
9.2187500000e-001;4.0426923828e+003;3.9426923828e+003;3.9547436523e+003;3.9635898438e+003;3.9373076172e+003;3.9532050781e+003;3.9519230957e+003;3.9658974609e+003;3.9775642090e+003;3.9375642090e+003;3.9494870605e+003;3.9475642090e+003;3.9344870605e+003;3.9510256348e+003;
9.2968750000e-001;4.0610256348e+003;3.9630769043e+003;3.9707692871e+003;3.9850000000e+003;3.9589743652e+003;3.9712819824e+003;3.9702563477e+003;3.9852563477e+003;4.0006411133e+003;3.9619230957e+003;3.9737180176e+003;3.9678205566e+003;3.9562819824e+003;3.9710256348e+003;
9.3750000000e-001;4.0757692871e+003;3.9876923828e+003;3.9908974609e+003;4.0125642090e+003;3.9934614258e+003;4.0005129395e+003;3.9960256348e+003;4.0105129395e+003;4.0324357910e+003;3.9978205566e+003;3.9983332520e+003;3.9919230957e+003;3.9797436523e+003;3.9937180176e+003;
9.4531250000e-001;4.0383332520e+003;3.9444870605e+003;3.9566667480e+003;3.9719230957e+003;3.9642307129e+003;3.9902563477e+003;3.9730769043e+003;3.9685898438e+003;3.9875642090e+003;3.9483332520e+003;3.9514101563e+003;3.9411538086e+003;3.9310256348e+003;3.9500000000e+003;
9.5312500000e-001;4.0446154785e+003;3.9507692871e+003;3.9612819824e+003;3.9787180176e+003;3.9729487305e+003;4.0041025391e+003;3.9851281738e+003;3.9771794434e+003;3.9935898438e+003;3.9583332520e+003;3.9579487305e+003;3.9473076172e+003;3.9396154785e+003;3.9566667480e+003;
9.6093750000e-001;4.0464101563e+003;3.9525642090e+003;3.9616667480e+003;3.9823076172e+003;3.9760256348e+003;4.0102563477e+003;3.9916667480e+003;3.9811538086e+003;3.9956411133e+003;3.9652563477e+003;3.9601281738e+003;3.9519230957e+003;3.9455129395e+003;3.9596154785e+003;
9.6875000000e-001;4.0461538086e+003;3.9502563477e+003;3.9605129395e+003;3.9844870605e+003;3.9757692871e+003;4.0084614258e+003;3.9943588867e+003;3.9770512695e+003;3.9912819824e+003;3.9655129395e+003;3.9551281738e+003;3.9555129395e+003;3.9467949219e+003;3.9576923828e+003;
9.7656250000e-001;4.0492307129e+003;3.9519230957e+003;3.9648718262e+003;3.9883332520e+003;3.9805129395e+003;4.0105129395e+003;3.9969230957e+003;3.9774357910e+003;3.9919230957e+003;3.9644870605e+003;3.9553845215e+003;3.9582050781e+003;3.9450000000e+003;3.9585898438e+003;
9.8437500000e-001;4.0391025391e+003;3.9403845215e+003;3.9593588867e+003;3.9788461914e+003;3.9762819824e+003;4.0069230957e+003;3.9873076172e+003;3.9692307129e+003;3.9817949219e+003;3.9479487305e+003;3.9447436523e+003;3.9478205566e+003;3.9219230957e+003;3.9461538086e+003;
9.9218750000e-001;4.0329487305e+003;3.9346154785e+003;3.9537180176e+003;3.9707692871e+003;3.9712819824e+003;4.0041025391e+003;3.9821794434e+003;3.9658974609e+003;3.9764101563e+003;3.9419230957e+003;3.9400000000e+003;3.9407692871e+003;3.9148718262e+003;3.9391025391e+003;
1.0000000000e+000;4.0671794434e+003;3.9737180176e+003;3.9869230957e+003;4.0046154785e+003;4.0026923828e+003;4.0312819824e+003;4.0182050781e+003;4.0034614258e+003;4.0101281738e+003;3.9888461914e+003;3.9837180176e+003;3.9762819824e+003;3.9723076172e+003;3.9771794434e+003;
1.0078125000e+000;4.0742307129e+003;3.9811538086e+003;3.9958974609e+003;4.0150000000e+003;4.0098718262e+003;4.0334614258e+003;4.0234614258e+003;4.0070512695e+003;4.0156411133e+003;3.9948718262e+003;3.9934614258e+003;3.9876923828e+003;3.9824357910e+003;3.9887180176e+003;
1.0156250000e+000;4.0794870605e+003;3.9855129395e+003;4.0024357910e+003;4.0206411133e+003;4.0158974609e+003;4.0335898438e+003;4.0244870605e+003;4.0071794434e+003;4.0191025391e+003;3.9955129395e+003;3.9993588867e+003;3.9961538086e+003;3.9866667480e+003;3.9978205566e+003;
1.0234375000e+000;4.0898718262e+003;3.9952563477e+003;4.0125642090e+003;4.0274357910e+003;4.0267949219e+003;4.0383332520e+003;4.0284614258e+003;4.0146154785e+003;4.0294870605e+003;4.0025642090e+003;4.0094870605e+003;4.0075642090e+003;3.9957692871e+003;4.0102563477e+003;
1.0312500000e+000;4.0658974609e+003;3.9700000000e+003;3.9819230957e+003;3.9929487305e+003;3.9837180176e+003;3.9923076172e+003;3.9824357910e+003;4.0005129395e+003;4.0115385742e+003;3.9879487305e+003;3.9888461914e+003;3.9894870605e+003;3.9716667480e+003;3.9796154785e+003;
1.0390625000e+000;4.0446154785e+003;3.9474357910e+003;3.9666667480e+003;3.9765385742e+003;3.9697436523e+003;3.9680769043e+003;3.9647436523e+003;3.9893588867e+003;3.9983332520e+003;3.9685898438e+003;3.9657692871e+003;3.9729487305e+003;3.9517949219e+003;3.9623076172e+003;
1.0468750000e+000;4.0307692871e+003;3.9369230957e+003;3.9537180176e+003;3.9658974609e+003;3.9591025391e+003;3.9615385742e+003;3.9543588867e+003;3.9775642090e+003;3.9858974609e+003;3.9539743652e+003;3.9465385742e+003;3.9576923828e+003;3.9370512695e+003;3.9469230957e+003;
1.0546875000e+000;4.0106411133e+003;3.9126923828e+003;3.9226923828e+003;3.9438461914e+003;3.9339743652e+003;3.9446154785e+003;3.9329487305e+003;3.9438461914e+003;3.9502563477e+003;3.9182050781e+003;3.9176923828e+003;3.9261538086e+003;3.9076923828e+003;3.9107692871e+003;
1.0625000000e+000;4.0694870605e+003;3.9623076172e+003;3.9730769043e+003;3.9850000000e+003;3.9932050781e+003;4.0055129395e+003;3.9948718262e+003;3.9860256348e+003;3.9965385742e+003;3.9633332520e+003;3.9693588867e+003;3.9692307129e+003;3.9578205566e+003;3.9582050781e+003;
1.0703125000e+000;4.0916667480e+003;3.9898718262e+003;3.9969230957e+003;4.0092307129e+003;4.0225642090e+003;4.0367949219e+003;4.0232050781e+003;4.0129487305e+003;4.0220512695e+003;3.9905129395e+003;3.9906411133e+003;3.9928205566e+003;3.9807692871e+003;3.9805129395e+003;
1.0781250000e+000;4.0978203125e+003;4.0001281738e+003;4.0021794434e+003;4.0187180176e+003;4.0370512695e+003;4.0548718262e+003;4.0343588867e+003;4.0173076172e+003;4.0230769043e+003;4.0000000000e+003;3.9956411133e+003;4.0019230957e+003;3.9878205566e+003;3.9800000000e+003;
1.0859375000e+000;4.1039741211e+003;4.0029487305e+003;4.0067949219e+003;4.0229487305e+003;4.0415385742e+003;4.0585898438e+003;4.0369230957e+003;4.0147436523e+003;4.0215385742e+003;4.0028205566e+003;4.0008974609e+003;4.0057692871e+003;3.9937180176e+003;3.9843588867e+003;
1.0937500000e+000;4.2261538086e+003;4.1298715820e+003;4.1329487305e+003;4.1443588867e+003;4.1573076172e+003;4.1648715820e+003;4.1447436523e+003;4.1252563477e+003;4.1366665039e+003;4.1260258789e+003;4.1370512695e+003;4.1289741211e+003;4.1224360352e+003;4.1244873047e+003;
1.1015625000e+000;4.2434614258e+003;4.1546152344e+003;4.1550000000e+003;4.1650000000e+003;4.1756411133e+003;4.1832050781e+003;4.1635898438e+003;4.1483334961e+003;4.1558974609e+003;4.1480771484e+003;4.1638461914e+003;4.1565385742e+003;4.1450000000e+003;4.1487177734e+003;
1.1093750000e+000;4.2273076172e+003;4.1443588867e+003;4.1464101563e+003;4.1489741211e+003;4.1623076172e+003;4.1669228516e+003;4.1515385742e+003;4.1398715820e+003;4.1411538086e+003;4.1385898438e+003;4.1570512695e+003;4.1556411133e+003;4.1378203125e+003;4.1371796875e+003;
1.1171875000e+000;4.2264101563e+003;4.1403847656e+003;4.1471796875e+003;4.1443588867e+003;4.1602563477e+003;4.1605126953e+003;4.1478203125e+003;4.1391025391e+003;4.1421796875e+003;4.1400000000e+003;4.1550000000e+003;4.1537177734e+003;4.1389741211e+003;4.1369228516e+003;
1.1250000000e+000;4.2317949219e+003;4.1362822266e+003;4.1583334961e+003;4.1515385742e+003;4.1548715820e+003;4.1555126953e+003;4.1457690430e+003;4.1558974609e+003;4.1612822266e+003;4.1515385742e+003;4.1637177734e+003;4.1603847656e+003;4.1498715820e+003;4.1550000000e+003;
1.1328125000e+000;4.2330771484e+003;4.1408974609e+003;4.1606411133e+003;4.1564101563e+003;4.1578203125e+003;4.1587177734e+003;4.1506411133e+003;4.1664101563e+003;4.1680771484e+003;4.1573076172e+003;4.1714101563e+003;4.1684614258e+003;4.1546152344e+003;4.1601284180e+003;
1.1406250000e+000;4.2384614258e+003;4.1520512695e+003;4.1671796875e+003;4.1641025391e+003;4.1692309570e+003;4.1665385742e+003;4.1608974609e+003;4.1823076172e+003;4.1806411133e+003;4.1710258789e+003;4.1830771484e+003;4.1805126953e+003;4.1647436523e+003;4.1688461914e+003;
1.1484375000e+000;4.2392309570e+003;4.1578203125e+003;4.1700000000e+003;4.1655126953e+003;4.1762822266e+003;4.1685898438e+003;4.1652563477e+003;4.1917949219e+003;4.1884614258e+003;4.1811538086e+003;4.1874360352e+003;4.1851284180e+003;4.1707690430e+003;4.1730771484e+003;
1.1562500000e+000;4.2397436523e+003;4.1650000000e+003;4.1762822266e+003;4.1646152344e+003;4.1762822266e+003;4.1674360352e+003;4.1637177734e+003;4.1846152344e+003;4.1821796875e+003;4.1735898438e+003;4.1771796875e+003;4.1726923828e+003;4.1684614258e+003;4.1719228516e+003;
1.1640625000e+000;4.2833334961e+003;4.2241025391e+003;4.2207690430e+003;4.2194873047e+003;4.2419228516e+003;4.2384614258e+003;4.2235898438e+003;4.2342309570e+003;4.2328203125e+003;4.2362822266e+003;4.2261538086e+003;4.2202563477e+003;4.2167949219e+003;4.2205126953e+003;
1.1718750000e+000;4.2692309570e+003;4.2080771484e+003;4.2057690430e+003;4.2060258789e+003;4.2320512695e+003;4.2298715820e+003;4.2135898438e+003;4.2169228516e+003;4.2160258789e+003;4.2180771484e+003;4.2075639648e+003;4.2017949219e+003;4.2030771484e+003;4.2076923828e+003;
1.1796875000e+000;4.2362822266e+003;4.1742309570e+003;4.1757690430e+003;4.1753847656e+003;4.2062822266e+003;4.2083334961e+003;4.1892309570e+003;4.1816665039e+003;4.1847436523e+003;4.1750000000e+003;4.1734614258e+003;4.1680771484e+003;4.1651284180e+003;4.1729487305e+003;
1.1875000000e+000;4.2593588867e+003;4.2169228516e+003;4.2074360352e+003;4.2079487305e+003;4.2410258789e+003;4.2452563477e+003;4.2203847656e+003;4.2053847656e+003;4.2106411133e+003;4.2080771484e+003;4.2039741211e+003;4.1923076172e+003;4.1975639648e+003;4.1967949219e+003;
1.1953125000e+000;4.2823076172e+003;4.2401284180e+003;4.2301284180e+003;4.2292309570e+003;4.2647436523e+003;4.2667949219e+003;4.2415385742e+003;4.2248715820e+003;4.2256411133e+003;4.2314101563e+003;4.2261538086e+003;4.2146152344e+003;4.2201284180e+003;4.2203847656e+003;
1.2031250000e+000;4.2961538086e+003;4.2475639648e+003;4.2479487305e+003;4.2421796875e+003;4.2742309570e+003;4.2738461914e+003;4.2508974609e+003;4.2284614258e+003;4.2210258789e+003;4.2347436523e+003;4.2388461914e+003;4.2310258789e+003;4.2215385742e+003;4.2328203125e+003;
1.2109375000e+000;4.3276923828e+003;4.2796152344e+003;4.2820512695e+003;4.2750000000e+003;4.3019228516e+003;4.2997436523e+003;4.2792309570e+003;4.2564101563e+003;4.2467949219e+003;4.2619228516e+003;4.2710258789e+003;4.2628203125e+003;4.2503847656e+003;4.2632050781e+003;
1.2187500000e+000;4.5473076172e+003;4.5208974609e+003;4.5093588867e+003;4.4944873047e+003;4.5248715820e+003;4.5079487305e+003;4.4961538086e+003;4.4914101563e+003;4.4833334961e+003;4.5042309570e+003;4.5028203125e+003;4.4915385742e+003;4.4944873047e+003;4.4965385742e+003;
1.2265625000e+000;4.5964101563e+003;4.5752563477e+003;4.5632050781e+003;4.5424360352e+003;4.5812822266e+003;4.5562822266e+003;4.5474360352e+003;4.5523076172e+003;4.5453847656e+003;4.5678203125e+003;4.5605126953e+003;4.5494873047e+003;4.5532050781e+003;4.5534614258e+003;
1.2343750000e+000;4.6014101563e+003;4.5862822266e+003;4.5797436523e+003;4.5496152344e+003;4.5971796875e+003;4.5601284180e+003;4.5552563477e+003;4.5815385742e+003;4.5747436523e+003;4.5988461914e+003;4.5864101563e+003;4.5750000000e+003;4.5733334961e+003;4.5724360352e+003;
1.2421875000e+000;4.5628203125e+003;4.5497436523e+003;4.5461538086e+003;4.5160258789e+003;4.5584614258e+003;4.5225639648e+003;4.5189741211e+003;4.5529487305e+003;4.5438461914e+003;4.5676923828e+003;4.5550000000e+003;4.5451284180e+003;4.5400000000e+003;4.5403847656e+003;
1.2500000000e+000;4.4703847656e+003;4.4566665039e+003;4.4588461914e+003;4.4369228516e+003;4.4592309570e+003;4.4373076172e+003;4.4387177734e+003;4.4689741211e+003;4.4517949219e+003;4.4716665039e+003;4.4587177734e+003;4.4556411133e+003;4.4487177734e+003;4.4557690430e+003;
1.2578125000e+000;4.4794873047e+003;4.4656411133e+003;4.4703847656e+003;4.4465385742e+003;4.4712822266e+003;4.4489741211e+003;4.4517949219e+003;4.4783334961e+003;4.4614101563e+003;4.4806411133e+003;4.4693588867e+003;4.4628203125e+003;4.4561538086e+003;4.4639741211e+003;
1.2656250000e+000;4.4901284180e+003;4.4764101563e+003;4.4850000000e+003;4.4570512695e+003;4.4870512695e+003;4.4638461914e+003;4.4661538086e+003;4.4901284180e+003;4.4748715820e+003;4.4925639648e+003;4.4848715820e+003;4.4746152344e+003;4.4648715820e+003;4.4739741211e+003;
1.2734375000e+000;4.4921796875e+003;4.4789741211e+003;4.4911538086e+003;4.4593588867e+003;4.4942309570e+003;4.4719228516e+003;4.4716665039e+003;4.4925639648e+003;4.4797436523e+003;4.4947436523e+003;4.4912822266e+003;4.4794873047e+003;4.4652563477e+003;4.4758974609e+003;
1.2812500000e+000;4.4606411133e+003;4.4674360352e+003;4.4630771484e+003;4.4350000000e+003;4.4833334961e+003;4.4688461914e+003;4.4534614258e+003;4.4602563477e+003;4.4519228516e+003;4.4710258789e+003;4.4542309570e+003;4.4426923828e+003;4.4488461914e+003;4.4455126953e+003;
1.2890625000e+000;4.4337177734e+003;4.4428203125e+003;4.4383334961e+003;4.4112822266e+003;4.4612822266e+003;4.4478203125e+003;4.4296152344e+003;4.4342309570e+003;4.4251284180e+003;4.4480771484e+003;4.4278203125e+003;4.4164101563e+003;4.4260258789e+003;4.4205126953e+003;
1.2968750000e+000;4.4457690430e+003;4.4506411133e+003;4.4500000000e+003;4.4202563477e+003;4.4764101563e+003;4.4670512695e+003;4.4410258789e+003;4.4321796875e+003;4.4265385742e+003;4.4483334961e+003;4.4402563477e+003;4.4355126953e+003;4.4279487305e+003;4.4352563477e+003;
1.3046875000e+000;4.5423076172e+003;4.5580771484e+003;4.5551284180e+003;4.5202563477e+003;4.5773076172e+003;4.5678203125e+003;4.5432050781e+003;4.5241025391e+003;4.5151284180e+003;4.5408974609e+003;4.5367949219e+003;4.5346152344e+003;4.5223076172e+003;4.5335898438e+003;
1.3125000000e+000;4.5838461914e+003;4.6039741211e+003;4.5985898438e+003;4.5621796875e+003;4.6223076172e+003;4.6071796875e+003;4.5852563477e+003;4.5664101563e+003;4.5573076172e+003;4.5869228516e+003;4.5830771484e+003;4.5767949219e+003;4.5689741211e+003;4.5751284180e+003;
1.3203125000e+000;4.6748715820e+003;4.6947436523e+003;4.6870512695e+003;4.6494873047e+003;4.7157690430e+003;4.6902563477e+003;4.6710258789e+003;4.6724360352e+003;4.6655126953e+003;4.7020512695e+003;4.6887177734e+003;4.6796152344e+003;4.6762822266e+003;4.6734614258e+003;
1.3281250000e+000;4.6337177734e+003;4.6616665039e+003;4.6555126953e+003;4.6107690430e+003;4.6689741211e+003;4.6457690430e+003;4.6294873047e+003;4.6548715820e+003;4.6407690430e+003;4.6769228516e+003;4.6585898438e+003;4.6505126953e+003;4.6392309570e+003;4.6423076172e+003;
1.3359375000e+000;4.6214101563e+003;4.6520512695e+003;4.6465385742e+003;4.6007690430e+003;4.6571796875e+003;4.6319228516e+003;4.6185898438e+003;4.6515385742e+003;4.6364101563e+003;4.6707690430e+003;4.6535898438e+003;4.6426923828e+003;4.6303847656e+003;4.6330771484e+003;
1.3437500000e+000;4.5605126953e+003;4.5815385742e+003;4.5862822266e+003;4.5405126953e+003;4.5883334961e+003;4.5632050781e+003;4.5638461914e+003;4.5993588867e+003;4.5850000000e+003;4.6088461914e+003;4.5891025391e+003;4.5871796875e+003;4.5770512695e+003;4.5785898438e+003;
1.3515625000e+000;4.5529487305e+003;4.5735898438e+003;4.5778203125e+003;4.5325639648e+003;4.5789741211e+003;4.5548715820e+003;4.5584614258e+003;4.5919228516e+003;4.5762822266e+003;4.5994873047e+003;4.5773076172e+003;4.5792309570e+003;4.5685898438e+003;4.5721796875e+003;
1.3593750000e+000;4.5269228516e+003;4.5537177734e+003;4.5550000000e+003;4.5111538086e+003;4.5567949219e+003;4.5365385742e+003;4.5382050781e+003;4.5723076172e+003;4.5538461914e+003;4.5800000000e+003;4.5596152344e+003;4.5593588867e+003;4.5430771484e+003;4.5515385742e+003;
1.3671875000e+000;4.4975639648e+003;4.5258974609e+003;4.5282050781e+003;4.4856411133e+003;4.5302563477e+003;4.5133334961e+003;4.5121796875e+003;4.5448715820e+003;4.5264101563e+003;4.5532050781e+003;4.5382050781e+003;4.5319228516e+003;4.5161538086e+003;4.5246152344e+003;
1.3750000000e+000;4.4397436523e+003;4.4658974609e+003;4.4715385742e+003;4.4328203125e+003;4.4791025391e+003;4.4719228516e+003;4.4587177734e+003;4.4726923828e+003;4.4575639648e+003;4.4819228516e+003;4.4757690430e+003;4.4582050781e+003;4.4596152344e+003;4.4639741211e+003;
1.3828125000e+000;4.4216665039e+003;4.4480771484e+003;4.4528203125e+003;4.4162822266e+003;4.4635898438e+003;4.4605126953e+003;4.4410258789e+003;4.4493588867e+003;4.4339741211e+003;4.4584614258e+003;4.4494873047e+003;4.4365385742e+003;4.4382050781e+003;4.4446152344e+003;
1.3906250000e+000;4.3971796875e+003;4.4230771484e+003;4.4273076172e+003;4.3944873047e+003;4.4426923828e+003;4.4434614258e+003;4.4178203125e+003;4.4210258789e+003;4.4047436523e+003;4.4306411133e+003;4.4184614258e+003;4.4106411133e+003;4.4110258789e+003;4.4185898438e+003;
1.3984375000e+000;4.3760258789e+003;4.4002563477e+003;4.4047436523e+003;4.3765385742e+003;4.4261538086e+003;4.4283334961e+003;4.3987177734e+003;4.3969228516e+003;4.3800000000e+003;4.4078203125e+003;4.3939741211e+003;4.3876923828e+003;4.3889741211e+003;4.3950000000e+003;
1.4062500000e+000;4.2978203125e+003;4.3138461914e+003;4.3271796875e+003;4.3029487305e+003;4.3516665039e+003;4.3594873047e+003;4.3273076172e+003;4.3106411133e+003;4.2976923828e+003;4.3193588867e+003;4.3096152344e+003;4.2975639648e+003;4.3001284180e+003;4.3083334961e+003;
1.4140625000e+000;4.2535898438e+003;4.2682050781e+003;4.2826923828e+003;4.2603847656e+003;4.3047436523e+003;4.3191025391e+003;4.2847436523e+003;4.2682050781e+003;4.2561538086e+003;4.2720512695e+003;4.2626923828e+003;4.2535898438e+003;4.2484614258e+003;4.2641025391e+003;
1.4218750000e+000;4.1475639648e+003;4.1510258789e+003;4.1675639648e+003;4.1603847656e+003;4.1912822266e+003;4.2179487305e+003;4.1819228516e+003;4.1761538086e+003;4.1685898438e+003;4.1712822266e+003;4.1597436523e+003;4.1529487305e+003;4.1451284180e+003;4.1582050781e+003;
1.4296875000e+000;4.1478203125e+003;4.1369228516e+003;4.1615385742e+003;4.1443588867e+003;4.1726923828e+003;4.1901284180e+003;4.1652563477e+003;4.1760258789e+003;4.1705126953e+003;4.1615385742e+003;4.1558974609e+003;4.1498715820e+003;4.1520512695e+003;4.1584614258e+003;
1.4375000000e+000;4.1566665039e+003;4.1378203125e+003;4.1648715820e+003;4.1429487305e+003;4.1566665039e+003;4.1678203125e+003;4.1534614258e+003;4.1788461914e+003;4.1735898438e+003;4.1723076172e+003;4.1702563477e+003;4.1624360352e+003;4.1584614258e+003;4.1679487305e+003;
1.4453125000e+000;4.1643588867e+003;4.1423076172e+003;4.1694873047e+003;4.1484614258e+003;4.1569228516e+003;4.1658974609e+003;4.1561538086e+003;4.1837177734e+003;4.1769228516e+003;4.1793588867e+003;4.1757690430e+003;4.1691025391e+003;4.1653847656e+003;4.1739741211e+003;
1.4531250000e+000;4.1783334961e+003;4.1505126953e+003;4.1807690430e+003;4.1564101563e+003;4.1639741211e+003;4.1691025391e+003;4.1635898438e+003;4.1898715820e+003;4.1835898438e+003;4.1891025391e+003;4.1815385742e+003;4.1778203125e+003;4.1716665039e+003;4.1838461914e+003;
1.4609375000e+000;4.1708974609e+003;4.1407690430e+003;4.1730771484e+003;4.1461538086e+003;4.1573076172e+003;4.1626923828e+003;4.1561538086e+003;4.1773076172e+003;4.1710258789e+003;4.1758974609e+003;4.1706411133e+003;4.1682050781e+003;4.1565385742e+003;4.1738461914e+003;
1.4687500000e+000;4.1608974609e+003;4.1352563477e+003;4.1575639648e+003;4.1314101563e+003;4.1530771484e+003;4.1603847656e+003;4.1432050781e+003;4.1560258789e+003;4.1466665039e+003;4.1517949219e+003;4.1543588867e+003;4.1541025391e+003;4.1389741211e+003;4.1597436523e+003;
1.4765625000e+000;4.1580771484e+003;4.1337177734e+003;4.1534614258e+003;4.1297436523e+003;4.1510258789e+003;4.1601284180e+003;4.1406411133e+003;4.1496152344e+003;4.1417949219e+003;4.1485898438e+003;4.1466665039e+003;4.1496152344e+003;4.1394873047e+003;4.1562822266e+003;
1.4843750000e+000;4.1484614258e+003;4.1210258789e+003;4.1424360352e+003;4.1223076172e+003;4.1425639648e+003;4.1575639648e+003;4.1391025391e+003;4.1262822266e+003;4.1242309570e+003;4.1344873047e+003;4.1252563477e+003;4.1305126953e+003;4.1298715820e+003;4.1411538086e+003;
1.4921875000e+000;4.1537177734e+003;4.1255126953e+003;4.1456411133e+003;4.1261538086e+003;4.1488461914e+003;4.1660258789e+003;4.1480771484e+003;4.1266665039e+003;4.1244873047e+003;4.1370512695e+003;4.1279487305e+003;4.1300000000e+003;4.1315385742e+003;4.1430771484e+003;
1.5000000000e+000;4.1044873047e+003;4.0752563477e+003;4.0938461914e+003;4.0746154785e+003;4.0997436523e+003;4.1242309570e+003;4.0953845215e+003;4.0841025391e+003;4.0725642090e+003;4.0882050781e+003;4.0815385742e+003;4.0837180176e+003;4.0732050781e+003;4.0946154785e+003;
1.5078125000e+000;4.0591025391e+003;4.0264101563e+003;4.0480769043e+003;4.0303845215e+003;4.0543588867e+003;4.0811538086e+003;4.0488461914e+003;4.0397436523e+003;4.0293588867e+003;4.0435898438e+003;4.0357692871e+003;4.0408974609e+003;4.0266667480e+003;4.0492307129e+003;
1.5156250000e+000;4.0228205566e+003;3.9865385742e+003;4.0102563477e+003;3.9937180176e+003;4.0187180176e+003;4.0470512695e+003;4.0138461914e+003;4.0042307129e+003;3.9960256348e+003;4.0079487305e+003;3.9980769043e+003;4.0039743652e+003;3.9893588867e+003;4.0103845215e+003;
1.5234375000e+000;4.0000000000e+003;3.9600000000e+003;3.9846154785e+003;3.9683332520e+003;3.9952563477e+003;4.0258974609e+003;3.9937180176e+003;3.9841025391e+003;3.9766667480e+003;3.9850000000e+003;3.9724357910e+003;3.9774357910e+003;3.9642307129e+003;3.9832050781e+003;
1.5312500000e+000;3.9273076172e+003;3.8664101563e+003;3.8980769043e+003;3.8844870605e+003;3.8967949219e+003;3.9432050781e+003;3.9185898438e+003;3.9191025391e+003;3.9091025391e+003;3.8962819824e+003;3.8869230957e+003;3.8891025391e+003;3.8775642090e+003;3.8970512695e+003;
1.5390625000e+000;3.9256411133e+003;3.8633332520e+003;3.8934614258e+003;3.8816667480e+003;3.8920512695e+003;3.9357692871e+003;3.9137180176e+003;3.9134614258e+003;3.9085898438e+003;3.8956411133e+003;3.8887180176e+003;3.8874357910e+003;3.8774357910e+003;3.8953845215e+003;
1.5468750000e+000;3.9038461914e+003;3.8378205566e+003;3.8708974609e+003;3.8566667480e+003;3.8639743652e+003;3.8946154785e+003;3.8789743652e+003;3.8810256348e+003;3.8833332520e+003;3.8746154785e+003;3.8696154785e+003;3.8697436523e+003;3.8551281738e+003;3.8757692871e+003;
1.5546875000e+000;3.8712819824e+003;3.7932050781e+003;3.8342307129e+003;3.8188461914e+003;3.8089743652e+003;3.8451281738e+003;3.8242307129e+003;3.8358974609e+003;3.8334614258e+003;3.8269230957e+003;3.8229487305e+003;3.8291025391e+003;3.8082050781e+003;3.8353845215e+003;
1.5625000000e+000;3.8300000000e+003;3.7488461914e+003;3.7915385742e+003;3.7791025391e+003;3.7623076172e+003;3.8029487305e+003;3.7802563477e+003;3.7917949219e+003;3.7893588867e+003;3.7850000000e+003;3.7816667480e+003;3.7885898438e+003;3.7674357910e+003;3.7930769043e+003;
1.5703125000e+000;3.7192307129e+003;3.6266667480e+003;3.6715385742e+003;3.6675642090e+003;3.6555129395e+003;3.6875642090e+003;3.6675642090e+003;3.6670512695e+003;3.6634614258e+003;3.6651281738e+003;3.6614101563e+003;3.6698718262e+003;3.6593588867e+003;3.6789743652e+003;
1.5781250000e+000;3.7071794434e+003;3.6011538086e+003;3.6497436523e+003;3.6516667480e+003;3.6382050781e+003;3.6784614258e+003;3.6591025391e+003;3.6396154785e+003;3.6321794434e+003;3.6316667480e+003;3.6306411133e+003;3.6426923828e+003;3.6300000000e+003;3.6553845215e+003;
1.5859375000e+000;3.7512819824e+003;3.6437180176e+003;3.6901281738e+003;3.6928205566e+003;3.6794870605e+003;3.7210256348e+003;3.6996154785e+003;3.6758974609e+003;3.6688461914e+003;3.6705129395e+003;3.6714101563e+003;3.6812819824e+003;3.6673076172e+003;3.6935898438e+003;
1.5937500000e+000;3.8088461914e+003;3.7033332520e+003;3.7451281738e+003;3.7483332520e+003;3.7383332520e+003;3.7769230957e+003;3.7521794434e+003;3.7282050781e+003;3.7226923828e+003;3.7291025391e+003;3.7296154785e+003;3.7346154785e+003;3.7233332520e+003;3.7469230957e+003;
1.6015625000e+000;3.8437180176e+003;3.7430769043e+003;3.7805129395e+003;3.7848718262e+003;3.7814101563e+003;3.8182050781e+003;3.7848718262e+003;3.7639743652e+003;3.7617949219e+003;3.7744870605e+003;3.7693588867e+003;3.7696154785e+003;3.7642307129e+003;3.7817949219e+003;
1.6093750000e+000;3.8100000000e+003;3.6971794434e+003;3.7398718262e+003;3.7460256348e+003;3.7438461914e+003;3.7915385742e+003;3.7605129395e+003;3.7333332520e+003;3.7375642090e+003;3.7330769043e+003;3.7230769043e+003;3.7329487305e+003;3.7212819824e+003;3.7367949219e+003;
1.6171875000e+000;3.8396154785e+003;3.7265385742e+003;3.7653845215e+003;3.7721794434e+003;3.7721794434e+003;3.8178205566e+003;3.7893588867e+003;3.7660256348e+003;3.7733332520e+003;3.7653845215e+003;3.7511538086e+003;3.7619230957e+003;3.7485898438e+003;3.7606411133e+003;
1.6250000000e+000;3.7991025391e+003;3.6937180176e+003;3.7202563477e+003;3.7351281738e+003;3.7291025391e+003;3.7726923828e+003;3.7429487305e+003;3.7380769043e+003;3.7496154785e+003;3.7326923828e+003;3.7133332520e+003;3.7224357910e+003;3.7111538086e+003;3.7176923828e+003;
1.6328125000e+000;3.7571794434e+003;3.6473076172e+003;3.6764101563e+003;3.6939743652e+003;3.6820512695e+003;3.7278205566e+003;3.6978205566e+003;3.6943588867e+003;3.7055129395e+003;3.6838461914e+003;3.6665385742e+003;3.6778205566e+003;3.6665385742e+003;3.6735898438e+003;
1.6406250000e+000;3.7307692871e+003;3.6133332520e+003;3.6478205566e+003;3.6661538086e+003;3.6489743652e+003;3.6970512695e+003;3.6683332520e+003;3.6635898438e+003;3.6737180176e+003;3.6489743652e+003;3.6334614258e+003;3.6492307129e+003;3.6347436523e+003;3.6437180176e+003;
1.6484375000e+000;3.7261538086e+003;3.6006411133e+003;3.6405129395e+003;3.6579487305e+003;3.6378205566e+003;3.6869230957e+003;3.6611538086e+003;3.6537180176e+003;3.6623076172e+003;3.6366667480e+003;3.6224357910e+003;3.6435898438e+003;3.6224357910e+003;3.6350000000e+003;
1.6562500000e+000;3.8042307129e+003;3.6730769043e+003;3.7107692871e+003;3.7198718262e+003;3.7098718262e+003;3.7451281738e+003;3.7288461914e+003;3.7214101563e+003;3.7242307129e+003;3.7070512695e+003;3.6988461914e+003;3.7166667480e+003;3.6880769043e+003;3.6998718262e+003;
1.6640625000e+000;3.7958974609e+003;3.6656411133e+003;3.7033332520e+003;3.7134614258e+003;3.7006411133e+003;3.7346154785e+003;3.7173076172e+003;3.7110256348e+003;3.7132050781e+003;3.6993588867e+003;3.6911538086e+003;3.7107692871e+003;3.6846154785e+003;3.6912819824e+003;
1.6718750000e+000;3.7526923828e+003;3.6206411133e+003;3.6534614258e+003;3.6696154785e+003;3.6469230957e+003;3.6820512695e+003;3.6630769043e+003;3.6564101563e+003;3.6546154785e+003;3.6508974609e+003;3.6424357910e+003;3.6624357910e+003;3.6487180176e+003;3.6498718262e+003;
1.6796875000e+000;3.7310256348e+003;3.5994870605e+003;3.6266667480e+003;3.6441025391e+003;3.6239743652e+003;3.6575642090e+003;3.6396154785e+003;3.6297436523e+003;3.6162819824e+003;3.6210256348e+003;3.6208974609e+003;3.6408974609e+003;3.6175642090e+003;3.6253845215e+003;
1.6875000000e+000;3.7244870605e+003;3.5903845215e+003;3.6197436523e+003;3.6394870605e+003;3.6167949219e+003;3.6528205566e+003;3.6326923828e+003;3.6178205566e+003;3.6039743652e+003;3.6093588867e+003;3.6110256348e+003;3.6352563477e+003;3.6080769043e+003;3.6143588867e+003;
1.6953125000e+000;3.7016667480e+003;3.5624357910e+003;3.5919230957e+003;3.6178205566e+003;3.5942307129e+003;3.6380769043e+003;3.6079487305e+003;3.5885898438e+003;3.5800000000e+003;3.5887180176e+003;3.5867949219e+003;3.6029487305e+003;3.5851281738e+003;3.5901281738e+003;
1.7031250000e+000;3.6442307129e+003;3.5052563477e+003;3.5262819824e+003;3.5600000000e+003;3.5442307129e+003;3.5876923828e+003;3.5598718262e+003;3.5325642090e+003;3.5324357910e+003;3.5264101563e+003;3.5244870605e+003;3.5437180176e+003;3.5301281738e+003;3.5343588867e+003;
1.7109375000e+000;3.6450000000e+003;3.5062819824e+003;3.5274357910e+003;3.5620512695e+003;3.5452563477e+003;3.5896154785e+003;3.5630769043e+003;3.5375642090e+003;3.5423076172e+003;3.5294870605e+003;3.5246154785e+003;3.5462819824e+003;3.5330769043e+003;3.5330769043e+003;
1.7187500000e+000;3.6394870605e+003;3.4998718262e+003;3.5247436523e+003;3.5588461914e+003;3.5376923828e+003;3.5857692871e+003;3.5588461914e+003;3.5396154785e+003;3.5473076172e+003;3.5288461914e+003;3.5193588867e+003;3.5417949219e+003;3.5276923828e+003;3.5269230957e+003;
1.7265625000e+000;3.6119230957e+003;3.4678205566e+003;3.4994870605e+003;3.5352563477e+003;3.5052563477e+003;3.5603845215e+003;3.5320512695e+003;3.5250000000e+003;3.5294870605e+003;3.5044870605e+003;3.4870512695e+003;3.5096154785e+003;3.4920512695e+003;3.5003845215e+003;
1.7343750000e+000;3.6417949219e+003;3.4853845215e+003;3.5143588867e+003;3.5594870605e+003;3.5328205566e+003;3.5824357910e+003;3.5660256348e+003;3.5528205566e+003;3.5520512695e+003;3.5214101563e+003;3.5074357910e+003;3.5320512695e+003;3.5144870605e+003;3.5221794434e+003;
1.7421875000e+000;3.6478205566e+003;3.4866667480e+003;3.5200000000e+003;3.5616667480e+003;3.5360256348e+003;3.5865385742e+003;3.5733332520e+003;3.5582050781e+003;3.5571794434e+003;3.5262819824e+003;3.5151281738e+003;3.5387180176e+003;3.5192307129e+003;3.5253845215e+003;
1.7500000000e+000;3.6533332520e+003;3.4905129395e+003;3.5282050781e+003;3.5629487305e+003;3.5380769043e+003;3.5902563477e+003;3.5780769043e+003;3.5639743652e+003;3.5628205566e+003;3.5337180176e+003;3.5230769043e+003;3.5447436523e+003;3.5230769043e+003;3.5298718262e+003;
1.7578125000e+000;3.6852563477e+003;3.5253845215e+003;3.5647436523e+003;3.5875642090e+003;3.5634614258e+003;3.6151281738e+003;3.6014101563e+003;3.5947436523e+003;3.5934614258e+003;3.5742307129e+003;3.5576923828e+003;3.5783332520e+003;3.5557692871e+003;3.5643588867e+003;
1.7656250000e+000;3.6965385742e+003;3.5347436523e+003;3.5747436523e+003;3.5960256348e+003;3.5706411133e+003;3.6201281738e+003;3.6061538086e+003;3.6016667480e+003;3.6000000000e+003;3.5867949219e+003;3.5683332520e+003;3.5915385742e+003;3.5701281738e+003;3.5765385742e+003;
1.7734375000e+000;3.6956411133e+003;3.5284614258e+003;3.5708974609e+003;3.5929487305e+003;3.5653845215e+003;3.6117949219e+003;3.5991025391e+003;3.5938461914e+003;3.5908974609e+003;3.5832050781e+003;3.5664101563e+003;3.5916667480e+003;3.5723076172e+003;3.5753845215e+003;
1.7812500000e+000;3.7311538086e+003;3.5720512695e+003;3.6053845215e+003;3.6334614258e+003;3.5967949219e+003;3.6302563477e+003;3.6148718262e+003;3.6107692871e+003;3.6014101563e+003;3.6135898438e+003;3.6003845215e+003;3.6302563477e+003;3.6057692871e+003;3.6193588867e+003;
1.7890625000e+000;3.7410256348e+003;3.5829487305e+003;3.6147436523e+003;3.6424357910e+003;3.6080769043e+003;3.6400000000e+003;3.6233332520e+003;3.6129487305e+003;3.6067949219e+003;3.6206411133e+003;3.6084614258e+003;3.6417949219e+003;3.6174357910e+003;3.6302563477e+003;
1.7968750000e+000;3.8051281738e+003;3.6442307129e+003;3.6714101563e+003;3.6917949219e+003;3.6741025391e+003;3.6971794434e+003;3.6825642090e+003;3.6601281738e+003;3.6594870605e+003;3.6780769043e+003;3.6780769043e+003;3.6914101563e+003;3.6883332520e+003;3.6893588867e+003;
1.8046875000e+000;3.7896154785e+003;3.6334614258e+003;3.6648718262e+003;3.6820512695e+003;3.6656411133e+003;3.6982050781e+003;3.6764101563e+003;3.6665385742e+003;3.6638461914e+003;3.6780769043e+003;3.6637180176e+003;3.6857692871e+003;3.6723076172e+003;3.6788461914e+003;
1.8125000000e+000;3.7833332520e+003;3.6282050781e+003;3.6607692871e+003;3.6792307129e+003;3.6653845215e+003;3.7000000000e+003;3.6765385742e+003;3.6696154785e+003;3.6670512695e+003;3.6753845215e+003;3.6574357910e+003;3.6815385742e+003;3.6651281738e+003;3.6723076172e+003;
1.8203125000e+000;3.7669230957e+003;3.6110256348e+003;3.6398718262e+003;3.6598718262e+003;3.6562819824e+003;3.6957692871e+003;3.6803845215e+003;3.6733332520e+003;3.6680769043e+003;3.6585898438e+003;3.6374357910e+003;3.6539743652e+003;3.6384614258e+003;3.6452563477e+003;
1.8281250000e+000;3.7661538086e+003;3.6173076172e+003;3.6464101563e+003;3.6646154785e+003;3.6701281738e+003;3.7085898438e+003;3.6958974609e+003;3.6923076172e+003;3.6850000000e+003;3.6689743652e+003;3.6424357910e+003;3.6617949219e+003;3.6442307129e+003;3.6491025391e+003;
1.8359375000e+000;3.7555129395e+003;3.6066667480e+003;3.6385898438e+003;3.6574357910e+003;3.6628205566e+003;3.7011538086e+003;3.6871794434e+003;3.6833332520e+003;3.6784614258e+003;3.6588461914e+003;3.6350000000e+003;3.6542307129e+003;3.6353845215e+003;3.6401281738e+003;
1.8437500000e+000;3.7562819824e+003;3.6052563477e+003;3.6378205566e+003;3.6596154785e+003;3.6616667480e+003;3.7000000000e+003;3.6858974609e+003;3.6798718262e+003;3.6785898438e+003;3.6550000000e+003;3.6347436523e+003;3.6526923828e+003;3.6353845215e+003;3.6388461914e+003;
1.8515625000e+000;3.8264101563e+003;3.6720512695e+003;3.6979487305e+003;3.7294870605e+003;3.7198718262e+003;3.7544870605e+003;3.7429487305e+003;3.7350000000e+003;3.7387180176e+003;3.7153845215e+003;3.6960256348e+003;3.7130769043e+003;3.7026923828e+003;3.7014101563e+003;
1.8593750000e+000;3.8632050781e+003;3.7092307129e+003;3.7342307129e+003;3.7673076172e+003;3.7523076172e+003;3.7839743652e+003;3.7729487305e+003;3.7674357910e+003;3.7700000000e+003;3.7526923828e+003;3.7307692871e+003;3.7507692871e+003;3.7400000000e+003;3.7391025391e+003;
1.8671875000e+000;3.8717949219e+003;3.7184614258e+003;3.7473076172e+003;3.7778205566e+003;3.7588461914e+003;3.7876923828e+003;3.7760256348e+003;3.7733332520e+003;3.7734614258e+003;3.7635898438e+003;3.7401281738e+003;3.7642307129e+003;3.7494870605e+003;3.7517949219e+003;
1.8750000000e+000;3.8556411133e+003;3.7030769043e+003;3.7376923828e+003;3.7629487305e+003;3.7417949219e+003;3.7675642090e+003;3.7550000000e+003;3.7538461914e+003;3.7517949219e+003;3.7485898438e+003;3.7261538086e+003;3.7534614258e+003;3.7337180176e+003;3.7391025391e+003;
1.8828125000e+000;3.8561538086e+003;3.7134614258e+003;3.7360256348e+003;3.7656411133e+003;3.7380769043e+003;3.7526923828e+003;3.7393588867e+003;3.7314101563e+003;3.7347436523e+003;3.7448718262e+003;3.7346154785e+003;3.7606411133e+003;3.7426923828e+003;3.7398718262e+003;
1.8906250000e+000;3.8907692871e+003;3.7433332520e+003;3.7688461914e+003;3.7865385742e+003;3.7658974609e+003;3.7683332520e+003;3.7497436523e+003;3.7374357910e+003;3.7426923828e+003;3.7646154785e+003;3.7614101563e+003;3.7905129395e+003;3.7750000000e+003;3.7737180176e+003;
1.8984375000e+000;3.8943588867e+003;3.7478205566e+003;3.7738461914e+003;3.7882050781e+003;3.7711538086e+003;3.7700000000e+003;3.7502563477e+003;3.7398718262e+003;3.7448718262e+003;3.7701281738e+003;3.7639743652e+003;3.7951281738e+003;3.7750000000e+003;3.7758974609e+003;
1.9062500000e+000;3.8362819824e+003;3.7037180176e+003;3.7252563477e+003;3.7526923828e+003;3.7312819824e+003;3.7467949219e+003;3.7260256348e+003;3.7151281738e+003;3.7214101563e+003;3.7360256348e+003;3.7217949219e+003;3.7517949219e+003;3.7246154785e+003;3.7258974609e+003;
1.9140625000e+000;3.8264101563e+003;3.6952563477e+003;3.7158974609e+003;3.7446154785e+003;3.7253845215e+003;3.7478205566e+003;3.7283332520e+003;3.7165385742e+003;3.7226923828e+003;3.7312819824e+003;3.7153845215e+003;3.7394870605e+003;3.7212819824e+003;3.7173076172e+003;
1.9218750000e+000;3.8005129395e+003;3.6673076172e+003;3.6906411133e+003;3.7164101563e+003;3.7084614258e+003;3.7385898438e+003;3.7257692871e+003;3.7160256348e+003;3.7111538086e+003;3.7123076172e+003;3.6885898438e+003;3.7065385742e+003;3.6997436523e+003;3.6908974609e+003;
1.9296875000e+000;3.8274357910e+003;3.7029487305e+003;3.7207692871e+003;3.7510256348e+003;3.7501281738e+003;3.7766667480e+003;3.7701281738e+003;3.7542307129e+003;3.7525642090e+003;3.7450000000e+003;3.7184614258e+003;3.7337180176e+003;3.7237180176e+003;3.7158974609e+003;
1.9375000000e+000;3.8439743652e+003;3.7210256348e+003;3.7373076172e+003;3.7652563477e+003;3.7657692871e+003;3.7934614258e+003;3.7860256348e+003;3.7719230957e+003;3.7729487305e+003;3.7611538086e+003;3.7350000000e+003;3.7493588867e+003;3.7397436523e+003;3.7315385742e+003;
1.9453125000e+000;3.8471794434e+003;3.7241025391e+003;3.7405129395e+003;3.7658974609e+003;3.7648718262e+003;3.7952563477e+003;3.7864101563e+003;3.7752563477e+003;3.7764101563e+003;3.7625642090e+003;3.7369230957e+003;3.7523076172e+003;3.7410256348e+003;3.7348718262e+003;
1.9531250000e+000;3.8324357910e+003;3.7080769043e+003;3.7271794434e+003;3.7511538086e+003;3.7438461914e+003;3.7766667480e+003;3.7664101563e+003;3.7610256348e+003;3.7560256348e+003;3.7485898438e+003;3.7201281738e+003;3.7380769043e+003;3.7242307129e+003;3.7241025391e+003;
1.9609375000e+000;3.8067949219e+003;3.6771794434e+003;3.7033332520e+003;3.7253845215e+003;3.7174357910e+003;3.7415385742e+003;3.7396154785e+003;3.7282050781e+003;3.7255129395e+003;3.7226923828e+003;3.6925642090e+003;3.7126923828e+003;3.7087180176e+003;3.7010256348e+003;
1.9687500000e+000;3.8085898438e+003;3.6767949219e+003;3.7029487305e+003;3.7233332520e+003;3.7144870605e+003;3.7361538086e+003;3.7351281738e+003;3.7216667480e+003;3.7235898438e+003;3.7175642090e+003;3.6912819824e+003;3.7133332520e+003;3.7093588867e+003;3.7024357910e+003;
1.9765625000e+000;3.8221794434e+003;3.6897436523e+003;3.7135898438e+003;3.7330769043e+003;3.7214101563e+003;3.7416667480e+003;3.7387180176e+003;3.7265385742e+003;3.7323076172e+003;3.7255129395e+003;3.7028205566e+003;3.7264101563e+003;3.7185898438e+003;3.7164101563e+003;
1.9843750000e+000;3.8410256348e+003;3.7089743652e+003;3.7302563477e+003;3.7491025391e+003;3.7337180176e+003;3.7528205566e+003;3.7464101563e+003;3.7378205566e+003;3.7455129395e+003;3.7423076172e+003;3.7217949219e+003;3.7464101563e+003;3.7323076172e+003;3.7361538086e+003;
1.9921875000e+000;3.9426923828e+003;3.8129487305e+003;3.8326923828e+003;3.8438461914e+003;3.8347436523e+003;3.8371794434e+003;3.8282050781e+003;3.8165385742e+003;3.8220512695e+003;3.8487180176e+003;3.8311538086e+003;3.8562819824e+003;3.8496154785e+003;3.8423076172e+003;
2.0000000000e+000;3.9743588867e+003;3.8505129395e+003;3.8678205566e+003;3.8765385742e+003;3.8701281738e+003;3.8684614258e+003;3.8597436523e+003;3.8492307129e+003;3.8553845215e+003;3.8841025391e+003;3.8670512695e+003;3.8907692871e+003;3.8871794434e+003;3.8779487305e+003;
2.0078125000e+000;3.9650000000e+003;3.8467949219e+003;3.8651281738e+003;3.8671794434e+003;3.8616667480e+003;3.8626923828e+003;3.8506411133e+003;3.8447436523e+003;3.8516667480e+003;3.8755129395e+003;3.8598718262e+003;3.8873076172e+003;3.8705129395e+003;3.8760256348e+003;
2.0156250000e+000;3.9356411133e+003;3.8229487305e+003;3.8339743652e+003;3.8426923828e+003;3.8452563477e+003;3.8507692871e+003;3.8382050781e+003;3.8258974609e+003;3.8351281738e+003;3.8607692871e+003;3.8380769043e+003;3.8635898438e+003;3.8503845215e+003;3.8512819824e+003;
2.0234375000e+000;3.9015385742e+003;3.7921794434e+003;3.8029487305e+003;3.8141025391e+003;3.8151281738e+003;3.8275642090e+003;3.8141025391e+003;3.8012819824e+003;3.8107692871e+003;3.8306411133e+003;3.8087180176e+003;3.8332050781e+003;3.8203845215e+003;3.8210256348e+003;
2.0312500000e+000;3.8639743652e+003;3.7565385742e+003;3.7684614258e+003;3.7824357910e+003;3.7896154785e+003;3.8111538086e+003;3.7967949219e+003;3.7902563477e+003;3.7930769043e+003;3.7926923828e+003;3.7666667480e+003;3.7888461914e+003;3.7780769043e+003;3.7828205566e+003;
2.0390625000e+000;3.8683332520e+003;3.7610256348e+003;3.7729487305e+003;3.7883332520e+003;3.7992307129e+003;3.8205129395e+003;3.8082050781e+003;3.8028205566e+003;3.8030769043e+003;3.8020512695e+003;3.7683332520e+003;3.7919230957e+003;3.7805129395e+003;3.7843588867e+003;
2.0468750000e+000;3.8411538086e+003;3.7335898438e+003;3.7500000000e+003;3.7650000000e+003;3.7843588867e+003;3.8121794434e+003;3.8037180176e+003;3.7916667480e+003;3.7989743652e+003;3.7862819824e+003;3.7488461914e+003;3.7694870605e+003;3.7517949219e+003;3.7533332520e+003;
2.0546875000e+000;3.8397436523e+003;3.7320512695e+003;3.7489743652e+003;3.7610256348e+003;3.7843588867e+003;3.8133332520e+003;3.8042307129e+003;3.7929487305e+003;3.8019230957e+003;3.7852563477e+003;3.7508974609e+003;3.7671794434e+003;3.7516667480e+003;3.7534614258e+003;
2.0625000000e+000;3.8226923828e+003;3.7130769043e+003;3.7333332520e+003;3.7382050781e+003;3.7598718262e+003;3.7910256348e+003;3.7824357910e+003;3.7751281738e+003;3.7773076172e+003;3.7634614258e+003;3.7308974609e+003;3.7467949219e+003;3.7376923828e+003;3.7383332520e+003;
2.0703125000e+000;3.8151281738e+003;3.7035898438e+003;3.7252563477e+003;3.7288461914e+003;3.7443588867e+003;3.7753845215e+003;3.7689743652e+003;3.7608974609e+003;3.7589743652e+003;3.7502563477e+003;3.7180769043e+003;3.7369230957e+003;3.7296154785e+003;3.7275642090e+003;
2.0781250000e+000;3.8639743652e+003;3.7492307129e+003;3.7680769043e+003;3.7729487305e+003;3.7788461914e+003;3.7946154785e+003;3.7937180176e+003;3.7819230957e+003;3.7828205566e+003;3.7917949219e+003;3.7655129395e+003;3.7865385742e+003;3.7780769043e+003;3.7700000000e+003;
2.0859375000e+000;3.8447436523e+003;3.7274357910e+003;3.7506411133e+003;3.7416667480e+003;3.7515385742e+003;3.7589743652e+003;3.7519230957e+003;3.7357692871e+003;3.7388461914e+003;3.7624357910e+003;3.7455129395e+003;3.7758974609e+003;3.7582050781e+003;3.7633332520e+003;
2.0937500000e+000;3.8489743652e+003;3.7324357910e+003;3.7541025391e+003;3.7448718262e+003;3.7534614258e+003;3.7589743652e+003;3.7501281738e+003;3.7324357910e+003;3.7373076172e+003;3.7653845215e+003;3.7507692871e+003;3.7774357910e+003;3.7641025391e+003;3.7676923828e+003;
2.1015625000e+000;3.8578205566e+003;3.7426923828e+003;3.7617949219e+003;3.7550000000e+003;3.7608974609e+003;3.7639743652e+003;3.7538461914e+003;3.7361538086e+003;3.7443588867e+003;3.7764101563e+003;3.7620512695e+003;3.7835898438e+003;3.7748718262e+003;3.7751281738e+003;
2.1093750000e+000;3.8583332520e+003;3.7448718262e+003;3.7619230957e+003;3.7576923828e+003;3.7610256348e+003;3.7612819824e+003;3.7500000000e+003;3.7328205566e+003;3.7451281738e+003;3.7801281738e+003;3.7643588867e+003;3.7832050781e+003;3.7764101563e+003;3.7743588867e+003;
2.1171875000e+000;3.7838461914e+003;3.6710256348e+003;3.6942307129e+003;3.6884614258e+003;3.6919230957e+003;3.6948718262e+003;3.6747436523e+003;3.6573076172e+003;3.6705129395e+003;3.7014101563e+003;3.6870512695e+003;3.7174357910e+003;3.7032050781e+003;3.7041025391e+003;
2.1250000000e+000;3.7652563477e+003;3.6507692871e+003;3.6757692871e+003;3.6739743652e+003;3.6760256348e+003;3.6857692871e+003;3.6652563477e+003;3.6469230957e+003;3.6588461914e+003;3.6833332520e+003;3.6711538086e+003;3.7016667480e+003;3.6825642090e+003;3.6869230957e+003;
2.1328125000e+000;3.7996154785e+003;3.6926923828e+003;3.7121794434e+003;3.7092307129e+003;3.7217949219e+003;3.7380769043e+003;3.7266667480e+003;3.7148718262e+003;3.7251281738e+003;3.7306411133e+003;3.7103845215e+003;3.7316667480e+003;3.7174357910e+003;3.7188461914e+003;
2.1406250000e+000;3.8201281738e+003;3.7158974609e+003;3.7356411133e+003;3.7261538086e+003;3.7439743652e+003;3.7615385742e+003;3.7520512695e+003;3.7452563477e+003;3.7535898438e+003;3.7550000000e+003;3.7294870605e+003;3.7508974609e+003;3.7416667480e+003;3.7389743652e+003;
2.1484375000e+000;3.8088461914e+003;3.7011538086e+003;3.7284614258e+003;3.7146154785e+003;3.7335898438e+003;3.7601281738e+003;3.7528205566e+003;3.7455129395e+003;3.7461538086e+003;3.7451281738e+003;3.7144870605e+003;3.7407692871e+003;3.7306411133e+003;3.7282050781e+003;
2.1562500000e+000;3.7741025391e+003;3.6743588867e+003;3.6908974609e+003;3.6933332520e+003;3.7097436523e+003;3.7347436523e+003;3.7403845215e+003;3.7256411133e+003;3.7197436523e+003;3.7179487305e+003;3.6896154785e+003;3.7079487305e+003;3.6984614258e+003;3.6875642090e+003;
2.1640625000e+000;3.7488461914e+003;3.6498718262e+003;3.6673076172e+003;3.6693588867e+003;3.6842307129e+003;3.7097436523e+003;3.7165385742e+003;3.7021794434e+003;3.6970512695e+003;3.6914101563e+003;3.6650000000e+003;3.6841025391e+003;3.6753845215e+003;3.6642307129e+003;
2.1718750000e+000;3.7337180176e+003;3.6271794434e+003;3.6512819824e+003;3.6500000000e+003;3.6598718262e+003;3.6821794434e+003;3.6866667480e+003;3.6707692871e+003;3.6675642090e+003;3.6683332520e+003;3.6412819824e+003;3.6670512695e+003;3.6511538086e+003;3.6511538086e+003;
2.1796875000e+000;3.7353845215e+003;3.6280769043e+003;3.6529487305e+003;3.6517949219e+003;3.6579487305e+003;3.6783332520e+003;3.6788461914e+003;3.6648718262e+003;3.6616667480e+003;3.6702563477e+003;3.6403845215e+003;3.6697436523e+003;3.6523076172e+003;3.6530769043e+003;
2.1875000000e+000;3.7162819824e+003;3.6084614258e+003;3.6350000000e+003;3.6343588867e+003;3.6332050781e+003;3.6484614258e+003;3.6444870605e+003;3.6292307129e+003;3.6280769043e+003;3.6458974609e+003;3.6203845215e+003;3.6512819824e+003;3.6423076172e+003;3.6380769043e+003;
2.1953125000e+000;3.7175642090e+003;3.6089743652e+003;3.6347436523e+003;3.6342307129e+003;3.6321794434e+003;3.6428205566e+003;3.6401281738e+003;3.6208974609e+003;3.6229487305e+003;3.6419230957e+003;3.6224357910e+003;3.6510256348e+003;3.6461538086e+003;3.6414101563e+003;
2.2031250000e+000;3.8364101563e+003;3.7247436523e+003;3.7464101563e+003;3.7448718262e+003;3.7424357910e+003;3.7378205566e+003;3.7420512695e+003;3.7128205566e+003;3.7211538086e+003;3.7548718262e+003;3.7382050781e+003;3.7706411133e+003;3.7514101563e+003;3.7594870605e+003;
2.2109375000e+000;3.9025642090e+003;3.7925642090e+003;3.8116667480e+003;3.8078205566e+003;3.8078205566e+003;3.7975642090e+003;3.8017949219e+003;3.7721794434e+003;3.7817949219e+003;3.8232050781e+003;3.8026923828e+003;3.8376923828e+003;3.8175642090e+003;3.8242307129e+003;
2.2187500000e+000;3.9926923828e+003;3.8942307129e+003;3.9038461914e+003;3.8929487305e+003;3.9028205566e+003;3.8857692871e+003;3.8846154785e+003;3.8607692871e+003;3.8764101563e+003;3.9228205566e+003;3.8983332520e+003;3.9306411133e+003;3.9220512695e+003;3.9169230957e+003;
2.2265625000e+000;3.9942307129e+003;3.9019230957e+003;3.9093588867e+003;3.8948718262e+003;3.9076923828e+003;3.8923076172e+003;3.8882050781e+003;3.8676923828e+003;3.8874357910e+003;3.9289743652e+003;3.9074357910e+003;3.9360256348e+003;3.9297436523e+003;3.9234614258e+003;
2.2343750000e+000;3.9853845215e+003;3.8960256348e+003;3.9044870605e+003;3.8879487305e+003;3.9011538086e+003;3.8893588867e+003;3.8843588867e+003;3.8657692871e+003;3.8894870605e+003;3.9235898438e+003;3.9062819824e+003;3.9315385742e+003;3.9226923828e+003;3.9201281738e+003;
2.2421875000e+000;3.9944870605e+003;3.9050000000e+003;3.9156411133e+003;3.8989743652e+003;3.9120512695e+003;3.9033332520e+003;3.8997436523e+003;3.8832050781e+003;3.9096154785e+003;3.9367949219e+003;3.9211538086e+003;3.9442307129e+003;3.9310256348e+003;3.9330769043e+003;
2.2500000000e+000;4.1064101563e+003;4.0328205566e+003;4.0321794434e+003;4.0202563477e+003;4.0544870605e+003;4.0439743652e+003;4.0496154785e+003;4.0526923828e+003;4.0675642090e+003;4.0837180176e+003;4.0444870605e+003;4.0701281738e+003;4.0644870605e+003;4.0417949219e+003;
2.2578125000e+000;4.2038461914e+003;4.1470512695e+003;4.1419228516e+003;4.1310258789e+003;4.1702563477e+003;4.1594873047e+003;4.1688461914e+003;4.1624360352e+003;4.1620512695e+003;4.1802563477e+003;4.1421796875e+003;4.1653847656e+003;4.1569228516e+003;4.1352563477e+003;
2.2656250000e+000;4.2285898438e+003;4.1734614258e+003;4.1705126953e+003;4.1580771484e+003;4.1975639648e+003;4.1869228516e+003;4.1964101563e+003;4.1923076172e+003;4.1889741211e+003;4.2084614258e+003;4.1696152344e+003;4.1941025391e+003;4.1834614258e+003;4.1625639648e+003;
2.2734375000e+000;4.2557690430e+003;4.2080771484e+003;4.2032050781e+003;4.1888461914e+003;4.2338461914e+003;4.2158974609e+003;4.2284614258e+003;4.2212822266e+003;4.2214101563e+003;4.2400000000e+003;4.2026923828e+003;4.2282050781e+003;4.2142309570e+003;4.1933334961e+003;
2.2812500000e+000;4.3888461914e+003;4.3601284180e+003;4.3508974609e+003;4.3306411133e+003;4.3753847656e+003;4.3406411133e+003;4.3506411133e+003;4.3434614258e+003;4.3467949219e+003;4.3830771484e+003;4.3539741211e+003;4.3796152344e+003;4.3656411133e+003;4.3411538086e+003;
2.2890625000e+000;4.4205126953e+003;4.3973076172e+003;4.3847436523e+003;4.3624360352e+003;4.4074360352e+003;4.3685898438e+003;4.3758974609e+003;4.3738461914e+003;4.3738461914e+003;4.4179487305e+003;4.3864101563e+003;4.4141025391e+003;4.4029487305e+003;4.3744873047e+003;
2.2968750000e+000;4.3720512695e+003;4.3569228516e+003;4.3478203125e+003;4.3126923828e+003;4.3656411133e+003;4.3175639648e+003;4.3247436523e+003;4.3212822266e+003;4.3253847656e+003;4.3808974609e+003;4.3456411133e+003;4.3697436523e+003;4.3555126953e+003;4.3330771484e+003;
2.3046875000e+000;4.3535898438e+003;4.3397436523e+003;4.3325639648e+003;4.2950000000e+003;4.3476923828e+003;4.2997436523e+003;4.3074360352e+003;4.2984614258e+003;4.3058974609e+003;4.3610258789e+003;4.3297436523e+003;4.3524360352e+003;4.3362822266e+003;4.3182050781e+003;
2.3125000000e+000;4.4217949219e+003;4.4188461914e+003;4.4020512695e+003;4.3656411133e+003;4.4144873047e+003;4.3657690430e+003;4.3705126953e+003;4.3600000000e+003;4.3707690430e+003;4.4289741211e+003;4.4028203125e+003;4.4234614258e+003;4.4132050781e+003;4.3929487305e+003;
2.3203125000e+000;4.4701284180e+003;4.4735898438e+003;4.4519228516e+003;4.4161538086e+003;4.4634614258e+003;4.4130771484e+003;4.4165385742e+003;4.4091025391e+003;4.4207690430e+003;4.4820512695e+003;4.4546152344e+003;4.4755126953e+003;4.4685898438e+003;4.4450000000e+003;
2.3281250000e+000;4.5038461914e+003;4.5161538086e+003;4.5003847656e+003;4.4580771484e+003;4.5143588867e+003;4.4587177734e+003;4.4660258789e+003;4.4630771484e+003;4.4796152344e+003;4.5367949219e+003;4.5066665039e+003;4.5235898438e+003;4.5116665039e+003;4.4896152344e+003;
2.3359375000e+000;4.5038461914e+003;4.5211538086e+003;4.5046152344e+003;4.4607690430e+003;4.5229487305e+003;4.4688461914e+003;4.4764101563e+003;4.4780771484e+003;4.4948715820e+003;4.5458974609e+003;4.5150000000e+003;4.5267949219e+003;4.5137177734e+003;4.4930771484e+003;
2.3437500000e+000;4.4924360352e+003;4.5225639648e+003;4.4993588867e+003;4.4570512695e+003;4.5255126953e+003;4.4819228516e+003;4.4884614258e+003;4.5006411133e+003;4.5091025391e+003;4.5515385742e+003;4.5120512695e+003;4.5220512695e+003;4.5106411133e+003;4.4888461914e+003;
2.3515625000e+000;4.4891025391e+003;4.5232050781e+003;4.4980771484e+003;4.4571796875e+003;4.5273076172e+003;4.4873076172e+003;4.4966665039e+003;4.5089741211e+003;4.5101284180e+003;4.5519228516e+003;4.5071796875e+003;4.5203847656e+003;4.5114101563e+003;4.4867949219e+003;
2.3593750000e+000;4.5000000000e+003;4.5357690430e+003;4.5103847656e+003;4.4698715820e+003;4.5430771484e+003;4.5021796875e+003;4.5169228516e+003;4.5264101563e+003;4.5217949219e+003;4.5633334961e+003;4.5152563477e+003;4.5307690430e+003;4.5248715820e+003;4.4970512695e+003;
2.3671875000e+000;4.5162822266e+003;4.5732050781e+003;4.5482050781e+003;4.4980771484e+003;4.5825639648e+003;4.5458974609e+003;4.5623076172e+003;4.5697436523e+003;4.5674360352e+003;4.5978203125e+003;4.5547436523e+003;4.5621796875e+003;4.5585898438e+003;4.5338461914e+003;
2.3750000000e+000;4.5170512695e+003;4.5789741211e+003;4.5532050781e+003;4.5023076172e+003;4.5875639648e+003;4.5553847656e+003;4.5711538086e+003;4.5776923828e+003;4.5741025391e+003;4.6087177734e+003;4.5641025391e+003;4.5682050781e+003;4.5662822266e+003;4.5402563477e+003;
2.3828125000e+000;4.5087177734e+003;4.5730771484e+003;4.5505126953e+003;4.5050000000e+003;4.5829487305e+003;4.5451284180e+003;4.5617949219e+003;4.5603847656e+003;4.5601284180e+003;4.6048715820e+003;4.5615385742e+003;4.5689741211e+003;4.5624360352e+003;4.5367949219e+003;
2.3906250000e+000;4.5173076172e+003;4.5865385742e+003;4.5617949219e+003;4.5157690430e+003;4.5894873047e+003;4.5432050781e+003;4.5480771484e+003;4.5507690430e+003;4.5484614258e+003;4.6008974609e+003;4.5660258789e+003;4.5830771484e+003;4.5730771484e+003;4.5543588867e+003;
2.3984375000e+000;4.5061538086e+003;4.5787177734e+003;4.5535898438e+003;4.5080771484e+003;4.5793588867e+003;4.5321796875e+003;4.5360258789e+003;4.5406411133e+003;4.5364101563e+003;4.5917949219e+003;4.5600000000e+003;4.5779487305e+003;4.5675639648e+003;4.5508974609e+003;
2.4062500000e+000;4.4589741211e+003;4.5344873047e+003;4.5094873047e+003;4.4700000000e+003;4.5326923828e+003;4.4737177734e+003;4.4837177734e+003;4.4821796875e+003;4.4900000000e+003;4.5471796875e+003;4.5203847656e+003;4.5334614258e+003;4.5292309570e+003;4.5125639648e+003;
2.4140625000e+000;4.4470512695e+003;4.5224360352e+003;4.4989741211e+003;4.4610258789e+003;4.5207690430e+003;4.4620512695e+003;4.4712822266e+003;4.4688461914e+003;4.4816665039e+003;4.5379487305e+003;4.5094873047e+003;4.5228203125e+003;4.5193588867e+003;4.5012822266e+003;
2.4218750000e+000;4.4169228516e+003;4.4897436523e+003;4.4751284180e+003;4.4342309570e+003;4.4923076172e+003;4.4469228516e+003;4.4516665039e+003;4.4489741211e+003;4.4657690430e+003;4.5153847656e+003;4.4844873047e+003;4.5010258789e+003;4.4941025391e+003;4.4793588867e+003;
2.4296875000e+000;4.4451284180e+003;4.5203847656e+003;4.5023076172e+003;4.4598715820e+003;4.5239741211e+003;4.4755126953e+003;4.4833334961e+003;4.4819228516e+003;4.5007690430e+003;4.5479487305e+003;4.5165385742e+003;4.5291025391e+003;4.5238461914e+003;4.5101284180e+003;
2.4375000000e+000;4.5251284180e+003;4.6073076172e+003;4.5807690430e+003;4.5394873047e+003;4.6115385742e+003;4.5576923828e+003;4.5724360352e+003;4.5782050781e+003;4.5973076172e+003;4.6414101563e+003;4.6058974609e+003;4.6119228516e+003;4.6096152344e+003;4.5942309570e+003;
2.4453125000e+000;4.5478203125e+003;4.6308974609e+003;4.6046152344e+003;4.5651284180e+003;4.6361538086e+003;4.5856411133e+003;4.6012822266e+003;4.6102563477e+003;4.6247436523e+003;4.6680771484e+003;4.6300000000e+003;4.6360258789e+003;4.6352563477e+003;4.6179487305e+003;
2.4531250000e+000;4.4992309570e+003;4.5864101563e+003;4.5656411133e+003;4.5280771484e+003;4.5992309570e+003;4.5619228516e+003;4.5735898438e+003;4.5819228516e+003;4.5769228516e+003;4.6191025391e+003;4.5750000000e+003;4.5835898438e+003;4.5912822266e+003;4.5724360352e+003;
2.4609375000e+000;4.4626923828e+003;4.5539741211e+003;4.5324360352e+003;4.4953847656e+003;4.5687177734e+003;4.5332050781e+003;4.5458974609e+003;4.5502563477e+003;4.5414101563e+003;4.5794873047e+003;4.5378203125e+003;4.5484614258e+003;4.5508974609e+003;4.5374360352e+003;
2.4687500000e+000;4.4762822266e+003;4.5719228516e+003;4.5453847656e+003;4.5117949219e+003;4.5891025391e+003;4.5534614258e+003;4.5708974609e+003;4.5671796875e+003;4.5561538086e+003;4.5846152344e+003;4.5517949219e+003;4.5637177734e+003;4.5521796875e+003;4.5476923828e+003;
2.4765625000e+000;4.5242309570e+003;4.6201284180e+003;4.5911538086e+003;4.5583334961e+003;4.6382050781e+003;4.6003847656e+003;4.6183334961e+003;4.6151284180e+003;4.6048715820e+003;4.6330771484e+003;4.6002563477e+003;4.6108974609e+003;4.5984614258e+003;4.5929487305e+003;
2.4843750000e+000;4.5537177734e+003;4.6494873047e+003;4.6206411133e+003;4.5869228516e+003;4.6682050781e+003;4.6291025391e+003;4.6448715820e+003;4.6457690430e+003;4.6358974609e+003;4.6669228516e+003;4.6301284180e+003;4.6411538086e+003;4.6314101563e+003;4.6223076172e+003;
2.4921875000e+000;4.4306411133e+003;4.5270512695e+003;4.5020512695e+003;4.4725639648e+003;4.5411538086e+003;4.5066665039e+003;4.5170512695e+003;4.5103847656e+003;4.5028203125e+003;4.5335898438e+003;4.5067949219e+003;4.5164101563e+003;4.5148715820e+003;4.5051284180e+003;
2.5000000000e+000;4.4701284180e+003;4.5644873047e+003;4.5419228516e+003;4.5100000000e+003;4.5787177734e+003;4.5387177734e+003;4.5496152344e+003;4.5424360352e+003;4.5373076172e+003;4.5701284180e+003;4.5455126953e+003;4.5552563477e+003;4.5512822266e+003;4.5416665039e+003;
2.5078125000e+000;4.4150000000e+003;4.5067949219e+003;4.4905126953e+003;4.4578203125e+003;4.5110258789e+003;4.4705126953e+003;4.4682050781e+003;4.4698715820e+003;4.4653847656e+003;4.5105126953e+003;4.4856411133e+003;4.5042309570e+003;4.4966665039e+003;4.4866665039e+003;
2.5156250000e+000;4.3552563477e+003;4.4466665039e+003;4.4305126953e+003;4.3998715820e+003;4.4453847656e+003;4.4093588867e+003;4.4050000000e+003;4.4078203125e+003;4.4024360352e+003;4.4478203125e+003;4.4235898438e+003;4.4432050781e+003;4.4369228516e+003;4.4251284180e+003;
2.5234375000e+000;4.2589741211e+003;4.3400000000e+003;4.3339741211e+003;4.3007690430e+003;4.3376923828e+003;4.3079487305e+003;4.3076923828e+003;4.3048715820e+003;4.3030771484e+003;4.3419228516e+003;4.3210258789e+003;4.3416665039e+003;4.3335898438e+003;4.3210258789e+003;
2.5312500000e+000;4.1219228516e+003;4.1865385742e+003;4.1919228516e+003;4.1656411133e+003;4.1939741211e+003;4.1765385742e+003;4.1758974609e+003;4.1791025391e+003;4.1891025391e+003;4.2092309570e+003;4.1892309570e+003;4.2108974609e+003;4.1932050781e+003;4.1867949219e+003;
2.5390625000e+000;4.0661538086e+003;4.1276923828e+003;4.1310258789e+003;4.1112822266e+003;4.1348715820e+003;4.1258974609e+003;4.1253847656e+003;4.1300000000e+003;4.1392309570e+003;4.1542309570e+003;4.1316665039e+003;4.1537177734e+003;4.1369228516e+003;4.1289741211e+003;
2.5468750000e+000;3.9852563477e+003;4.0265385742e+003;4.0321794434e+003;4.0170512695e+003;4.0429487305e+003;4.0412819824e+003;4.0467949219e+003;4.0502563477e+003;4.0557692871e+003;4.0556411133e+003;4.0357692871e+003;4.0514101563e+003;4.0397436523e+003;4.0303845215e+003;
2.5546875000e+000;3.9684614258e+003;4.0039743652e+003;4.0148718262e+003;4.0006411133e+003;4.0242307129e+003;4.0248718262e+003;4.0307692871e+003;4.0370512695e+003;4.0394870605e+003;4.0364101563e+003;4.0183332520e+003;4.0326923828e+003;4.0188461914e+003;4.0129487305e+003;
2.5625000000e+000;3.8967949219e+003;3.9248718262e+003;3.9437180176e+003;3.9391025391e+003;3.9494870605e+003;3.9639743652e+003;3.9689743652e+003;3.9735898438e+003;3.9674357910e+003;3.9594870605e+003;3.9412819824e+003;3.9614101563e+003;3.9437180176e+003;3.9406411133e+003;
2.5703125000e+000;3.8684614258e+003;3.8932050781e+003;3.9117949219e+003;3.9133332520e+003;3.9200000000e+003;3.9400000000e+003;3.9448718262e+003;3.9437180176e+003;3.9350000000e+003;3.9251281738e+003;3.9055129395e+003;3.9294870605e+003;3.9130769043e+003;3.9073076172e+003;
2.5781250000e+000;3.8343588867e+003;3.8480769043e+003;3.8647436523e+003;3.8726923828e+003;3.8787180176e+003;3.8988461914e+003;3.9041025391e+003;3.8920512695e+003;3.8870512695e+003;3.8744870605e+003;3.8560256348e+003;3.8808974609e+003;3.8651281738e+003;3.8602563477e+003;
2.5859375000e+000;3.8162819824e+003;3.8255129395e+003;3.8457692871e+003;3.8514101563e+003;3.8548718262e+003;3.8746154785e+003;3.8806411133e+003;3.8694870605e+003;3.8646154785e+003;3.8510256348e+003;3.8361538086e+003;3.8593588867e+003;3.8421794434e+003;3.8408974609e+003;
2.5937500000e+000;3.7920512695e+003;3.7916667480e+003;3.8180769043e+003;3.8201281738e+003;3.8175642090e+003;3.8393588867e+003;3.8460256348e+003;3.8367949219e+003;3.8262819824e+003;3.8178205566e+003;3.8033332520e+003;3.8266667480e+003;3.8107692871e+003;3.8096154785e+003;
2.6015625000e+000;3.7817949219e+003;3.7758974609e+003;3.8037180176e+003;3.8066667480e+003;3.8003845215e+003;3.8243588867e+003;3.8301281738e+003;3.8191025391e+003;3.8060256348e+003;3.8029487305e+003;3.7856411133e+003;3.8121794434e+003;3.7958974609e+003;3.7934614258e+003;
2.6093750000e+000;3.7669230957e+003;3.7552563477e+003;3.7842307129e+003;3.7893588867e+003;3.7782050781e+003;3.8037180176e+003;3.8082050781e+003;3.7935898438e+003;3.7798718262e+003;3.7808974609e+003;3.7625642090e+003;3.7932050781e+003;3.7743588867e+003;3.7721794434e+003;
2.6171875000e+000;3.7544870605e+003;3.7376923828e+003;3.7676923828e+003;3.7748718262e+003;3.7583332520e+003;3.7832050781e+003;3.7866667480e+003;3.7682050781e+003;3.7560256348e+003;3.7588461914e+003;3.7424357910e+003;3.7753845215e+003;3.7539743652e+003;3.7534614258e+003;
2.6250000000e+000;3.7603845215e+003;3.7287180176e+003;3.7630769043e+003;3.7671794434e+003;3.7453845215e+003;3.7557692871e+003;3.7574357910e+003;3.7448718262e+003;3.7451281738e+003;3.7453845215e+003;3.7432050781e+003;3.7701281738e+003;3.7425642090e+003;3.7539743652e+003;
2.6328125000e+000;3.6764101563e+003;3.6314101563e+003;3.6641025391e+003;3.6824357910e+003;3.6435898438e+003;3.6583332520e+003;3.6634614258e+003;3.6483332520e+003;3.6558974609e+003;3.6583332520e+003;3.6529487305e+003;3.6821794434e+003;3.6589743652e+003;3.6596154785e+003;
2.6406250000e+000;3.6464101563e+003;3.5974357910e+003;3.6317949219e+003;3.6506411133e+003;3.6083332520e+003;3.6247436523e+003;3.6289743652e+003;3.6164101563e+003;3.6258974609e+003;3.6247436523e+003;3.6174357910e+003;3.6485898438e+003;3.6244870605e+003;3.6269230957e+003;
2.6484375000e+000;3.6019230957e+003;3.5429487305e+003;3.5856411133e+003;3.6005129395e+003;3.5553845215e+003;3.5810256348e+003;3.5833332520e+003;3.5755129395e+003;3.5841025391e+003;3.5725642090e+003;3.5662819824e+003;3.5991025391e+003;3.5707692871e+003;3.5806411133e+003;
2.6562500000e+000;3.5991025391e+003;3.5362819824e+003;3.5807692871e+003;3.5961538086e+003;3.5512819824e+003;3.5823076172e+003;3.5852563477e+003;3.5787180176e+003;3.5834614258e+003;3.5689743652e+003;3.5641025391e+003;3.5929487305e+003;3.5667949219e+003;3.5773076172e+003;
2.6640625000e+000;3.5674357910e+003;3.4897436523e+003;3.5347436523e+003;3.5629487305e+003;3.5187180176e+003;3.5608974609e+003;3.5673076172e+003;3.5532050781e+003;3.5469230957e+003;3.5253845215e+003;3.5197436523e+003;3.5433332520e+003;3.5251281738e+003;3.5310256348e+003;
2.6718750000e+000;3.5520512695e+003;3.4688461914e+003;3.5132050781e+003;3.5437180176e+003;3.5028205566e+003;3.5456411133e+003;3.5500000000e+003;3.5326923828e+003;3.5279487305e+003;3.5032050781e+003;3.4939743652e+003;3.5208974609e+003;3.5024357910e+003;3.5079487305e+003;
2.6796875000e+000;3.5185898438e+003;3.4355129395e+003;3.4732050781e+003;3.5084614258e+003;3.4724357910e+003;3.5225642090e+003;3.5197436523e+003;3.5005129395e+003;3.5003845215e+003;3.4755129395e+003;3.4616667480e+003;3.4852563477e+003;3.4684614258e+003;3.4729487305e+003;
2.6875000000e+000;3.5056411133e+003;3.4123076172e+003;3.4478205566e+003;3.5032050781e+003;3.4465385742e+003;3.4965385742e+003;3.4973076172e+003;3.4655129395e+003;3.4633332520e+003;3.4460256348e+003;3.4303845215e+003;3.4558974609e+003;3.4425642090e+003;3.4435898438e+003;
2.6953125000e+000;3.5164101563e+003;3.4166667480e+003;3.4533332520e+003;3.5130769043e+003;3.4503845215e+003;3.4964101563e+003;3.4953845215e+003;3.4635898438e+003;3.4629487305e+003;3.4457692871e+003;3.4288461914e+003;3.4588461914e+003;3.4444870605e+003;3.4475642090e+003;
2.7031250000e+000;3.5193588867e+003;3.4142307129e+003;3.4534614258e+003;3.5139743652e+003;3.4467949219e+003;3.4916667480e+003;3.4876923828e+003;3.4557692871e+003;3.4560256348e+003;3.4389743652e+003;3.4237180176e+003;3.4583332520e+003;3.4411538086e+003;3.4483332520e+003;
2.7109375000e+000;3.5342307129e+003;3.4252563477e+003;3.4642307129e+003;3.5242307129e+003;3.4535898438e+003;3.4980769043e+003;3.4938461914e+003;3.4541025391e+003;3.4515385742e+003;3.4419230957e+003;3.4392307129e+003;3.4755129395e+003;3.4523076172e+003;3.4665385742e+003;
2.7187500000e+000;3.6817949219e+003;3.5774357910e+003;3.6033332520e+003;3.6674357910e+003;3.6007692871e+003;3.6212819824e+003;3.6326923828e+003;3.5900000000e+003;3.5835898438e+003;3.5953845215e+003;3.5930769043e+003;3.6215385742e+003;3.6026923828e+003;3.6108974609e+003;
2.7265625000e+000;3.7256411133e+003;3.6202563477e+003;3.6484614258e+003;3.7088461914e+003;3.6428205566e+003;3.6569230957e+003;3.6696154785e+003;3.6320512695e+003;3.6274357910e+003;3.6424357910e+003;3.6347436523e+003;3.6630769043e+003;3.6462819824e+003;3.6544870605e+003;
2.7343750000e+000;3.7578205566e+003;3.6511538086e+003;3.6838461914e+003;3.7374357910e+003;3.6730769043e+003;3.6838461914e+003;3.6943588867e+003;3.6626923828e+003;3.6615385742e+003;3.6779487305e+003;3.6667949219e+003;3.6944870605e+003;3.6785898438e+003;3.6880769043e+003;
2.7421875000e+000;3.7798718262e+003;3.6735898438e+003;3.7091025391e+003;3.7562819824e+003;3.6941025391e+003;3.7037180176e+003;3.7107692871e+003;3.6852563477e+003;3.6874357910e+003;3.7046154785e+003;3.6924357910e+003;3.7188461914e+003;3.7015385742e+003;3.7124357910e+003;
2.7500000000e+000;3.8469230957e+003;3.7503845215e+003;3.7761538086e+003;3.8211538086e+003;3.7605129395e+003;3.7656411133e+003;3.7787180176e+003;3.7666667480e+003;3.7697436523e+003;3.7855129395e+003;3.7675642090e+003;3.7973076172e+003;3.7684614258e+003;3.7789743652e+003;
2.7578125000e+000;3.8891025391e+003;3.7952563477e+003;3.8183332520e+003;3.8601281738e+003;3.8041025391e+003;3.8067949219e+003;3.8217949219e+003;3.8128205566e+003;3.8178205566e+003;3.8302563477e+003;3.8102563477e+003;3.8361538086e+003;3.8144870605e+003;3.8200000000e+003;
2.7656250000e+000;3.8455129395e+003;3.7576923828e+003;3.7796154785e+003;3.8176923828e+003;3.7665385742e+003;3.7835898438e+003;3.7885898438e+003;3.7852563477e+003;3.7882050781e+003;3.7952563477e+003;3.7734614258e+003;3.7970512695e+003;3.7808974609e+003;3.7811538086e+003;
2.7734375000e+000;3.9308974609e+003;3.8484614258e+003;3.8580769043e+003;3.9046154785e+003;3.8611538086e+003;3.8760256348e+003;3.8887180176e+003;3.8602563477e+003;3.8550000000e+003;3.8656411133e+003;3.8464101563e+003;3.8688461914e+003;3.8553845215e+003;3.8569230957e+003;
2.7812500000e+000;4.0624357910e+003;3.9843588867e+003;3.9897436523e+003;4.0310256348e+003;3.9987180176e+003;4.0070512695e+003;4.0223076172e+003;3.9908974609e+003;3.9865385742e+003;4.0007692871e+003;3.9784614258e+003;3.9983332520e+003;3.9891025391e+003;3.9867949219e+003;
2.7890625000e+000;4.2573076172e+003;4.2035898438e+003;4.2017949219e+003;4.2253847656e+003;4.2221796875e+003;4.2193588867e+003;4.2298715820e+003;4.2157690430e+003;4.2137177734e+003;4.2383334961e+003;4.2032050781e+003;4.2194873047e+003;4.2062822266e+003;4.2021796875e+003;
2.7968750000e+000;4.1946152344e+003;4.1511538086e+003;4.1467949219e+003;4.1723076172e+003;4.1692309570e+003;4.1705126953e+003;4.1775639648e+003;4.1664101563e+003;4.1634614258e+003;4.1905126953e+003;4.1519228516e+003;4.1667949219e+003;4.1539741211e+003;4.1503847656e+003;
2.8046875000e+000;3.9638461914e+003;3.9235898438e+003;3.9260256348e+003;3.9592307129e+003;3.9493588867e+003;3.9694870605e+003;3.9710256348e+003;3.9376923828e+003;3.9346154785e+003;3.9567949219e+003;3.9271794434e+003;3.9415385742e+003;3.9317949219e+003;3.9293588867e+003;
2.8125000000e+000;3.9770512695e+003;3.9288461914e+003;3.9434614258e+003;3.9637180176e+003;3.9520512695e+003;3.9651281738e+003;3.9692307129e+003;3.9353845215e+003;3.9366667480e+003;3.9646154785e+003;3.9403845215e+003;3.9592307129e+003;3.9380769043e+003;3.9461538086e+003;
2.8203125000e+000;3.9489743652e+003;3.9030769043e+003;3.9200000000e+003;3.9389743652e+003;3.9203845215e+003;3.9316667480e+003;3.9351281738e+003;3.9056411133e+003;3.9053845215e+003;3.9410256348e+003;3.9160256348e+003;3.9370512695e+003;3.9166667480e+003;3.9232050781e+003;
2.8281250000e+000;3.9126923828e+003;3.8691025391e+003;3.8856411133e+003;3.9061538086e+003;3.8812819824e+003;3.8898718262e+003;3.8929487305e+003;3.8656411133e+003;3.8625642090e+003;3.9048718262e+003;3.8806411133e+003;3.9032050781e+003;3.8871794434e+003;3.8896154785e+003;
2.8359375000e+000;3.8951281738e+003;3.8485898438e+003;3.8598718262e+003;3.8861538086e+003;3.8574357910e+003;3.8558974609e+003;3.8617949219e+003;3.8376923828e+003;3.8310256348e+003;3.8758974609e+003;3.8553845215e+003;3.8788461914e+003;3.8689743652e+003;3.8669230957e+003;
2.8437500000e+000;3.9338461914e+003;3.8778205566e+003;3.8987180176e+003;3.9180769043e+003;3.8828205566e+003;3.8766667480e+003;3.8929487305e+003;3.8833332520e+003;3.8867949219e+003;3.9107692871e+003;3.8958974609e+003;3.9216667480e+003;3.8956411133e+003;3.9051281738e+003;
2.8515625000e+000;3.9600000000e+003;3.9071794434e+003;3.9265385742e+003;3.9451281738e+003;3.9089743652e+003;3.9021794434e+003;3.9202563477e+003;3.9175642090e+003;3.9225642090e+003;3.9426923828e+003;3.9262819824e+003;3.9507692871e+003;3.9253845215e+003;3.9332050781e+003;
2.8593750000e+000;3.9970512695e+003;3.9497436523e+003;3.9635898438e+003;3.9841025391e+003;3.9515385742e+003;3.9423076172e+003;3.9607692871e+003;3.9642307129e+003;3.9682050781e+003;3.9889743652e+003;3.9666667480e+003;3.9887180176e+003;3.9684614258e+003;3.9708974609e+003;
2.8671875000e+000;4.0314101563e+003;3.9891025391e+003;3.9974357910e+003;4.0206411133e+003;3.9948718262e+003;3.9830769043e+003;4.0011538086e+003;4.0079487305e+003;4.0089743652e+003;4.0326923828e+003;4.0024357910e+003;4.0221794434e+003;4.0076923828e+003;4.0044870605e+003;
2.8750000000e+000;4.0642307129e+003;4.0302563477e+003;4.0375642090e+003;4.0567949219e+003;4.0438461914e+003;4.0414101563e+003;4.0584614258e+003;4.0493588867e+003;4.0403845215e+003;4.0662819824e+003;4.0364101563e+003;4.0493588867e+003;4.0385898438e+003;4.0350000000e+003;
2.8828125000e+000;4.0653845215e+003;4.0361538086e+003;4.0417949219e+003;4.0601281738e+003;4.0492307129e+003;4.0483332520e+003;4.0655129395e+003;4.0524357910e+003;4.0428205566e+003;4.0694870605e+003;4.0392307129e+003;4.0538461914e+003;4.0423076172e+003;4.0402563477e+003;
2.8906250000e+000;4.0712819824e+003;4.0458974609e+003;4.0456411133e+003;4.0741025391e+003;4.0743588867e+003;4.0687180176e+003;4.0846154785e+003;4.0594870605e+003;4.0570512695e+003;4.0823076172e+003;4.0416667480e+003;4.0589743652e+003;4.0555129395e+003;4.0465385742e+003;
2.8984375000e+000;4.1173076172e+003;4.1039741211e+003;4.0992309570e+003;4.1288461914e+003;4.1230771484e+003;4.1221796875e+003;4.1262822266e+003;4.1061538086e+003;4.0993588867e+003;4.1291025391e+003;4.1010258789e+003;4.1111538086e+003;4.1025639648e+003;4.1002563477e+003;
2.9062500000e+000;4.1171796875e+003;4.1102563477e+003;4.1041025391e+003;4.1320512695e+003;4.1228203125e+003;4.1233334961e+003;4.1270512695e+003;4.1052563477e+003;4.0915385742e+003;4.1293588867e+003;4.1019228516e+003;4.1142309570e+003;4.1042309570e+003;4.1050000000e+003;
2.9140625000e+000;4.1452563477e+003;4.1414101563e+003;4.1298715820e+003;4.1560258789e+003;4.1548715820e+003;4.1430771484e+003;4.1482050781e+003;4.1147436523e+003;4.1021796875e+003;4.1529487305e+003;4.1165385742e+003;4.1357690430e+003;4.1385898438e+003;4.1312822266e+003;
2.9218750000e+000;4.1444873047e+003;4.1384614258e+003;4.1276923828e+003;4.1535898438e+003;4.1526923828e+003;4.1385898438e+003;4.1424360352e+003;4.1100000000e+003;4.1016665039e+003;4.1497436523e+003;4.1162822266e+003;4.1370512695e+003;4.1374360352e+003;4.1320512695e+003;
2.9296875000e+000;4.1776923828e+003;4.1787177734e+003;4.1693588867e+003;4.1903847656e+003;4.1834614258e+003;4.1614101563e+003;4.1683334961e+003;4.1480771484e+003;4.1403847656e+003;4.1950000000e+003;4.1726923828e+003;4.1830771484e+003;4.1793588867e+003;4.1819228516e+003;
2.9375000000e+000;4.2124360352e+003;4.2180771484e+003;4.2075639648e+003;4.2267949219e+003;4.2206411133e+003;4.1933334961e+003;4.2039741211e+003;4.1873076172e+003;4.1798715820e+003;4.2396152344e+003;4.2148715820e+003;4.2208974609e+003;4.2214101563e+003;4.2194873047e+003;
2.9453125000e+000;4.2742309570e+003;4.2817949219e+003;4.2707690430e+003;4.2870512695e+003;4.2853847656e+003;4.2502563477e+003;4.2653847656e+003;4.2562822266e+003;4.2539741211e+003;4.3102563477e+003;4.2816665039e+003;4.2870512695e+003;4.2923076172e+003;4.2802563477e+003;
2.9531250000e+000;4.3073076172e+003;4.3150000000e+003;4.3039741211e+003;4.3166665039e+003;4.3189741211e+003;4.2805126953e+003;4.2962822266e+003;4.2933334961e+003;4.2943588867e+003;4.3433334961e+003;4.3150000000e+003;4.3219228516e+003;4.3262822266e+003;4.3139741211e+003;
2.9609375000e+000;4.3491025391e+003;4.3662822266e+003;4.3579487305e+003;4.3570512695e+003;4.3635898438e+003;4.3184614258e+003;4.3378203125e+003;4.3546152344e+003;4.3552563477e+003;4.3961538086e+003;4.3680771484e+003;4.3764101563e+003;4.3702563477e+003;4.3697436523e+003;
2.9687500000e+000;4.3429487305e+003;4.3656411133e+003;4.3557690430e+003;4.3580771484e+003;4.3629487305e+003;4.3217949219e+003;4.3471796875e+003;4.3528203125e+003;4.3476923828e+003;4.3939741211e+003;4.3647436523e+003;4.3742309570e+003;4.3723076172e+003;4.3652563477e+003;
2.9765625000e+000;4.3907690430e+003;4.4175639648e+003;4.4034614258e+003;4.4074360352e+003;4.4165385742e+003;4.3753847656e+003;4.4014101563e+003;4.4039741211e+003;4.4015385742e+003;4.4446152344e+003;4.4130771484e+003;4.4217949219e+003;4.4229487305e+003;4.4138461914e+003;
2.9843750000e+000;4.4442309570e+003;4.4769228516e+003;4.4591025391e+003;4.4643588867e+003;4.4778203125e+003;4.4375639648e+003;4.4623076172e+003;4.4635898438e+003;4.4650000000e+003;4.5034614258e+003;4.4688461914e+003;4.4775639648e+003;4.4788461914e+003;4.4701284180e+003;
2.9921875000e+000;4.4865385742e+003;4.5261538086e+003;4.5057690430e+003;4.5116665039e+003;4.5287177734e+003;4.4908974609e+003;4.5129487305e+003;4.5134614258e+003;4.5166665039e+003;4.5532050781e+003;4.5151284180e+003;4.5243588867e+003;4.5234614258e+003;4.5162822266e+003;
3.0000000000e+000;4.5016665039e+003;4.5620512695e+003;4.5364101563e+003;4.5406411133e+003;4.5698715820e+003;4.5393588867e+003;4.5571796875e+003;4.5550000000e+003;4.5433334961e+003;4.5976923828e+003;4.5512822266e+003;4.5579487305e+003;4.5525639648e+003;4.5393588867e+003;
3.0078125000e+000;4.4983334961e+003;4.5592309570e+003;4.5351284180e+003;4.5370512695e+003;4.5700000000e+003;4.5391025391e+003;4.5570512695e+003;4.5512822266e+003;4.5408974609e+003;4.5903847656e+003;4.5478203125e+003;4.5548715820e+003;4.5489741211e+003;4.5360258789e+003;
3.0156250000e+000;4.5224360352e+003;4.5925639648e+003;4.5679487305e+003;4.5624360352e+003;4.6066665039e+003;4.5733334961e+003;4.5850000000e+003;4.5753847656e+003;4.5706411133e+003;4.6151284180e+003;4.5789741211e+003;4.5820512695e+003;4.5830771484e+003;4.5675639648e+003;
3.0234375000e+000;4.4857690430e+003;4.5596152344e+003;4.5346152344e+003;4.5284614258e+003;4.5712822266e+003;4.5414101563e+003;4.5488461914e+003;4.5420512695e+003;4.5348715820e+003;4.5853847656e+003;4.5492309570e+003;4.5502563477e+003;4.5535898438e+003;4.5346152344e+003;
3.0312500000e+000;4.3724360352e+003;4.4462822266e+003;4.4220512695e+003;4.4203847656e+003;4.4538461914e+003;4.4280771484e+003;4.4348715820e+003;4.4257690430e+003;4.4184614258e+003;4.4721796875e+003;4.4388461914e+003;4.4383334961e+003;4.4452563477e+003;4.4205126953e+003;
3.0390625000e+000;4.3512822266e+003;4.4174360352e+003;4.3993588867e+003;4.3951284180e+003;4.4153847656e+003;4.3852563477e+003;4.3983334961e+003;4.3946152344e+003;4.3883334961e+003;4.4355126953e+003;4.4050000000e+003;4.4146152344e+003;4.4129487305e+003;4.3960258789e+003;
3.0468750000e+000;4.3424360352e+003;4.4066665039e+003;4.3898715820e+003;4.3819228516e+003;4.4017949219e+003;4.3720512695e+003;4.3838461914e+003;4.3870512695e+003;4.3796152344e+003;4.4270512695e+003;4.3989741211e+003;4.4082050781e+003;4.4053847656e+003;4.3905126953e+003;
3.0546875000e+000;4.3334614258e+003;4.3967949219e+003;4.3794873047e+003;4.3703847656e+003;4.3920512695e+003;4.3605126953e+003;4.3715385742e+003;4.3807690430e+003;4.3760258789e+003;4.4220512695e+003;4.3966665039e+003;4.4005126953e+003;4.4008974609e+003;4.3843588867e+003;
3.0625000000e+000;4.3080771484e+003;4.3717949219e+003;4.3539741211e+003;4.3466665039e+003;4.3720512695e+003;4.3379487305e+003;4.3519228516e+003;4.3629487305e+003;4.3697436523e+003;4.4062822266e+003;4.3833334961e+003;4.3792309570e+003;4.3852563477e+003;4.3619228516e+003;
3.0703125000e+000;4.2635898438e+003;4.3219228516e+003;4.3096152344e+003;4.2998715820e+003;4.3185898438e+003;4.2933334961e+003;4.3125639648e+003;4.3166665039e+003;4.3201284180e+003;4.3462822266e+003;4.3212822266e+003;4.3348715820e+003;4.3269228516e+003;4.3134614258e+003;
3.0781250000e+000;4.2715385742e+003;4.3288461914e+003;4.3156411133e+003;4.3053847656e+003;4.3220512695e+003;4.2996152344e+003;4.3170512695e+003;4.3235898438e+003;4.3212822266e+003;4.3496152344e+003;4.3243588867e+003;4.3388461914e+003;4.3288461914e+003;4.3189741211e+003;
3.0859375000e+000;4.2805126953e+003;4.3373076172e+003;4.3234614258e+003;4.3139741211e+003;4.3292309570e+003;4.3098715820e+003;4.3251284180e+003;4.3324360352e+003;4.3252563477e+003;4.3570512695e+003;4.3319228516e+003;4.3438461914e+003;4.3350000000e+003;4.3265385742e+003;
3.0937500000e+000;4.2852563477e+003;4.3415385742e+003;4.3282050781e+003;4.3197436523e+003;4.3353847656e+003;4.3185898438e+003;4.3326923828e+003;4.3356411133e+003;4.3267949219e+003;4.3608974609e+003;4.3362822266e+003;4.3450000000e+003;4.3397436523e+003;4.3308974609e+003;
3.1015625000e+000;4.3042309570e+003;4.3653847656e+003;4.3501284180e+003;4.3424360352e+003;4.3656411133e+003;4.3462822266e+003;4.3573076172e+003;4.3461538086e+003;4.3435898438e+003;4.3735898438e+003;4.3464101563e+003;4.3608974609e+003;4.3601284180e+003;4.3579487305e+003;
3.1093750000e+000;4.2793588867e+003;4.3405126953e+003;4.3273076172e+003;4.3187177734e+003;4.3396152344e+003;4.3237177734e+003;4.3320512695e+003;4.3229487305e+003;4.3183334961e+003;4.3474360352e+003;4.3215385742e+003;4.3400000000e+003;4.3332050781e+003;4.3361538086e+003;
3.1171875000e+000;4.2188461914e+003;4.2724360352e+003;4.2657690430e+003;4.2550000000e+003;4.2743588867e+003;4.2629487305e+003;4.2706411133e+003;4.2507690430e+003;4.2478203125e+003;4.2775639648e+003;4.2615385742e+003;4.2767949219e+003;4.2682050781e+003;4.2761538086e+003;
3.1250000000e+000;4.2147436523e+003;4.2588461914e+003;4.2597436523e+003;4.2410258789e+003;4.2620512695e+003;4.2496152344e+003;4.2585898438e+003;4.2352563477e+003;4.2270512695e+003;4.2660258789e+003;4.2533334961e+003;4.2753847656e+003;4.2574360352e+003;4.2728203125e+003;
3.1328125000e+000;4.2105126953e+003;4.2547436523e+003;4.2561538086e+003;4.2356411133e+003;4.2569228516e+003;4.2460258789e+003;4.2552563477e+003;4.2319228516e+003;4.2179487305e+003;4.2610258789e+003;4.2476923828e+003;4.2719228516e+003;4.2524360352e+003;4.2687177734e+003;
3.1406250000e+000;4.1635898438e+003;4.2114101563e+003;4.2092309570e+003;4.1935898438e+003;4.2121796875e+003;4.1976923828e+003;4.2096152344e+003;4.1906411133e+003;4.1733334961e+003;4.2176923828e+003;4.2015385742e+003;4.2211538086e+003;4.2103847656e+003;4.2242309570e+003;
3.1484375000e+000;4.1876923828e+003;4.2215385742e+003;4.2238461914e+003;4.2050000000e+003;4.2242309570e+003;4.1985898438e+003;4.2084614258e+003;4.2038461914e+003;4.1948715820e+003;4.2323076172e+003;4.2193588867e+003;4.2380771484e+003;4.2224360352e+003;4.2430771484e+003;
3.1562500000e+000;4.2125639648e+003;4.2450000000e+003;4.2461538086e+003;4.2273076172e+003;4.2457690430e+003;4.2212822266e+003;4.2317949219e+003;4.2308974609e+003;4.2243588867e+003;4.2596152344e+003;4.2444873047e+003;4.2638461914e+003;4.2489741211e+003;4.2650000000e+003;
3.1640625000e+000;4.2198715820e+003;4.2619228516e+003;4.2532050781e+003;4.2388461914e+003;4.2565385742e+003;4.2344873047e+003;4.2473076172e+003;4.2544873047e+003;4.2474360352e+003;4.2796152344e+003;4.2607690430e+003;4.2725639648e+003;4.2665385742e+003;4.2742309570e+003;
3.1718750000e+000;4.2243588867e+003;4.2662822266e+003;4.2565385742e+003;4.2405126953e+003;4.2617949219e+003;4.2373076172e+003;4.2491025391e+003;4.2584614258e+003;4.2507690430e+003;4.2826923828e+003;4.2650000000e+003;4.2724360352e+003;4.2682050781e+003;4.2792309570e+003;
3.1796875000e+000;4.2223076172e+003;4.2606411133e+003;4.2533334961e+003;4.2348715820e+003;4.2585898438e+003;4.2347436523e+003;4.2441025391e+003;4.2533334961e+003;4.2467949219e+003;4.2770512695e+003;4.2601284180e+003;4.2667949219e+003;4.2611538086e+003;4.2771796875e+003;
3.1875000000e+000;4.1803847656e+003;4.2120512695e+003;4.2132050781e+003;4.1946152344e+003;4.2148715820e+003;4.2041025391e+003;4.2088461914e+003;4.2061538086e+003;4.2051284180e+003;4.2289741211e+003;4.2117949219e+003;4.2269228516e+003;4.2130771484e+003;4.2346152344e+003;
3.1953125000e+000;4.1470512695e+003;4.1861538086e+003;4.1794873047e+003;4.1684614258e+003;4.1926923828e+003;4.1898715820e+003;4.2007690430e+003;4.1865385742e+003;4.1825639648e+003;4.2039741211e+003;4.1880771484e+003;4.1998715820e+003;4.1903847656e+003;4.2028203125e+003;
3.2031250000e+000;4.1301284180e+003;4.1667949219e+003;4.1592309570e+003;4.1485898438e+003;4.1755126953e+003;4.1734614258e+003;4.1851284180e+003;4.1717949219e+003;4.1660258789e+003;4.1862822266e+003;4.1730771484e+003;4.1810258789e+003;4.1734614258e+003;4.1866665039e+003;
3.2109375000e+000;4.1082050781e+003;4.1393588867e+003;4.1339741211e+003;4.1230771484e+003;4.1498715820e+003;4.1501284180e+003;4.1606411133e+003;4.1461538086e+003;4.1415385742e+003;4.1582050781e+003;4.1487177734e+003;4.1551284180e+003;4.1478203125e+003;4.1639741211e+003;
3.2187500000e+000;4.0935898438e+003;4.1197436523e+003;4.1174360352e+003;4.1064101563e+003;4.1308974609e+003;4.1334614258e+003;4.1419228516e+003;4.1239741211e+003;4.1225639648e+003;4.1353847656e+003;4.1284614258e+003;4.1357690430e+003;4.1279487305e+003;4.1466665039e+003;
3.2265625000e+000;4.0552563477e+003;4.0693588867e+003;4.0784614258e+003;4.0637180176e+003;4.0814101563e+003;4.0905129395e+003;4.0961538086e+003;4.0689743652e+003;4.0578205566e+003;4.0851281738e+003;4.0750000000e+003;4.0867949219e+003;4.0770512695e+003;4.0988461914e+003;
3.2343750000e+000;4.0976923828e+003;4.1057690430e+003;4.1139741211e+003;4.0979487305e+003;4.1147436523e+003;4.1139741211e+003;4.1188461914e+003;4.0875642090e+003;4.0756411133e+003;4.1115385742e+003;4.1094873047e+003;4.1256411133e+003;4.1135898438e+003;4.1406411133e+003;
3.2421875000e+000;4.0997436523e+003;4.1102563477e+003;4.1192309570e+003;4.1032050781e+003;4.1174360352e+003;4.1144873047e+003;4.1200000000e+003;4.0906411133e+003;4.0775642090e+003;4.1147436523e+003;4.1091025391e+003;4.1314101563e+003;4.1161538086e+003;4.1435898438e+003;
3.2500000000e+000;4.1420512695e+003;4.1560258789e+003;4.1566665039e+003;4.1432050781e+003;4.1589741211e+003;4.1511538086e+003;4.1621796875e+003;4.1401284180e+003;4.1301284180e+003;4.1643588867e+003;4.1535898438e+003;4.1702563477e+003;4.1641025391e+003;4.1838461914e+003;
3.2578125000e+000;4.1937177734e+003;4.2115385742e+003;4.2102563477e+003;4.1953847656e+003;4.2102563477e+003;4.1987177734e+003;4.2105126953e+003;4.2076923828e+003;4.2083334961e+003;4.2273076172e+003;4.2210258789e+003;4.2312822266e+003;4.2225639648e+003;4.2443588867e+003;
3.2656250000e+000;4.1750000000e+003;4.1908974609e+003;4.1928203125e+003;4.1762822266e+003;4.1897436523e+003;4.1793588867e+003;4.1901284180e+003;4.1891025391e+003;4.1887177734e+003;4.2064101563e+003;4.2023076172e+003;4.2155126953e+003;4.2010258789e+003;4.2276923828e+003;
3.2734375000e+000;4.1396152344e+003;4.1544873047e+003;4.1561538086e+003;4.1398715820e+003;4.1537177734e+003;4.1462822266e+003;4.1562822266e+003;4.1566665039e+003;4.1579487305e+003;4.1737177734e+003;4.1679487305e+003;4.1792309570e+003;4.1687177734e+003;4.1933334961e+003;
3.2812500000e+000;4.1251284180e+003;4.1417949219e+003;4.1417949219e+003;4.1267949219e+003;4.1411538086e+003;4.1347436523e+003;4.1455126953e+003;4.1432050781e+003;4.1471796875e+003;4.1603847656e+003;4.1521796875e+003;4.1628203125e+003;4.1589741211e+003;4.1773076172e+003;
3.2890625000e+000;4.1176923828e+003;4.1414101563e+003;4.1367949219e+003;4.1255126953e+003;4.1360258789e+003;4.1365385742e+003;4.1438461914e+003;4.1301284180e+003;4.1355126953e+003;4.1453847656e+003;4.1397436523e+003;4.1512822266e+003;4.1556411133e+003;4.1633334961e+003;
3.2968750000e+000;4.1067949219e+003;4.1300000000e+003;4.1258974609e+003;4.1164101563e+003;4.1233334961e+003;4.1284614258e+003;4.1326923828e+003;4.1176923828e+003;4.1205126953e+003;4.1323076172e+003;4.1293588867e+003;4.1415385742e+003;4.1416665039e+003;4.1551284180e+003;
3.3046875000e+000;4.0857692871e+003;4.1066665039e+003;4.1037177734e+003;4.0970512695e+003;4.1008974609e+003;4.1089741211e+003;4.1110258789e+003;4.0947436523e+003;4.0947436523e+003;4.1088461914e+003;4.1067949219e+003;4.1214101563e+003;4.1161538086e+003;4.1375639648e+003;
3.3125000000e+000;4.0482050781e+003;4.0651281738e+003;4.0612819824e+003;4.0626923828e+003;4.0660256348e+003;4.0702563477e+003;4.0708974609e+003;4.0503845215e+003;4.0476923828e+003;4.0652563477e+003;4.0584614258e+003;4.0780769043e+003;4.0703845215e+003;4.0975639648e+003;
3.3203125000e+000;4.0008974609e+003;4.0124357910e+003;4.0129487305e+003;4.0164101563e+003;4.0220512695e+003;4.0261538086e+003;4.0256411133e+003;3.9962819824e+003;3.9900000000e+003;4.0052563477e+003;4.0039743652e+003;4.0191025391e+003;4.0173076172e+003;4.0350000000e+003;
3.3281250000e+000;3.9875642090e+003;3.9944870605e+003;3.9979487305e+003;4.0007692871e+003;4.0057692871e+003;4.0125642090e+003;4.0117949219e+003;3.9780769043e+003;3.9706411133e+003;3.9858974609e+003;3.9888461914e+003;4.0014101563e+003;4.0002563477e+003;4.0189743652e+003;
3.3359375000e+000;3.9841025391e+003;3.9870512695e+003;3.9906411133e+003;3.9947436523e+003;3.9989743652e+003;4.0066667480e+003;4.0053845215e+003;3.9691025391e+003;3.9619230957e+003;3.9785898438e+003;3.9832050781e+003;3.9938461914e+003;3.9934614258e+003;4.0139743652e+003;
3.3437500000e+000;3.9814101563e+003;3.9825642090e+003;3.9841025391e+003;3.9911538086e+003;3.9933332520e+003;4.0006411133e+003;3.9988461914e+003;3.9634614258e+003;3.9570512695e+003;3.9760256348e+003;3.9798718262e+003;3.9901281738e+003;3.9898718262e+003;4.0114101563e+003;
3.3515625000e+000;3.9328205566e+003;3.9243588867e+003;3.9326923828e+003;3.9411538086e+003;3.9243588867e+003;3.9355129395e+003;3.9403845215e+003;3.9178205566e+003;3.9064101563e+003;3.9278205566e+003;3.9319230957e+003;3.9389743652e+003;3.9433332520e+003;3.9602563477e+003;
3.3593750000e+000;3.9562819824e+003;3.9451281738e+003;3.9538461914e+003;3.9614101563e+003;3.9456411133e+003;3.9553845215e+003;3.9597436523e+003;3.9414101563e+003;3.9288461914e+003;3.9502563477e+003;3.9516667480e+003;3.9593588867e+003;3.9634614258e+003;3.9817949219e+003;
3.3671875000e+000;3.9443588867e+003;3.9333332520e+003;3.9430769043e+003;3.9476923828e+003;3.9343588867e+003;3.9461538086e+003;3.9480769043e+003;3.9397436523e+003;3.9314101563e+003;3.9412819824e+003;3.9412819824e+003;3.9591025391e+003;3.9441025391e+003;3.9756411133e+003;
3.3750000000e+000;3.9023076172e+003;3.8829487305e+003;3.8946154785e+003;3.9038461914e+003;3.8878205566e+003;3.9020512695e+003;3.9108974609e+003;3.8984614258e+003;3.9035898438e+003;3.9001281738e+003;3.9033332520e+003;3.9121794434e+003;3.9100000000e+003;3.9314101563e+003;
3.3828125000e+000;3.9110256348e+003;3.8870512695e+003;3.8989743652e+003;3.9115385742e+003;3.8948718262e+003;3.9094870605e+003;3.9175642090e+003;3.9026923828e+003;3.9094870605e+003;3.9051281738e+003;3.9057692871e+003;3.9153845215e+003;3.9173076172e+003;3.9365385742e+003;
3.3906250000e+000;3.9926923828e+003;3.9761538086e+003;3.9770512695e+003;3.9938461914e+003;3.9839743652e+003;3.9941025391e+003;3.9939743652e+003;3.9802563477e+003;3.9815385742e+003;3.9866667480e+003;3.9821794434e+003;3.9923076172e+003;3.9911538086e+003;4.0110256348e+003;
3.3984375000e+000;4.0276923828e+003;4.0132050781e+003;4.0117949219e+003;4.0300000000e+003;4.0283332520e+003;4.0400000000e+003;4.0411538086e+003;4.0232050781e+003;4.0242307129e+003;4.0328205566e+003;4.0214101563e+003;4.0257692871e+003;4.0271794434e+003;4.0467949219e+003;
3.4062500000e+000;4.0297436523e+003;4.0134614258e+003;4.0142307129e+003;4.0334614258e+003;4.0332050781e+003;4.0457692871e+003;4.0473076172e+003;4.0267949219e+003;4.0278205566e+003;4.0352563477e+003;4.0198718262e+003;4.0237180176e+003;4.0303845215e+003;4.0484614258e+003;
3.4140625000e+000;4.0324357910e+003;4.0167949219e+003;4.0180769043e+003;4.0382050781e+003;4.0384614258e+003;4.0511538086e+003;4.0519230957e+003;4.0316667480e+003;4.0320512695e+003;4.0391025391e+003;4.0200000000e+003;4.0235898438e+003;4.0337180176e+003;4.0506411133e+003;
3.4218750000e+000;4.0089743652e+003;3.9992307129e+003;3.9988461914e+003;4.0206411133e+003;4.0164101563e+003;4.0323076172e+003;4.0270512695e+003;4.0108974609e+003;4.0117949219e+003;4.0173076172e+003;3.9997436523e+003;4.0020512695e+003;4.0101281738e+003;4.0274357910e+003;
3.4296875000e+000;3.9880769043e+003;3.9796154785e+003;3.9784614258e+003;4.0012819824e+003;3.9933332520e+003;4.0119230957e+003;4.0033332520e+003;3.9870512695e+003;3.9891025391e+003;3.9932050781e+003;3.9811538086e+003;3.9825642090e+003;3.9885898438e+003;4.0065385742e+003;
