Time (s),AF3,F7,F3,FC5,T7,P7,O1,O2,P8,T8,FC6,F4,F8,AF4,Sampling Rate
0.0000000000e+000,4.0993588867e+003,4.1450000000e+003,4.1570512695e+003,4.2066665039e+003,3.9271794434e+003,4.1410258789e+003,4.1424360352e+003,4.1357690430e+003,4.1401284180e+003,4.2179487305e+003,4.1428203125e+003,4.1439741211e+003,4.1243588867e+003,4.1605126953e+003,128
7.8125000000e-003,4.0906411133e+003,4.1321796875e+003,4.1460258789e+003,4.1965385742e+003,3.9108974609e+003,4.1369228516e+003,4.1343588867e+003,4.1242309570e+003,4.1287177734e+003,4.2073076172e+003,4.1415385742e+003,4.1346152344e+003,4.1123076172e+003,4.1525639648e+003,
1.5625000000e-002,4.0919230957e+003,4.1442309570e+003,4.1333334961e+003,4.1808974609e+003,3.9341025391e+003,4.1361538086e+003,4.1305126953e+003,4.1225639648e+003,4.1317949219e+003,4.2270512695e+003,4.1228203125e+003,4.1324360352e+003,4.1144873047e+003,4.1507690430e+003,
2.3437500000e-002,4.0925642090e+003,4.1442309570e+003,4.1316665039e+003,4.1783334961e+003,3.9333332520e+003,4.1269228516e+003,4.1262822266e+003,4.1193588867e+003,4.1297436523e+003,4.2211538086e+003,4.1114101563e+003,4.1285898438e+003,4.1162822266e+003,4.1482050781e+003,
3.1250000000e-002,4.0984614258e+003,4.1375639648e+003,4.1357690430e+003,4.1898715820e+003,3.9184614258e+003,4.1169228516e+003,4.1228203125e+003,4.1165385742e+003,4.1257690430e+003,4.1993588867e+003,4.1179487305e+003,4.1256411133e+003,4.1229487305e+003,4.1492309570e+003,
3.9062500000e-002,4.0976923828e+003,4.1293588867e+003,4.1351284180e+003,4.1939741211e+003,3.9060256348e+003,4.1151284180e+003,4.1203847656e+003,4.1137177734e+003,4.1216665039e+003,4.1921796875e+003,4.1233334961e+003,4.1255126953e+003,4.1200000000e+003,4.1483334961e+003,
4.6875000000e-002,4.1053847656e+003,4.1264101563e+003,4.1396152344e+003,4.1939741211e+003,3.9008974609e+003,4.1242309570e+003,4.1247436523e+003,4.1143588867e+003,4.1226923828e+003,4.2121796875e+003,4.1192309570e+003,4.1344873047e+003,4.1133334961e+003,4.1519228516e+003,
5.4687500000e-002,4.1182050781e+003,4.1387177734e+003,4.1496152344e+003,4.2037177734e+003,3.9188461914e+003,4.1334614258e+003,4.1339741211e+003,4.1238461914e+003,4.1329487305e+003,4.2219228516e+003,4.1310258789e+003,4.1424360352e+003,4.1256411133e+003,4.1620512695e+003,
6.2500000000e-002,4.1247436523e+003,4.1451284180e+003,4.1538461914e+003,4.2116665039e+003,3.9319230957e+003,4.1360258789e+003,4.1379487305e+003,4.1282050781e+003,4.1376923828e+003,4.2208974609e+003,4.1434614258e+003,4.1455126953e+003,4.1346152344e+003,4.1675639648e+003,
7.0312500000e-002,4.1224360352e+003,4.1430771484e+003,4.1503847656e+003,4.2134614258e+003,3.9348718262e+003,4.1308974609e+003,4.1353847656e+003,4.1255126953e+003,4.1352563477e+003,4.2120512695e+003,4.1488461914e+003,4.1429487305e+003,4.1347436523e+003,4.1665385742e+003,
7.8125000000e-002,4.0625642090e+003,4.0751281738e+003,4.0937180176e+003,4.1519228516e+003,3.8806411133e+003,4.0793588867e+003,4.0820512695e+003,4.0758974609e+003,4.0867949219e+003,4.1606411133e+003,4.0806411133e+003,4.0894870605e+003,4.0650000000e+003,4.1117949219e+003,
8.5937500000e-002,3.9951281738e+003,3.9991025391e+003,4.0287180176e+003,4.0825642090e+003,3.8189743652e+003,4.0134614258e+003,4.0148718262e+003,4.0105129395e+003,4.0201281738e+003,4.0832050781e+003,4.0119230957e+003,4.0221794434e+003,3.9967949219e+003,4.0444870605e+003,
9.3750000000e-002,3.7494870605e+003,3.7325642090e+003,3.7775642090e+003,3.8192307129e+003,3.5628205566e+003,3.7537180176e+003,3.7656411133e+003,3.7602563477e+003,3.7739743652e+003,3.8143588867e+003,3.7442307129e+003,3.7719230957e+003,3.7451281738e+003,3.7938461914e+003,
1.0156250000e-001,3.6179487305e+003,3.5844870605e+003,3.6366667480e+003,3.6842307129e+003,3.3844870605e+003,3.6194870605e+003,3.6398718262e+003,3.6307692871e+003,3.6538461914e+003,3.6948718262e+003,3.5979487305e+003,3.6389743652e+003,3.6055129395e+003,3.6594870605e+003,
1.0937500000e-001,3.5524357910e+003,3.5028205566e+003,3.5589743652e+003,3.6020512695e+003,3.3548718262e+003,3.5432050781e+003,3.5726923828e+003,3.5592307129e+003,3.5842307129e+003,3.5911538086e+003,3.5225642090e+003,3.5605129395e+003,3.5280769043e+003,3.5741025391e+003,
1.1718750000e-001,3.5442307129e+003,3.4898718262e+003,3.5492307129e+003,3.5853845215e+003,3.3447436523e+003,3.5324357910e+003,3.5629487305e+003,3.5512819824e+003,3.5739743652e+003,3.5816667480e+003,3.5071794434e+003,3.5515385742e+003,3.5158974609e+003,3.5625642090e+003,
1.2500000000e-001,3.4770512695e+003,3.4143588867e+003,3.4758974609e+003,3.5143588867e+003,3.2450000000e+003,3.4625642090e+003,3.4903845215e+003,3.4803845215e+003,3.5042307129e+003,3.5076923828e+003,3.4355129395e+003,3.4782050781e+003,3.4470512695e+003,3.4893588867e+003,
1.3281250000e-001,3.4333332520e+003,3.3670512695e+003,3.4276923828e+003,3.4714101563e+003,3.1862819824e+003,3.4165385742e+003,3.4446154785e+003,3.4310256348e+003,3.4578205566e+003,3.4555129395e+003,3.3896154785e+003,3.4285898438e+003,3.4008974609e+003,3.4398718262e+003,
1.4062500000e-001,3.4632050781e+003,3.3753845215e+003,3.4411538086e+003,3.4834614258e+003,3.2251281738e+003,3.4278205566e+003,3.4651281738e+003,3.4380769043e+003,3.4656411133e+003,3.4662819824e+003,3.3902563477e+003,3.4407692871e+003,3.4057692871e+003,3.4491025391e+003,
1.4843750000e-001,3.5037180176e+003,3.4079487305e+003,3.4743588867e+003,3.5179487305e+003,3.2639743652e+003,3.4611538086e+003,3.4965385742e+003,3.4710256348e+003,3.4978205566e+003,3.5039743652e+003,3.4229487305e+003,3.4757692871e+003,3.4415385742e+003,3.4830769043e+003,
1.5625000000e-001,3.5134614258e+003,3.4129487305e+003,3.4766667480e+003,3.5267949219e+003,3.2508974609e+003,3.4632050781e+003,3.4903845215e+003,3.4685898438e+003,3.4964101563e+003,3.5033332520e+003,3.4329487305e+003,3.4801281738e+003,3.4505129395e+003,3.4832050781e+003,
1.6406250000e-001,3.4984614258e+003,3.4010256348e+003,3.4621794434e+003,3.5133332520e+003,3.2333332520e+003,3.4478205566e+003,3.4735898438e+003,3.4497436523e+003,3.4783332520e+003,3.4823076172e+003,3.4205129395e+003,3.4655129395e+003,3.4357692871e+003,3.4662819824e+003,
1.7187500000e-001,3.5820512695e+003,3.4884614258e+003,3.5366667480e+003,3.5952563477e+003,3.3552563477e+003,3.5244870605e+003,3.5501281738e+003,3.5237180176e+003,3.5538461914e+003,3.5641025391e+003,3.4961538086e+003,3.5458974609e+003,3.5167949219e+003,3.5493588867e+003,
1.7968750000e-001,3.6256411133e+003,3.5276923828e+003,3.5746154785e+003,3.6379487305e+003,3.3996154785e+003,3.5597436523e+003,3.5838461914e+003,3.5597436523e+003,3.5896154785e+003,3.6069230957e+003,3.5341025391e+003,3.5850000000e+003,3.5567949219e+003,3.5892307129e+003,
1.8750000000e-001,3.6502563477e+003,3.5480769043e+003,3.5955129395e+003,3.6628205566e+003,3.4152563477e+003,3.5764101563e+003,3.5984614258e+003,3.5761538086e+003,3.6046154785e+003,3.6270512695e+003,3.5551281738e+003,3.6050000000e+003,3.5764101563e+003,3.6078205566e+003,
1.9531250000e-001,3.6592307129e+003,3.5561538086e+003,3.6023076172e+003,3.6729487305e+003,3.4130769043e+003,3.5816667480e+003,3.6012819824e+003,3.5797436523e+003,3.6057692871e+003,3.6293588867e+003,3.5639743652e+003,3.6103845215e+003,3.5805129395e+003,3.6107692871e+003,
2.0312500000e-001,3.7115385742e+003,3.6202563477e+003,3.6526923828e+003,3.7202563477e+003,3.4893588867e+003,3.6505129395e+003,3.6656411133e+003,3.6432050781e+003,3.6683332520e+003,3.6924357910e+003,3.6183332520e+003,3.6642307129e+003,3.6379487305e+003,3.6662819824e+003,
2.1093750000e-001,3.7291025391e+003,3.6383332520e+003,3.6702563477e+003,3.7378205566e+003,3.5115385742e+003,3.6694870605e+003,3.6825642090e+003,3.6610256348e+003,3.6874357910e+003,3.7182050781e+003,3.6346154785e+003,3.6814101563e+003,3.6593588867e+003,3.6839743652e+003,
2.1875000000e-001,3.7198718262e+003,3.6312819824e+003,3.6611538086e+003,3.7479487305e+003,3.4829487305e+003,3.6620512695e+003,3.6728205566e+003,3.6576923828e+003,3.6792307129e+003,3.7061538086e+003,3.6441025391e+003,3.6730769043e+003,3.6525642090e+003,3.6720512695e+003,
2.2656250000e-001,3.7761538086e+003,3.6883332520e+003,3.7156411133e+003,3.8001281738e+003,3.5667949219e+003,3.7165385742e+003,3.7332050781e+003,3.7143588867e+003,3.7379487305e+003,3.7666667480e+003,3.6947436523e+003,3.7271794434e+003,3.7003845215e+003,3.7262819824e+003,
2.3437500000e-001,3.8135898438e+003,3.7308974609e+003,3.7532050781e+003,3.8330769043e+003,3.6082050781e+003,3.7562819824e+003,3.7693588867e+003,3.7533332520e+003,3.7774357910e+003,3.8123076172e+003,3.7300000000e+003,3.7658974609e+003,3.7382050781e+003,3.7635898438e+003,
2.4218750000e-001,3.8530769043e+003,3.7746154785e+003,3.7944870605e+003,3.8865385742e+003,3.6548718262e+003,3.8061538086e+003,3.8114101563e+003,3.8028205566e+003,3.8223076172e+003,3.8479487305e+003,3.7806411133e+003,3.8134614258e+003,3.7843588867e+003,3.8030769043e+003,
2.5000000000e-001,3.8679487305e+003,3.7898718262e+003,3.8083332520e+003,3.9046154785e+003,3.6810256348e+003,3.8214101563e+003,3.8262819824e+003,3.8189743652e+003,3.8376923828e+003,3.8603845215e+003,3.8038461914e+003,3.8280769043e+003,3.8026923828e+003,3.8166667480e+003,
2.5781250000e-001,3.8787180176e+003,3.8011538086e+003,3.8202563477e+003,3.9096154785e+003,3.6970512695e+003,3.8285898438e+003,3.8330769043e+003,3.8269230957e+003,3.8469230957e+003,3.8782050781e+003,3.8248718262e+003,3.8376923828e+003,3.8175642090e+003,3.8257692871e+003,
2.6562500000e-001,3.8788461914e+003,3.8000000000e+003,3.8230769043e+003,3.9069230957e+003,3.6882050781e+003,3.8260256348e+003,3.8314101563e+003,3.8225642090e+003,3.8441025391e+003,3.8802563477e+003,3.8208974609e+003,3.8373076172e+003,3.8169230957e+003,3.8266667480e+003,
2.7343750000e-001,3.9834614258e+003,3.9116667480e+003,3.9311538086e+003,4.0174357910e+003,3.7998718262e+003,3.9266667480e+003,3.9358974609e+003,3.9260256348e+003,3.9455129395e+003,3.9833332520e+003,3.9211538086e+003,3.9450000000e+003,3.9276923828e+003,3.9396154785e+003,
2.8125000000e-001,3.9647436523e+003,3.8993588867e+003,3.9158974609e+003,4.0016667480e+003,3.7951281738e+003,3.9141025391e+003,3.9202563477e+003,3.9158974609e+003,3.9326923828e+003,3.9701281738e+003,3.9124357910e+003,3.9346154785e+003,3.9137180176e+003,3.9257692871e+003,
2.8906250000e-001,3.8752563477e+003,3.8141025391e+003,3.8319230957e+003,3.9138461914e+003,3.7147436523e+003,3.8346154785e+003,3.8362819824e+003,3.8353845215e+003,3.8505129395e+003,3.8860256348e+003,3.8293588867e+003,3.8539743652e+003,3.8251281738e+003,3.8415385742e+003,
2.9687500000e-001,3.7524357910e+003,3.6905129395e+003,3.7138461914e+003,3.7912819824e+003,3.5924357910e+003,3.7210256348e+003,3.7205129395e+003,3.7167949219e+003,3.7330769043e+003,3.7646154785e+003,3.7037180176e+003,3.7344870605e+003,3.6979487305e+003,3.7212819824e+003,
3.0468750000e-001,3.8676923828e+003,3.7938461914e+003,3.8202563477e+003,3.9100000000e+003,3.6573076172e+003,3.8217949219e+003,3.8382050781e+003,3.8115385742e+003,3.8348718262e+003,3.8547436523e+003,3.7932050781e+003,3.8220512695e+003,3.8038461914e+003,3.8185898438e+003,
3.1250000000e-001,3.9843588867e+003,3.9255129395e+003,3.9352563477e+003,4.0176923828e+003,3.8398718262e+003,3.9423076172e+003,3.9493588867e+003,3.9385898438e+003,3.9464101563e+003,3.9888461914e+003,3.9337180176e+003,3.9501281738e+003,3.9265385742e+003,3.9411538086e+003,
3.2031250000e-001,3.9814101563e+003,3.9276923828e+003,3.9356411133e+003,4.0160256348e+003,3.8596154785e+003,3.9456411133e+003,3.9546154785e+003,3.9382050781e+003,3.9474357910e+003,3.9888461914e+003,3.9332050781e+003,3.9517949219e+003,3.9261538086e+003,3.9434614258e+003,
3.2812500000e-001,4.0974360352e+003,4.0587180176e+003,4.0515385742e+003,4.1298715820e+003,3.9676923828e+003,4.0656411133e+003,4.0730769043e+003,4.0547436523e+003,4.0651281738e+003,4.1083334961e+003,4.0516667480e+003,4.0697436523e+003,4.0482050781e+003,4.0607692871e+003,
3.3593750000e-001,4.2433334961e+003,4.2144873047e+003,4.2084614258e+003,4.2880771484e+003,4.1265385742e+003,4.2260258789e+003,4.2206411133e+003,4.2162822266e+003,4.2234614258e+003,4.2891025391e+003,4.2241025391e+003,4.2316665039e+003,4.2155126953e+003,4.2188461914e+003,
3.4375000000e-001,4.2098715820e+003,4.1794873047e+003,4.1811538086e+003,4.2588461914e+003,4.1002563477e+003,4.1992309570e+003,4.1944873047e+003,4.1883334961e+003,4.1974360352e+003,4.2543588867e+003,4.2051284180e+003,4.2070512695e+003,4.1894873047e+003,4.1901284180e+003,
3.5156250000e-001,4.1882050781e+003,4.1652563477e+003,4.1611538086e+003,4.2342309570e+003,4.0646154785e+003,4.1811538086e+003,4.1732050781e+003,4.1662822266e+003,4.1769228516e+003,4.2224360352e+003,4.1893588867e+003,4.1860258789e+003,4.1720512695e+003,4.1671796875e+003,
3.5937500000e-001,4.2210258789e+003,4.2094873047e+003,4.1925639648e+003,4.2633334961e+003,4.0920512695e+003,4.2094873047e+003,4.2000000000e+003,4.1935898438e+003,4.2033334961e+003,4.2538461914e+003,4.2130771484e+003,4.2129487305e+003,4.2017949219e+003,4.1980771484e+003,
3.6718750000e-001,4.3428203125e+003,4.3588461914e+003,4.3121796875e+003,4.3939741211e+003,4.2215385742e+003,4.3124360352e+003,4.3029487305e+003,4.2992309570e+003,4.3098715820e+003,4.3788461914e+003,4.3234614258e+003,4.3283334961e+003,4.3164101563e+003,4.3148715820e+003,
3.7500000000e-001,4.3420512695e+003,4.3561538086e+003,4.3121796875e+003,4.3978203125e+003,4.2117949219e+003,4.3103847656e+003,4.2998715820e+003,4.2988461914e+003,4.3079487305e+003,4.3751284180e+003,4.3248715820e+003,4.3305126953e+003,4.3130771484e+003,4.3112822266e+003,
3.8281250000e-001,4.3223076172e+003,4.3291025391e+003,4.3008974609e+003,4.3729487305e+003,4.1747436523e+003,4.2955126953e+003,4.2830771484e+003,4.2828203125e+003,4.2842309570e+003,4.3491025391e+003,4.3028203125e+003,4.3130771484e+003,4.2855126953e+003,4.2894873047e+003,
3.9062500000e-001,4.3333334961e+003,4.3417949219e+003,4.3179487305e+003,4.3800000000e+003,4.1973076172e+003,4.3111538086e+003,4.2975639648e+003,4.2951284180e+003,4.2944873047e+003,4.3610258789e+003,4.3155126953e+003,4.3239741211e+003,4.2958974609e+003,4.3030771484e+003,
3.9843750000e-001,4.3869228516e+003,4.4237177734e+003,4.3787177734e+003,4.4529487305e+003,4.3337177734e+003,4.3833334961e+003,4.3674360352e+003,4.3680771484e+003,4.3687177734e+003,4.4380771484e+003,4.3984614258e+003,4.3928203125e+003,4.3687177734e+003,4.3729487305e+003,
4.0625000000e-001,4.3897436523e+003,4.4358974609e+003,4.3817949219e+003,4.4615385742e+003,4.3423076172e+003,4.3907690430e+003,4.3764101563e+003,4.3810258789e+003,4.3806411133e+003,4.4494873047e+003,4.4061538086e+003,4.4024360352e+003,4.3791025391e+003,4.3811538086e+003,
4.1406250000e-001,4.3908974609e+003,4.4432050781e+003,4.3848715820e+003,4.4620512695e+003,4.3358974609e+003,4.3948715820e+003,4.3826923828e+003,4.3907690430e+003,4.3883334961e+003,4.4562822266e+003,4.4076923828e+003,4.4079487305e+003,4.3864101563e+003,4.3860258789e+003,
4.2187500000e-001,4.3917949219e+003,4.4471796875e+003,4.3900000000e+003,4.4592309570e+003,4.3282050781e+003,4.3992309570e+003,4.3884614258e+003,4.3985898438e+003,4.3934614258e+003,4.4601284180e+003,4.4089741211e+003,4.4111538086e+003,4.3917949219e+003,4.3888461914e+003,
4.2968750000e-001,4.4134614258e+003,4.4815385742e+003,4.4194873047e+003,4.4851284180e+003,4.3715385742e+003,4.4450000000e+003,4.4243588867e+003,4.4300000000e+003,4.4246152344e+003,4.4896152344e+003,4.4448715820e+003,4.4408974609e+003,4.4211538086e+003,4.4135898438e+003,
4.3750000000e-001,4.4373076172e+003,4.5079487305e+003,4.4429487305e+003,4.5041025391e+003,4.3952563477e+003,4.4669228516e+003,4.4452563477e+003,4.4523076172e+003,4.4498715820e+003,4.5147436523e+003,4.4662822266e+003,4.4630771484e+003,4.4460258789e+003,4.4389741211e+003,
4.4531250000e-001,4.5384614258e+003,4.6046152344e+003,4.5558974609e+003,4.6088461914e+003,4.4891025391e+003,4.5655126953e+003,4.5474360352e+003,4.5523076172e+003,4.5435898438e+003,4.6110258789e+003,4.5664101563e+003,4.5596152344e+003,4.5452563477e+003,4.5396152344e+003,
4.5312500000e-001,4.8024360352e+003,4.9075639648e+003,4.8206411133e+003,4.8961538086e+003,4.7614101563e+003,4.8458974609e+003,4.8185898438e+003,4.8265385742e+003,4.8097436523e+003,4.9062822266e+003,4.8669228516e+003,4.8371796875e+003,4.8335898438e+003,4.8128203125e+003,
4.6093750000e-001,4.8830771484e+003,5.0037177734e+003,4.9188461914e+003,4.9588461914e+003,4.9010258789e+003,4.9355126953e+003,4.9044873047e+003,4.9323076172e+003,4.9050000000e+003,5.0024360352e+003,4.9758974609e+003,4.9402563477e+003,4.9391025391e+003,4.9158974609e+003,
4.6875000000e-001,4.8794873047e+003,5.0003847656e+003,4.9216665039e+003,4.9619228516e+003,4.9079487305e+003,4.9383334961e+003,4.9073076172e+003,4.9346152344e+003,4.9056411133e+003,5.0025639648e+003,4.9784614258e+003,4.9425639648e+003,4.9405126953e+003,4.9162822266e+003,
4.7656250000e-001,4.8424360352e+003,4.9710258789e+003,4.8960258789e+003,4.9350000000e+003,4.9051284180e+003,4.9114101563e+003,4.8837177734e+003,4.9070512695e+003,4.8834614258e+003,4.9801284180e+003,4.9460258789e+003,4.9157690430e+003,4.9117949219e+003,4.8902563477e+003,
4.8437500000e-001,4.8193588867e+003,4.9535898438e+003,4.8773076172e+003,4.9146152344e+003,4.9051284180e+003,4.8915385742e+003,4.8655126953e+003,4.8862822266e+003,4.8662822266e+003,4.9617949219e+003,4.9219228516e+003,4.8947436523e+003,4.8896152344e+003,4.8717949219e+003,
4.9218750000e-001,4.8205126953e+003,4.9728203125e+003,4.8883334961e+003,4.9269228516e+003,4.9274360352e+003,4.9064101563e+003,4.8784614258e+003,4.8950000000e+003,4.8708974609e+003,4.9729487305e+003,4.9397436523e+003,4.9073076172e+003,4.8929487305e+003,4.8843588867e+003,
5.0000000000e-001,4.8216665039e+003,4.9779487305e+003,4.8941025391e+003,4.9325639648e+003,4.9133334961e+003,4.9101284180e+003,4.8834614258e+003,4.8994873047e+003,4.8719228516e+003,4.9771796875e+003,4.9510258789e+003,4.9165385742e+003,4.8978203125e+003,4.8908974609e+003,
5.0781250000e-001,4.8097436523e+003,4.9688461914e+003,4.8902563477e+003,4.9282050781e+003,4.8801284180e+003,4.8911538086e+003,4.8738461914e+003,4.8888461914e+003,4.8606411133e+003,4.9639741211e+003,4.9458974609e+003,4.9108974609e+003,4.8935898438e+003,4.8852563477e+003,
5.1562500000e-001,4.8092309570e+003,4.9673076172e+003,4.8926923828e+003,4.9302563477e+003,4.8848715820e+003,4.8873076172e+003,4.8729487305e+003,4.8879487305e+003,4.8608974609e+003,4.9603847656e+003,4.9414101563e+003,4.9085898438e+003,4.8955126953e+003,4.8844873047e+003,
5.2343750000e-001,4.8408974609e+003,4.9970512695e+003,4.9326923828e+003,4.9528203125e+003,4.9553847656e+003,4.9388461914e+003,4.9123076172e+003,4.9271796875e+003,4.8989741211e+003,4.9935898438e+003,4.9703847656e+003,4.9458974609e+003,4.9338461914e+003,4.9214101563e+003,
5.3125000000e-001,4.8428203125e+003,5.0025639648e+003,4.9344873047e+003,4.9506411133e+003,4.9571796875e+003,4.9471796875e+003,4.9171796875e+003,4.9338461914e+003,4.9060258789e+003,5.0015385742e+003,4.9801284180e+003,4.9535898438e+003,4.9415385742e+003,4.9307690430e+003,
5.3906250000e-001,4.8244873047e+003,4.9874360352e+003,4.9160258789e+003,4.9328203125e+003,4.9298715820e+003,4.9294873047e+003,4.9006411133e+003,4.9203847656e+003,4.8933334961e+003,4.9884614258e+003,4.9700000000e+003,4.9411538086e+003,4.9285898438e+003,4.9208974609e+003,
5.4687500000e-001,4.7833334961e+003,4.9461538086e+003,4.8775639648e+003,4.8957690430e+003,4.8788461914e+003,4.8850000000e+003,4.8611538086e+003,4.8837177734e+003,4.8573076172e+003,4.9494873047e+003,4.9338461914e+003,4.9058974609e+003,4.8897436523e+003,4.8867949219e+003,
5.5468750000e-001,4.6234614258e+003,4.7766665039e+003,4.7344873047e+003,4.7314101563e+003,4.7480771484e+003,4.7310258789e+003,4.7179487305e+003,4.7365385742e+003,4.7142309570e+003,4.7978203125e+003,4.7739741211e+003,4.7465385742e+003,4.7292309570e+003,4.7308974609e+003,
5.6250000000e-001,4.6097436523e+003,4.7669228516e+003,4.7194873047e+003,4.7221796875e+003,4.7326923828e+003,4.7233334961e+003,4.7069228516e+003,4.7243588867e+003,4.7041025391e+003,4.7850000000e+003,4.7647436523e+003,4.7314101563e+003,4.7215385742e+003,4.7191025391e+003,
5.7031250000e-001,4.6016665039e+003,4.7607690430e+003,4.7102563477e+003,4.7438461914e+003,4.7050000000e+003,4.7039741211e+003,4.6891025391e+003,4.7083334961e+003,4.6880771484e+003,4.7501284180e+003,4.7521796875e+003,4.7246152344e+003,4.7065385742e+003,4.7128203125e+003,
5.7812500000e-001,4.6232050781e+003,4.7846152344e+003,4.7246152344e+003,4.7671796875e+003,4.6848715820e+003,4.7152563477e+003,4.7038461914e+003,4.7247436523e+003,4.7033334961e+003,4.7694873047e+003,4.7629487305e+003,4.7373076172e+003,4.7217949219e+003,4.7255126953e+003,
5.8593750000e-001,4.6296152344e+003,4.7896152344e+003,4.7301284180e+003,4.7687177734e+003,4.6862822266e+003,4.7229487305e+003,4.7102563477e+003,4.7296152344e+003,4.7084614258e+003,4.7766665039e+003,4.7657690430e+003,4.7408974609e+003,4.7343588867e+003,4.7326923828e+003,
5.9375000000e-001,4.6646152344e+003,4.8182050781e+003,4.7630771484e+003,4.7976923828e+003,4.7791025391e+003,4.7648715820e+003,4.7455126953e+003,4.7637177734e+003,4.7438461914e+003,4.8139741211e+003,4.7992309570e+003,4.7756411133e+003,4.7687177734e+003,4.7747436523e+003,
6.0156250000e-001,4.6735898438e+003,4.8370512695e+003,4.7735898438e+003,4.8106411133e+003,4.7956411133e+003,4.7834614258e+003,4.7687177734e+003,4.7855126953e+003,4.7665385742e+003,4.8312822266e+003,4.8156411133e+003,4.7815385742e+003,4.7751284180e+003,4.7769228516e+003,
6.0937500000e-001,4.7014101563e+003,4.8653847656e+003,4.8016665039e+003,4.8397436523e+003,4.8598715820e+003,4.8153847656e+003,4.8000000000e+003,4.8146152344e+003,4.7955126953e+003,4.8582050781e+003,4.8417949219e+003,4.8043588867e+003,4.8038461914e+003,4.8002563477e+003,
6.1718750000e-001,4.7441025391e+003,4.9067949219e+003,4.8441025391e+003,4.8811538086e+003,4.9612822266e+003,4.8597436523e+003,4.8423076172e+003,4.8547436523e+003,4.8350000000e+003,4.8992309570e+003,4.8842309570e+003,4.8439741211e+003,4.8456411133e+003,4.8401284180e+003,
6.2500000000e-001,4.8217949219e+003,4.9807690430e+003,4.9183334961e+003,4.9464101563e+003,5.1342309570e+003,4.9260258789e+003,4.9051284180e+003,4.9175639648e+003,4.8960258789e+003,4.9714101563e+003,4.9682050781e+003,4.9217949219e+003,4.9205126953e+003,4.9178203125e+003,
6.3281250000e-001,4.7510258789e+003,4.9150000000e+003,4.8553847656e+003,4.8784614258e+003,5.0379487305e+003,4.8532050781e+003,4.8280771484e+003,4.8469228516e+003,4.8221796875e+003,4.9003847656e+003,4.8946152344e+003,4.8530771484e+003,4.8648715820e+003,4.8516665039e+003,
6.4062500000e-001,4.7096152344e+003,4.8760258789e+003,4.8196152344e+003,4.8425639648e+003,4.9792309570e+003,4.8188461914e+003,4.7946152344e+003,4.8110258789e+003,4.7853847656e+003,4.8614101563e+003,4.8465385742e+003,4.8138461914e+003,4.8262822266e+003,4.8137177734e+003,
6.4843750000e-001,4.6987177734e+003,4.8667949219e+003,4.8105126953e+003,4.8330771484e+003,4.9571796875e+003,4.8110258789e+003,4.7887177734e+003,4.8019228516e+003,4.7761538086e+003,4.8506411133e+003,4.8324360352e+003,4.8047436523e+003,4.8134614258e+003,4.8065385742e+003,
6.5625000000e-001,4.7689741211e+003,4.9370512695e+003,4.8730771484e+003,4.8947436523e+003,5.0203847656e+003,4.8712822266e+003,4.8506411133e+003,4.8655126953e+003,4.8391025391e+003,4.9132050781e+003,4.9135898438e+003,4.8737177734e+003,4.8751284180e+003,4.8773076172e+003,
6.6406250000e-001,4.8047436523e+003,4.9725639648e+003,4.9069228516e+003,4.9260258789e+003,5.0632050781e+003,4.9020512695e+003,4.8807690430e+003,4.8996152344e+003,4.8711538086e+003,4.9451284180e+003,4.9565385742e+003,4.9079487305e+003,4.9098715820e+003,4.9100000000e+003,
6.7187500000e-001,4.8153847656e+003,4.9842309570e+003,4.9196152344e+003,4.9341025391e+003,5.0897436523e+003,4.9129487305e+003,4.8912822266e+003,4.9126923828e+003,4.8815385742e+003,4.9547436523e+003,4.9693588867e+003,4.9179487305e+003,4.9214101563e+003,4.9178203125e+003,
6.7968750000e-001,4.7683334961e+003,4.9357690430e+003,4.8832050781e+003,4.8957690430e+003,5.0243588867e+003,4.8880771484e+003,4.8678203125e+003,4.8879487305e+003,4.8650000000e+003,4.9247436523e+003,4.9230771484e+003,4.8875639648e+003,4.8779487305e+003,4.8830771484e+003,
6.8750000000e-001,4.7638461914e+003,4.9308974609e+003,4.8823076172e+003,4.8962822266e+003,5.0094873047e+003,4.8798715820e+003,4.8624360352e+003,4.8821796875e+003,4.8587177734e+003,4.9207690430e+003,4.9221796875e+003,4.8860258789e+003,4.8750000000e+003,4.8793588867e+003,
6.9531250000e-001,4.7666665039e+003,4.9479487305e+003,4.8862822266e+003,4.8908974609e+003,5.0393588867e+003,4.8750000000e+003,4.8601284180e+003,4.8748715820e+003,4.8479487305e+003,4.9188461914e+003,4.9152563477e+003,4.8800000000e+003,4.8812822266e+003,4.8776923828e+003,
7.0312500000e-001,4.7497436523e+003,4.9176923828e+003,4.8610258789e+003,4.8656411133e+003,5.0019228516e+003,4.8519228516e+003,4.8370512695e+003,4.8433334961e+003,4.8203847656e+003,4.8735898438e+003,4.8874360352e+003,4.8538461914e+003,4.8497436523e+003,4.8570512695e+003,
7.1093750000e-001,4.7412822266e+003,4.9071796875e+003,4.8532050781e+003,4.8606411133e+003,4.9874360352e+003,4.8400000000e+003,4.8258974609e+003,4.8337177734e+003,4.8112822266e+003,4.8689741211e+003,4.8787177734e+003,4.8437177734e+003,4.8407690430e+003,4.8476923828e+003,
7.1875000000e-001,4.6683334961e+003,4.8378203125e+003,4.7876923828e+003,4.7803847656e+003,4.9123076172e+003,4.7658974609e+003,4.7515385742e+003,4.7617949219e+003,4.7420512695e+003,4.8041025391e+003,4.8048715820e+003,4.7746152344e+003,4.7750000000e+003,4.7788461914e+003,
7.2656250000e-001,4.6412822266e+003,4.7935898438e+003,4.7573076172e+003,4.7344873047e+003,4.8451284180e+003,4.7341025391e+003,4.7233334961e+003,4.7256411133e+003,4.7066665039e+003,4.7512822266e+003,4.7707690430e+003,4.7483334961e+003,4.7334614258e+003,4.7507690430e+003,
7.3437500000e-001,4.6535898438e+003,4.8016665039e+003,4.7679487305e+003,4.7408974609e+003,4.8626923828e+003,4.7426923828e+003,4.7348715820e+003,4.7405126953e+003,4.7208974609e+003,4.7693588867e+003,4.7792309570e+003,4.7602563477e+003,4.7401284180e+003,4.7626923828e+003,
7.4218750000e-001,4.6606411133e+003,4.8057690430e+003,4.7756411133e+003,4.7438461914e+003,4.8873076172e+003,4.7491025391e+003,4.7421796875e+003,4.7516665039e+003,4.7317949219e+003,4.7830771484e+003,4.7841025391e+003,4.7674360352e+003,4.7439741211e+003,4.7706411133e+003,
7.5000000000e-001,4.6429487305e+003,4.7865385742e+003,4.7630771484e+003,4.7320512695e+003,4.8896152344e+003,4.7382050781e+003,4.7273076172e+003,4.7411538086e+003,4.7211538086e+003,4.7665385742e+003,4.7752563477e+003,4.7505126953e+003,4.7319228516e+003,4.7561538086e+003,
7.5781250000e-001,4.5637177734e+003,4.7133334961e+003,4.6829487305e+003,4.6692309570e+003,4.7648715820e+003,4.6626923828e+003,4.6519228516e+003,4.6662822266e+003,4.6452563477e+003,4.6925639648e+003,4.7030771484e+003,4.6724360352e+003,4.6688461914e+003,4.6828203125e+003,
7.6562500000e-001,4.5470512695e+003,4.6948715820e+003,4.6619228516e+003,4.6435898438e+003,4.7437177734e+003,4.6419228516e+003,4.6323076172e+003,4.6466665039e+003,4.6267949219e+003,4.6741025391e+003,4.6756411133e+003,4.6533334961e+003,4.6485898438e+003,4.6660258789e+003,
7.7343750000e-001,4.5448715820e+003,4.6887177734e+003,4.6553847656e+003,4.6269228516e+003,4.7437177734e+003,4.6341025391e+003,4.6242309570e+003,4.6388461914e+003,4.6210258789e+003,4.6625639648e+003,4.6623076172e+003,4.6474360352e+003,4.6397436523e+003,4.6614101563e+003,
7.8125000000e-001,4.5639741211e+003,4.7001284180e+003,4.6725639648e+003,4.6323076172e+003,4.7669228516e+003,4.6448715820e+003,4.6341025391e+003,4.6488461914e+003,4.6337177734e+003,4.6597436523e+003,4.6769228516e+003,4.6641025391e+003,4.6535898438e+003,4.6757690430e+003,
7.8906250000e-001,4.5621796875e+003,4.6961538086e+003,4.6729487305e+003,4.6391025391e+003,4.7635898438e+003,4.6437177734e+003,4.6337177734e+003,4.6484614258e+003,4.6332050781e+003,4.6589741211e+003,4.6802563477e+003,4.6648715820e+003,4.6570512695e+003,4.6752563477e+003,
7.9687500000e-001,4.5366665039e+003,4.6698715820e+003,4.6493588867e+003,4.6265385742e+003,4.7364101563e+003,4.6221796875e+003,4.6138461914e+003,4.6287177734e+003,4.6133334961e+003,4.6434614258e+003,4.6600000000e+003,4.6425639648e+003,4.6382050781e+003,4.6533334961e+003,
8.0468750000e-001,4.0847436523e+003,4.1951284180e+003,4.1969228516e+003,4.1579487305e+003,4.2744873047e+003,4.1767949219e+003,4.1817949219e+003,4.1894873047e+003,4.1848715820e+003,4.1867949219e+003,4.1934614258e+003,4.1915385742e+003,4.1697436523e+003,4.2001284180e+003,
8.1250000000e-001,4.0432050781e+003,4.1402563477e+003,4.1483334961e+003,4.1096152344e+003,4.2315385742e+003,4.1270512695e+003,4.1351284180e+003,4.1383334961e+003,4.1371796875e+003,4.1333334961e+003,4.1394873047e+003,4.1408974609e+003,4.1260258789e+003,4.1512822266e+003,
8.2031250000e-001,4.0244870605e+003,4.0891025391e+003,4.1080771484e+003,4.0714101563e+003,4.1832050781e+003,4.0917949219e+003,4.1030771484e+003,4.0970512695e+003,4.1039741211e+003,4.0911538086e+003,4.0983334961e+003,4.1032050781e+003,4.1021796875e+003,4.1180771484e+003,
8.2812500000e-001,4.0155129395e+003,4.0611538086e+003,4.0900000000e+003,4.0469230957e+003,4.1293588867e+003,4.0614101563e+003,4.0797436523e+003,4.0726923828e+003,4.0801281738e+003,4.0621794434e+003,4.0687180176e+003,4.0842307129e+003,4.0638461914e+003,4.0898718262e+003,
8.3593750000e-001,4.0123076172e+003,4.0543588867e+003,4.0821794434e+003,4.0415385742e+003,4.1303847656e+003,4.0517949219e+003,4.0711538086e+003,4.0639743652e+003,4.0723076172e+003,4.0548718262e+003,4.0552563477e+003,4.0747436523e+003,4.0539743652e+003,4.0797436523e+003,
8.4375000000e-001,3.9121794434e+003,3.9364101563e+003,3.9707692871e+003,3.9264101563e+003,4.0274357910e+003,3.9437180176e+003,3.9632050781e+003,3.9570512695e+003,3.9619230957e+003,3.9293588867e+003,3.9380769043e+003,3.9647436523e+003,3.9326923828e+003,3.9671794434e+003,
8.5156250000e-001,3.8879487305e+003,3.9075642090e+003,3.9408974609e+003,3.8975642090e+003,3.9856411133e+003,3.9201281738e+003,3.9387180176e+003,3.9324357910e+003,3.9358974609e+003,3.8987180176e+003,3.9133332520e+003,3.9383332520e+003,3.9021794434e+003,3.9402563477e+003,
8.5937500000e-001,3.8641025391e+003,3.8761538086e+003,3.9082050781e+003,3.8719230957e+003,3.9366667480e+003,3.8948718262e+003,3.9157692871e+003,3.9079487305e+003,3.9117949219e+003,3.8769230957e+003,3.8885898438e+003,3.9124357910e+003,3.8771794434e+003,3.9133332520e+003,
8.6718750000e-001,3.8380769043e+003,3.8421794434e+003,3.8806411133e+003,3.8444870605e+003,3.9119230957e+003,3.8637180176e+003,3.8878205566e+003,3.8796154785e+003,3.8850000000e+003,3.8520512695e+003,3.8575642090e+003,3.8838461914e+003,3.8533332520e+003,3.8842307129e+003,
8.7500000000e-001,3.7623076172e+003,3.7375642090e+003,3.7898718262e+003,3.7537180176e+003,3.8430769043e+003,3.7687180176e+003,3.7920512695e+003,3.7839743652e+003,3.7948718262e+003,3.7510256348e+003,3.7517949219e+003,3.7825642090e+003,3.7639743652e+003,3.7865385742e+003,
8.8281250000e-001,3.7588461914e+003,3.7333332520e+003,3.7783332520e+003,3.7478205566e+003,3.8260256348e+003,3.7616667480e+003,3.7835898438e+003,3.7739743652e+003,3.7852563477e+003,3.7383332520e+003,3.7400000000e+003,3.7708974609e+003,3.7511538086e+003,3.7774357910e+003,
8.9062500000e-001,3.7353845215e+003,3.7121794434e+003,3.7455129395e+003,3.7261538086e+003,3.7810256348e+003,3.7314101563e+003,3.7580769043e+003,3.7444870605e+003,3.7562819824e+003,3.7094870605e+003,3.7043588867e+003,3.7406411133e+003,3.7153845215e+003,3.7498718262e+003,
8.9843750000e-001,3.7124357910e+003,3.6838461914e+003,3.7215385742e+003,3.7034614258e+003,3.7585898438e+003,3.7032050781e+003,3.7344870605e+003,3.7210256348e+003,3.7330769043e+003,3.6862819824e+003,3.6761538086e+003,3.7167949219e+003,3.6896154785e+003,3.7255129395e+003,
9.0625000000e-001,3.7561538086e+003,3.7067949219e+003,3.7582050781e+003,3.7343588867e+003,3.7750000000e+003,3.7244870605e+003,3.7630769043e+003,3.7535898438e+003,3.7643588867e+003,3.7133332520e+003,3.7129487305e+003,3.7493588867e+003,3.7265385742e+003,3.7585898438e+003,
9.1406250000e-001,3.8130769043e+003,3.7658974609e+003,3.8070512695e+003,3.7864101563e+003,3.8148718262e+003,3.7771794434e+003,3.8137180176e+003,3.8034614258e+003,3.8152563477e+003,3.7670512695e+003,3.7734614258e+003,3.7998718262e+003,3.7817949219e+003,3.8124357910e+003,
9.2187500000e-001,3.8508974609e+003,3.8070512695e+003,3.8374357910e+003,3.8226923828e+003,3.8489743652e+003,3.8151281738e+003,3.8482050781e+003,3.8370512695e+003,3.8501281738e+003,3.8058974609e+003,3.8161538086e+003,3.8338461914e+003,3.8187180176e+003,3.8488461914e+003,
9.2968750000e-001,3.7117949219e+003,3.6524357910e+003,3.7010256348e+003,3.6811538086e+003,3.7083332520e+003,3.6760256348e+003,3.7115385742e+003,3.6891025391e+003,3.7028205566e+003,3.6475642090e+003,3.6501281738e+003,3.6830769043e+003,3.6606411133e+003,3.6960256348e+003,
9.3750000000e-001,3.7724357910e+003,3.7167949219e+003,3.7569230957e+003,3.7321794434e+003,3.7583332520e+003,3.7320512695e+003,3.7689743652e+003,3.7455129395e+003,3.7621794434e+003,3.7110256348e+003,3.7130769043e+003,3.7410256348e+003,3.7220512695e+003,3.7553845215e+003,
9.4531250000e-001,3.9589743652e+003,3.9106411133e+003,3.9323076172e+003,3.9117949219e+003,3.9920512695e+003,3.9089743652e+003,3.9394870605e+003,3.9282050781e+003,3.9379487305e+003,3.9000000000e+003,3.9071794434e+003,3.9364101563e+003,3.9128205566e+003,3.9452563477e+003,
9.5312500000e-001,4.0094870605e+003,3.9619230957e+003,3.9775642090e+003,3.9683332520e+003,4.0228205566e+003,3.9569230957e+003,3.9821794434e+003,3.9739743652e+003,3.9810256348e+003,3.9503845215e+003,3.9635898438e+003,3.9811538086e+003,3.9596154785e+003,3.9866667480e+003,
9.6093750000e-001,4.0242307129e+003,3.9776923828e+003,3.9920512695e+003,3.9779487305e+003,4.0265385742e+003,3.9733332520e+003,3.9984614258e+003,3.9892307129e+003,3.9973076172e+003,3.9711538086e+003,3.9783332520e+003,3.9946154785e+003,3.9734614258e+003,4.0003845215e+003,
9.6875000000e-001,4.1180771484e+003,4.0810256348e+003,4.0839743652e+003,4.0637180176e+003,4.1357690430e+003,4.0655129395e+003,4.0893588867e+003,4.0853845215e+003,4.0853845215e+003,4.0669230957e+003,4.0714101563e+003,4.0876923828e+003,4.0747436523e+003,4.0961538086e+003,
9.7656250000e-001,4.1400000000e+003,4.1041025391e+003,4.1087177734e+003,4.0866667480e+003,4.1569228516e+003,4.0860256348e+003,4.1115385742e+003,4.1069228516e+003,4.1066665039e+003,4.0878205566e+003,4.0971796875e+003,4.1107690430e+003,4.1001284180e+003,4.1189741211e+003,
9.8437500000e-001,4.1929487305e+003,4.1557690430e+003,4.1680771484e+003,4.1373076172e+003,4.1929487305e+003,4.1373076172e+003,4.1648715820e+003,4.1564101563e+003,4.1617949219e+003,4.1448715820e+003,4.1584614258e+003,4.1665385742e+003,4.1543588867e+003,4.1739741211e+003,
9.9218750000e-001,4.2294873047e+003,4.1941025391e+003,4.2044873047e+003,4.1724360352e+003,4.2266665039e+003,4.1748715820e+003,4.1993588867e+003,4.1932050781e+003,4.2000000000e+003,4.1842309570e+003,4.1975639648e+003,4.2037177734e+003,4.1907690430e+003,4.2120512695e+003,
1.0000000000e+000,4.2783334961e+003,4.2556411133e+003,4.2538461914e+003,4.2253847656e+003,4.2928203125e+003,4.2339741211e+003,4.2489741211e+003,4.2510258789e+003,4.2544873047e+003,4.2337177734e+003,4.2497436523e+003,4.2567949219e+003,4.2437177734e+003,4.2678203125e+003,
1.0078125000e+000,4.2928203125e+003,4.2723076172e+003,4.2723076172e+003,4.2406411133e+003,4.3106411133e+003,4.2473076172e+003,4.2646152344e+003,4.2653847656e+003,4.2693588867e+003,4.2515385742e+003,4.2662822266e+003,4.2734614258e+003,4.2602563477e+003,4.2823076172e+003,
1.0156250000e+000,4.3239741211e+003,4.3079487305e+003,4.3125639648e+003,4.2741025391e+003,4.3471796875e+003,4.2711538086e+003,4.2934614258e+003,4.2974360352e+003,4.3008974609e+003,4.2987177734e+003,4.3058974609e+003,4.3102563477e+003,4.2975639648e+003,4.3137177734e+003,
1.0234375000e+000,4.3106411133e+003,4.2955126953e+003,4.3019228516e+003,4.2608974609e+003,4.3384614258e+003,4.2585898438e+003,4.2803847656e+003,4.2871796875e+003,4.2873076172e+003,4.2902563477e+003,4.2960258789e+003,4.2997436523e+003,4.2861538086e+003,4.3032050781e+003,
1.0312500000e+000,4.2675639648e+003,4.2455126953e+003,4.2561538086e+003,4.2070512695e+003,4.3080771484e+003,4.2332050781e+003,4.2482050781e+003,4.2524360352e+003,4.2469228516e+003,4.2374360352e+003,4.2515385742e+003,4.2569228516e+003,4.2430771484e+003,4.2685898438e+003,
1.0390625000e+000,4.3035898438e+003,4.2841025391e+003,4.2934614258e+003,4.2439741211e+003,4.3435898438e+003,4.2698715820e+003,4.2861538086e+003,4.2908974609e+003,4.2880771484e+003,4.2761538086e+003,4.2898715820e+003,4.2943588867e+003,4.2820512695e+003,4.3050000000e+003,
1.0468750000e+000,4.3483334961e+003,4.3360258789e+003,4.3424360352e+003,4.2947436523e+003,4.3869228516e+003,4.3120512695e+003,4.3317949219e+003,4.3384614258e+003,4.3376923828e+003,4.3284614258e+003,4.3402563477e+003,4.3435898438e+003,4.3315385742e+003,4.3506411133e+003,
1.0546875000e+000,4.3538461914e+003,4.3628203125e+003,4.3611538086e+003,4.3166665039e+003,4.3875639648e+003,4.3361538086e+003,4.3483334961e+003,4.3593588867e+003,4.3506411133e+003,4.3525639648e+003,4.3652563477e+003,4.3678203125e+003,4.3476923828e+003,4.3729487305e+003,
1.0625000000e+000,4.3517949219e+003,4.3608974609e+003,4.3600000000e+003,4.3162822266e+003,4.3824360352e+003,4.3376923828e+003,4.3480771484e+003,4.3576923828e+003,4.3497436523e+003,4.3484614258e+003,4.3667949219e+003,4.3680771484e+003,4.3461538086e+003,4.3719228516e+003,
1.0703125000e+000,4.4112822266e+003,4.4288461914e+003,4.4217949219e+003,4.3932050781e+003,4.4423076172e+003,4.4014101563e+003,4.4114101563e+003,4.4216665039e+003,4.4167949219e+003,4.4216665039e+003,4.4383334961e+003,4.4278203125e+003,4.4192309570e+003,4.4282050781e+003,
1.0781250000e+000,4.4048715820e+003,4.4273076172e+003,4.4185898438e+003,4.4034614258e+003,4.4685898438e+003,4.4016665039e+003,4.4130771484e+003,4.4276923828e+003,4.4211538086e+003,4.4288461914e+003,4.4392309570e+003,4.4248715820e+003,4.4258974609e+003,4.4226923828e+003,
1.0859375000e+000,4.3939741211e+003,4.4188461914e+003,4.4103847656e+003,4.3869228516e+003,4.4717949219e+003,4.3911538086e+003,4.4023076172e+003,4.4148715820e+003,4.4079487305e+003,4.4112822266e+003,4.4276923828e+003,4.4147436523e+003,4.4141025391e+003,4.4108974609e+003,
1.0937500000e+000,4.3801284180e+003,4.4147436523e+003,4.4061538086e+003,4.3552563477e+003,4.4576923828e+003,4.3784614258e+003,4.3879487305e+003,4.3942309570e+003,4.3866665039e+003,4.3910258789e+003,4.4094873047e+003,4.4076923828e+003,4.4029487305e+003,4.4002563477e+003,
1.1015625000e+000,4.3660258789e+003,4.4007690430e+003,4.3923076172e+003,4.3457690430e+003,4.4323076172e+003,4.3646152344e+003,4.3747436523e+003,4.3798715820e+003,4.3738461914e+003,4.3784614258e+003,4.3956411133e+003,4.3952563477e+003,4.3917949219e+003,4.3885898438e+003,
1.1093750000e+000,4.3242309570e+003,4.3569228516e+003,4.3500000000e+003,4.3158974609e+003,4.3826923828e+003,4.3271796875e+003,4.3367949219e+003,4.3391025391e+003,4.3371796875e+003,4.3332050781e+003,4.3592309570e+003,4.3507690430e+003,4.3511538086e+003,4.3484614258e+003,
1.1171875000e+000,4.2998715820e+003,4.3305126953e+003,4.3292309570e+003,4.2928203125e+003,4.3646152344e+003,4.3070512695e+003,4.3153847656e+003,4.3162822266e+003,4.3139741211e+003,4.3048715820e+003,4.3356411133e+003,4.3253847656e+003,4.3238461914e+003,4.3243588867e+003,
1.1250000000e+000,4.2080771484e+003,4.2266665039e+003,4.2475639648e+003,4.2001284180e+003,4.2625639648e+003,4.2155126953e+003,4.2250000000e+003,4.2261538086e+003,4.2234614258e+003,4.2097436523e+003,4.2310258789e+003,4.2384614258e+003,4.2225639648e+003,4.2357690430e+003,
1.1328125000e+000,4.1724360352e+003,4.1878203125e+003,4.2083334961e+003,4.1646152344e+003,4.2092309570e+003,4.1746152344e+003,4.1858974609e+003,4.1884614258e+003,4.1884614258e+003,4.1724360352e+003,4.1938461914e+003,4.2029487305e+003,4.1875639648e+003,4.2000000000e+003,
1.1406250000e+000,4.1230771484e+003,4.1361538086e+003,4.1532050781e+003,4.1065385742e+003,4.1456411133e+003,4.1196152344e+003,4.1341025391e+003,4.1346152344e+003,4.1380771484e+003,4.1111538086e+003,4.1460258789e+003,4.1515385742e+003,4.1401284180e+003,4.1511538086e+003,
1.1484375000e+000,4.1232050781e+003,4.1357690430e+003,4.1541025391e+003,4.1007690430e+003,4.1580771484e+003,4.1207690430e+003,4.1355126953e+003,4.1337177734e+003,4.1371796875e+003,4.1060258789e+003,4.1446152344e+003,4.1507690430e+003,4.1380771484e+003,4.1516665039e+003,
1.1562500000e+000,4.0930769043e+003,4.1037177734e+003,4.1233334961e+003,4.0762819824e+003,4.1685898438e+003,4.0937180176e+003,4.1039741211e+003,4.1116665039e+003,4.1143588867e+003,4.0833332520e+003,4.1069228516e+003,4.1174360352e+003,4.1038461914e+003,4.1198715820e+003,
1.1640625000e+000,4.0278205566e+003,4.0353845215e+003,4.0565385742e+003,4.0141025391e+003,4.0957692871e+003,4.0289743652e+003,4.0394870605e+003,4.0488461914e+003,4.0519230957e+003,4.0189743652e+003,4.0416667480e+003,4.0512819824e+003,4.0412819824e+003,4.0556411133e+003,
1.1718750000e+000,3.9562819824e+003,3.9594870605e+003,3.9838461914e+003,3.9416667480e+003,4.0116667480e+003,3.9588461914e+003,3.9712819824e+003,3.9769230957e+003,3.9814101563e+003,3.9450000000e+003,3.9707692871e+003,3.9785898438e+003,3.9724357910e+003,3.9860256348e+003,
1.1796875000e+000,3.9076923828e+003,3.9062819824e+003,3.9332050781e+003,3.8892307129e+003,3.9542307129e+003,3.9112819824e+003,3.9267949219e+003,3.9260256348e+003,3.9323076172e+003,3.8930769043e+003,3.9216667480e+003,3.9278205566e+003,3.9243588867e+003,3.9384614258e+003,
1.1875000000e+000,3.8778205566e+003,3.8621794434e+003,3.8942307129e+003,3.8611538086e+003,3.9215385742e+003,3.8630769043e+003,3.8925642090e+003,3.8925642090e+003,3.9032050781e+003,3.8533332520e+003,3.8837180176e+003,3.8896154785e+003,3.8828205566e+003,3.8960256348e+003,
1.1953125000e+000,3.6980769043e+003,3.6687180176e+003,3.7043588867e+003,3.6783332520e+003,3.7279487305e+003,3.6908974609e+003,3.7150000000e+003,3.7042307129e+003,3.7235898438e+003,3.6644870605e+003,3.6801281738e+003,3.6976923828e+003,3.6993588867e+003,3.7128205566e+003,
1.2031250000e+000,3.6851281738e+003,3.6541025391e+003,3.6892307129e+003,3.6671794434e+003,3.7035898438e+003,3.6789743652e+003,3.7046154785e+003,3.6906411133e+003,3.7120512695e+003,3.6515385742e+003,3.6647436523e+003,3.6857692871e+003,3.6819230957e+003,3.6994870605e+003,
1.2109375000e+000,3.6524357910e+003,3.6155129395e+003,3.6523076172e+003,3.6319230957e+003,3.6479487305e+003,3.6324357910e+003,3.6661538086e+003,3.6573076172e+003,3.6810256348e+003,3.6158974609e+003,3.6375642090e+003,3.6534614258e+003,3.6385898438e+003,3.6620512695e+003,
1.2187500000e+000,3.5208974609e+003,3.4412819824e+003,3.5078205566e+003,3.4661538086e+003,3.5294870605e+003,3.4728205566e+003,3.5175642090e+003,3.5029487305e+003,3.5274357910e+003,3.4484614258e+003,3.4798718262e+003,3.5000000000e+003,3.4901281738e+003,3.5170512695e+003,
1.2265625000e+000,3.5867949219e+003,3.5020512695e+003,3.5675642090e+003,3.5305129395e+003,3.5893588867e+003,3.5344870605e+003,3.5784614258e+003,3.5621794434e+003,3.5852563477e+003,3.5096154785e+003,3.5370512695e+003,3.5596154785e+003,3.5534614258e+003,3.5767949219e+003,
1.2343750000e+000,3.7617949219e+003,3.6835898438e+003,3.7337180176e+003,3.7046154785e+003,3.7496154785e+003,3.7012819824e+003,3.7412819824e+003,3.7284614258e+003,3.7476923828e+003,3.6852563477e+003,3.7012819824e+003,3.7300000000e+003,3.7247436523e+003,3.7424357910e+003,
1.2421875000e+000,3.8200000000e+003,3.7455129395e+003,3.7894870605e+003,3.7584614258e+003,3.8034614258e+003,3.7558974609e+003,3.7938461914e+003,3.7808974609e+003,3.7971794434e+003,3.7383332520e+003,3.7550000000e+003,3.7858974609e+003,3.7789743652e+003,3.7976923828e+003,
1.2500000000e+000,4.0369230957e+003,3.9712819824e+003,3.9941025391e+003,3.9658974609e+003,4.0301281738e+003,3.9702563477e+003,3.9971794434e+003,3.9817949219e+003,3.9862819824e+003,3.9328205566e+003,3.9857692871e+003,3.9865385742e+003,3.9861538086e+003,4.0052563477e+003,
1.2578125000e+000,4.1510258789e+003,4.0946154785e+003,4.1073076172e+003,4.0826923828e+003,4.1517949219e+003,4.0865385742e+003,4.1097436523e+003,4.0988461914e+003,4.0988461914e+003,4.0583332520e+003,4.1125639648e+003,4.1012822266e+003,4.1024360352e+003,4.1182050781e+003,
1.2656250000e+000,4.3382050781e+003,4.3038461914e+003,4.3032050781e+003,4.2787177734e+003,4.3343588867e+003,4.2752563477e+003,4.2958974609e+003,4.2924360352e+003,4.2901284180e+003,4.2842309570e+003,4.3107690430e+003,4.2961538086e+003,4.2994873047e+003,4.3066665039e+003,
1.2734375000e+000,4.3842309570e+003,4.3573076172e+003,4.3541025391e+003,4.3293588867e+003,4.3691025391e+003,4.3210258789e+003,4.3414101563e+003,4.3380771484e+003,4.3371796875e+003,4.3423076172e+003,4.3557690430e+003,4.3448715820e+003,4.3512822266e+003,4.3543588867e+003,
1.2812500000e+000,4.3694873047e+003,4.3452563477e+003,4.3444873047e+003,4.3155126953e+003,4.3658974609e+003,4.3248715820e+003,4.3325639648e+003,4.3308974609e+003,4.3247436523e+003,4.3241025391e+003,4.3565385742e+003,4.3420512695e+003,4.3482050781e+003,4.3502563477e+003,
1.2890625000e+000,4.3639741211e+003,4.3392309570e+003,4.3406411133e+003,4.3056411133e+003,4.3866665039e+003,4.3279487305e+003,4.3300000000e+003,4.3296152344e+003,4.3221796875e+003,4.3167949219e+003,4.3575639648e+003,4.3415385742e+003,4.3450000000e+003,4.3471796875e+003,
1.2968750000e+000,4.3805126953e+003,4.3579487305e+003,4.3600000000e+003,4.3188461914e+003,4.4270512695e+003,4.3489741211e+003,4.3488461914e+003,4.3491025391e+003,4.3433334961e+003,4.3353847656e+003,4.3765385742e+003,4.3616665039e+003,4.3632050781e+003,4.3647436523e+003,
1.3046875000e+000,4.4125639648e+003,4.3952563477e+003,4.3958974609e+003,4.3514101563e+003,4.4702563477e+003,4.3816665039e+003,4.3835898438e+003,4.3851284180e+003,4.3823076172e+003,4.3733334961e+003,4.4089741211e+003,4.3975639648e+003,4.3962822266e+003,4.3983334961e+003,
1.3125000000e+000,4.3862822266e+003,4.3871796875e+003,4.3871796875e+003,4.3505126953e+003,4.4141025391e+003,4.3650000000e+003,4.3773076172e+003,4.3900000000e+003,4.3811538086e+003,4.3802563477e+003,4.4139741211e+003,4.3955126953e+003,4.3917949219e+003,4.3970512695e+003,
1.3203125000e+000,4.3362822266e+003,4.3369228516e+003,4.3415385742e+003,4.3046152344e+003,4.3664101563e+003,4.3193588867e+003,4.3293588867e+003,4.3410258789e+003,4.3344873047e+003,4.3353847656e+003,4.3679487305e+003,4.3453847656e+003,4.3489741211e+003,4.3500000000e+003,
1.3281250000e+000,4.1916665039e+003,4.1860258789e+003,4.2066665039e+003,4.1748715820e+003,4.2356411133e+003,4.1714101563e+003,4.1901284180e+003,4.1930771484e+003,4.1987177734e+003,4.1787177734e+003,4.2067949219e+003,4.1962822266e+003,4.1960258789e+003,4.2010258789e+003,
1.3359375000e+000,3.9628205566e+003,3.9426923828e+003,3.9746154785e+003,3.9315385742e+003,3.9705129395e+003,3.9465385742e+003,3.9676923828e+003,3.9715385742e+003,3.9743588867e+003,3.9373076172e+003,3.9724357910e+003,3.9702563477e+003,3.9594870605e+003,3.9744870605e+003,
1.3437500000e+000,3.8558974609e+003,3.8307692871e+003,3.8692307129e+003,3.8261538086e+003,3.8506411133e+003,3.8447436523e+003,3.8641025391e+003,3.8650000000e+003,3.8689743652e+003,3.8271794434e+003,3.8603845215e+003,3.8630769043e+003,3.8524357910e+003,3.8694870605e+003,
1.3515625000e+000,3.7605129395e+003,3.7239743652e+003,3.7602563477e+003,3.7564101563e+003,3.7875642090e+003,3.7430769043e+003,3.7679487305e+003,3.7555129395e+003,3.7673076172e+003,3.7050000000e+003,3.7379487305e+003,3.7456411133e+003,3.7375642090e+003,3.7624357910e+003,
1.3593750000e+000,4.0760256348e+003,4.0316667480e+003,4.0578205566e+003,4.0888461914e+003,4.1110258789e+003,4.0325642090e+003,4.0606411133e+003,4.0538461914e+003,4.0620512695e+003,4.0187180176e+003,4.0532050781e+003,4.0494870605e+003,4.0408974609e+003,4.0624357910e+003,
1.3671875000e+000,4.0994873047e+003,4.0607692871e+003,4.0834614258e+003,4.1165385742e+003,4.1253847656e+003,4.0578205566e+003,4.0810256348e+003,4.0812819824e+003,4.0891025391e+003,4.0517949219e+003,4.0797436523e+003,4.0778205566e+003,4.0717949219e+003,4.0888461914e+003,
1.3750000000e+000,3.8689743652e+003,3.8342307129e+003,3.8610256348e+003,3.8660256348e+003,3.8889743652e+003,3.8435898438e+003,3.8591025391e+003,3.8652563477e+003,3.8774357910e+003,3.8348718262e+003,3.8487180176e+003,3.8548718262e+003,3.8501281738e+003,3.8628205566e+003,
1.3828125000e+000,3.8202563477e+003,3.7796154785e+003,3.8112819824e+003,3.8070512695e+003,3.8410256348e+003,3.7925642090e+003,3.8114101563e+003,3.8123076172e+003,3.8275642090e+003,3.7798718262e+003,3.7983332520e+003,3.8033332520e+003,3.7929487305e+003,3.8096154785e+003,
1.3906250000e+000,3.7702563477e+003,3.7191025391e+003,3.7598718262e+003,3.7475642090e+003,3.7705129395e+003,3.7365385742e+003,3.7630769043e+003,3.7591025391e+003,3.7775642090e+003,3.7244870605e+003,3.7485898438e+003,3.7516667480e+003,3.7352563477e+003,3.7556411133e+003,
1.3984375000e+000,3.7015385742e+003,3.6430769043e+003,3.6934614258e+003,3.6784614258e+003,3.6837180176e+003,3.6689743652e+003,3.6976923828e+003,3.6955129395e+003,3.7124357910e+003,3.6565385742e+003,3.6767949219e+003,3.6847436523e+003,3.6702563477e+003,3.6888461914e+003,
1.4062500000e+000,3.4547436523e+003,3.3693588867e+003,3.4405129395e+003,3.4264101563e+003,3.4230769043e+003,3.4175642090e+003,3.4528205566e+003,3.4466667480e+003,3.4619230957e+003,3.3760256348e+003,3.3965385742e+003,3.4216667480e+003,3.4091025391e+003,3.4371794434e+003,
1.4140625000e+000,3.4317949219e+003,3.3444870605e+003,3.4089743652e+003,3.4015385742e+003,3.4111538086e+003,3.3893588867e+003,3.4278205566e+003,3.4176923828e+003,3.4365385742e+003,3.3428205566e+003,3.3661538086e+003,3.3901281738e+003,3.3733332520e+003,3.4092307129e+003,
1.4218750000e+000,3.4225642090e+003,3.3352563477e+003,3.3925642090e+003,3.3907692871e+003,3.4101281738e+003,3.3762819824e+003,3.4184614258e+003,3.4037180176e+003,3.4264101563e+003,3.3316667480e+003,3.3521794434e+003,3.3761538086e+003,3.3541025391e+003,3.3960256348e+003,
1.4296875000e+000,3.4258974609e+003,3.3364101563e+003,3.3908974609e+003,3.3907692871e+003,3.4126923828e+003,3.3766667480e+003,3.4219230957e+003,3.4010256348e+003,3.4257692871e+003,3.3365385742e+003,3.3494870605e+003,3.3765385742e+003,3.3516667480e+003,3.3956411133e+003,
1.4375000000e+000,4.0706411133e+003,3.9841025391e+003,4.0000000000e+003,4.0023076172e+003,4.0385898438e+003,3.9930769043e+003,4.0196154785e+003,3.9846154785e+003,3.9983332520e+003,3.9626923828e+003,3.9794870605e+003,3.9816667480e+003,3.9919230957e+003,4.0092307129e+003,
1.4453125000e+000,4.3682050781e+003,4.3151284180e+003,4.3171796875e+003,4.2978203125e+003,4.3594873047e+003,4.2884614258e+003,4.2894873047e+003,4.3001284180e+003,4.3064101563e+003,4.3092309570e+003,4.3320512695e+003,4.3121796875e+003,4.3220512695e+003,4.3269228516e+003,
1.4531250000e+000,4.2064101563e+003,4.1526923828e+003,4.1635898438e+003,4.1382050781e+003,4.1930771484e+003,4.1329487305e+003,4.1348715820e+003,4.1501284180e+003,4.1598715820e+003,4.1541025391e+003,4.1780771484e+003,4.1610258789e+003,4.1689741211e+003,4.1743588867e+003,
1.4609375000e+000,3.8320512695e+003,3.7756411133e+003,3.8007692871e+003,3.7751281738e+003,3.7903845215e+003,3.7760256348e+003,3.7882050781e+003,3.7953845215e+003,3.8114101563e+003,3.7770512695e+003,3.7991025391e+003,3.7997436523e+003,3.7971794434e+003,3.8144870605e+003,
1.4687500000e+000,3.6943588867e+003,3.6334614258e+003,3.6676923828e+003,3.6455129395e+003,3.6426923828e+003,3.6443588867e+003,3.6641025391e+003,3.6637180176e+003,3.6815385742e+003,3.6357692871e+003,3.6505129395e+003,3.6637180176e+003,3.6547436523e+003,3.6798718262e+003,
1.4765625000e+000,3.5991025391e+003,3.5182050781e+003,3.5657692871e+003,3.5533332520e+003,3.5893588867e+003,3.5450000000e+003,3.5797436523e+003,3.5674357910e+003,3.5905129395e+003,3.5210256348e+003,3.5296154785e+003,3.5566667480e+003,3.5453845215e+003,3.5756411133e+003,
1.4843750000e+000,3.8520512695e+003,3.7651281738e+003,3.8003845215e+003,3.7767949219e+003,3.8280769043e+003,3.7912819824e+003,3.8257692871e+003,3.8024357910e+003,3.8176923828e+003,3.7571794434e+003,3.7826923828e+003,3.7906411133e+003,3.7917949219e+003,3.8076923828e+003,
1.4921875000e+000,3.9844870605e+003,3.8988461914e+003,3.9320512695e+003,3.9061538086e+003,3.9420512695e+003,3.9230769043e+003,3.9524357910e+003,3.9284614258e+003,3.9380769043e+003,3.8923076172e+003,3.9152563477e+003,3.9200000000e+003,3.9247436523e+003,3.9321794434e+003,
1.5000000000e+000,4.3605126953e+003,4.3051284180e+003,4.3056411133e+003,4.2797436523e+003,4.3407690430e+003,4.2767949219e+003,4.2974360352e+003,4.2915385742e+003,4.2933334961e+003,4.2815385742e+003,4.3105126953e+003,4.3057690430e+003,4.3108974609e+003,4.3064101563e+003,
1.5078125000e+000,4.3839741211e+003,4.3411538086e+003,4.3293588867e+003,4.3021796875e+003,4.3807690430e+003,4.2944873047e+003,4.3144873047e+003,4.3187177734e+003,4.3221796875e+003,4.3139741211e+003,4.3443588867e+003,4.3358974609e+003,4.3403847656e+003,4.3355126953e+003,
1.5156250000e+000,4.2270512695e+003,4.1806411133e+003,4.1824360352e+003,4.1503847656e+003,4.2125639648e+003,4.1455126953e+003,4.1617949219e+003,4.1730771484e+003,4.1812822266e+003,4.1682050781e+003,4.1884614258e+003,4.1867949219e+003,4.1905126953e+003,4.1839741211e+003,
1.5234375000e+000,4.1221796875e+003,4.0620512695e+003,4.0837180176e+003,4.0492307129e+003,4.0910256348e+003,4.0501281738e+003,4.0629487305e+003,4.0687180176e+003,4.0792307129e+003,4.0574357910e+003,4.0734614258e+003,4.0811538086e+003,4.0839743652e+003,4.0769230957e+003,
1.5312500000e+000,4.0400000000e+003,3.9757692871e+003,3.9985898438e+003,3.9678205566e+003,4.0194870605e+003,3.9766667480e+003,3.9866667480e+003,3.9829487305e+003,3.9961538086e+003,3.9593588867e+003,3.9857692871e+003,3.9985898438e+003,3.9923076172e+003,3.9916667480e+003,
1.5390625000e+000,4.0401281738e+003,3.9834614258e+003,3.9964101563e+003,3.9674357910e+003,4.0237180176e+003,3.9742307129e+003,3.9885898438e+003,3.9871794434e+003,3.9987180176e+003,3.9667949219e+003,3.9926923828e+003,4.0017949219e+003,3.9930769043e+003,3.9942307129e+003,
1.5468750000e+000,4.0284614258e+003,3.9735898438e+003,3.9848718262e+003,3.9548718262e+003,4.0025642090e+003,3.9611538086e+003,3.9798718262e+003,3.9788461914e+003,3.9896154785e+003,3.9621794434e+003,3.9824357910e+003,3.9910256348e+003,3.9833332520e+003,3.9832050781e+003,
1.5546875000e+000,4.0211538086e+003,3.9625642090e+003,3.9780769043e+003,3.9452563477e+003,3.9792307129e+003,3.9541025391e+003,3.9743588867e+003,3.9715385742e+003,3.9833332520e+003,3.9567949219e+003,3.9705129395e+003,3.9808974609e+003,3.9775642090e+003,3.9735898438e+003,
1.5625000000e+000,4.0741025391e+003,4.0194870605e+003,4.0289743652e+003,3.9996154785e+003,4.0679487305e+003,4.0075642090e+003,4.0230769043e+003,4.0225642090e+003,4.0396154785e+003,4.0070512695e+003,4.0278205566e+003,4.0374357910e+003,4.0170512695e+003,4.0285898438e+003,
1.5703125000e+000,4.0326923828e+003,3.9791025391e+003,3.9929487305e+003,3.9626923828e+003,4.0273076172e+003,3.9684614258e+003,3.9873076172e+003,3.9862819824e+003,4.0014101563e+003,3.9687180176e+003,3.9839743652e+003,4.0017949219e+003,3.9751281738e+003,3.9896154785e+003,
1.5781250000e+000,4.0051281738e+003,3.9534614258e+003,3.9708974609e+003,3.9291025391e+003,3.9728205566e+003,3.9533332520e+003,3.9729487305e+003,3.9666667480e+003,3.9750000000e+003,3.9437180176e+003,3.9433332520e+003,3.9671794434e+003,3.9678205566e+003,3.9565385742e+003,
1.5859375000e+000,3.9951281738e+003,3.9435898438e+003,3.9585898438e+003,3.9144870605e+003,3.9903845215e+003,3.9465385742e+003,3.9638461914e+003,3.9533332520e+003,3.9620512695e+003,3.9376923828e+003,3.9616667480e+003,3.9694870605e+003,3.9575642090e+003,3.9574357910e+003,
1.5937500000e+000,3.9892307129e+003,3.9302563477e+003,3.9519230957e+003,3.9085898438e+003,3.9738461914e+003,3.9350000000e+003,3.9561538086e+003,3.9430769043e+003,3.9529487305e+003,3.9292307129e+003,3.9533332520e+003,3.9610256348e+003,3.9457692871e+003,3.9493588867e+003,
1.6015625000e+000,4.0258974609e+003,3.9620512695e+003,3.9883332520e+003,3.9476923828e+003,3.9733332520e+003,3.9573076172e+003,3.9843588867e+003,3.9782050781e+003,3.9829487305e+003,3.9546154785e+003,3.9693588867e+003,3.9885898438e+003,3.9810256348e+003,3.9841025391e+003,
1.6093750000e+000,3.8197436523e+003,3.7597436523e+003,3.7857692871e+003,3.7585898438e+003,3.7961538086e+003,3.7714101563e+003,3.7965385742e+003,3.7883332520e+003,3.7974357910e+003,3.7606411133e+003,3.7802563477e+003,3.8037180176e+003,3.7785898438e+003,3.7946154785e+003,
1.6171875000e+000,3.7784614258e+003,3.7120512695e+003,3.7444870605e+003,3.7157692871e+003,3.7625642090e+003,3.7323076172e+003,3.7597436523e+003,3.7458974609e+003,3.7582050781e+003,3.7202563477e+003,3.7388461914e+003,3.7612819824e+003,3.7380769043e+003,3.7520512695e+003,
1.6250000000e+000,3.9206411133e+003,3.8465385742e+003,3.8753845215e+003,3.8375642090e+003,3.8934614258e+003,3.8553845215e+003,3.8851281738e+003,3.8750000000e+003,3.8869230957e+003,3.8571794434e+003,3.8716667480e+003,3.8902563477e+003,3.8828205566e+003,3.8853845215e+003,
1.6328125000e+000,3.9293588867e+003,3.8584614258e+003,3.8834614258e+003,3.8480769043e+003,3.9014101563e+003,3.8651281738e+003,3.8915385742e+003,3.8851281738e+003,3.8960256348e+003,3.8632050781e+003,3.8788461914e+003,3.9024357910e+003,3.8902563477e+003,3.8943588867e+003,
1.6406250000e+000,3.8547436523e+003,3.7866667480e+003,3.8129487305e+003,3.7830769043e+003,3.8316667480e+003,3.8029487305e+003,3.8243588867e+003,3.8119230957e+003,3.8243588867e+003,3.7819230957e+003,3.7991025391e+003,3.8314101563e+003,3.8067949219e+003,3.8169230957e+003,
1.6484375000e+000,3.8584614258e+003,3.7898718262e+003,3.8161538086e+003,3.7853845215e+003,3.8334614258e+003,3.8083332520e+003,3.8291025391e+003,3.8129487305e+003,3.8258974609e+003,3.7869230957e+003,3.8020512695e+003,3.8288461914e+003,3.8069230957e+003,3.8161538086e+003,
1.6562500000e+000,3.9984614258e+003,3.9339743652e+003,3.9539743652e+003,3.9106411133e+003,3.9644870605e+003,3.9353845215e+003,3.9612819824e+003,3.9589743652e+003,3.9673076172e+003,3.9479487305e+003,3.9528205566e+003,3.9615385742e+003,3.9561538086e+003,3.9547436523e+003,
1.6640625000e+000,3.9929487305e+003,3.9310256348e+003,3.9510256348e+003,3.9060256348e+003,3.9707692871e+003,3.9302563477e+003,3.9583332520e+003,3.9576923828e+003,3.9664101563e+003,3.9430769043e+003,3.9476923828e+003,3.9607692871e+003,3.9542307129e+003,3.9517949219e+003,
1.6718750000e+000,3.9915385742e+003,3.9338461914e+003,3.9500000000e+003,3.9076923828e+003,3.9862819824e+003,3.9328205566e+003,3.9607692871e+003,3.9564101563e+003,3.9670512695e+003,3.9389743652e+003,3.9452563477e+003,3.9602563477e+003,3.9541025391e+003,3.9505129395e+003,
1.6796875000e+000,4.0437180176e+003,3.9929487305e+003,3.9989743652e+003,3.9621794434e+003,4.0498718262e+003,3.9896154785e+003,4.0148718262e+003,4.0048718262e+003,4.0170512695e+003,3.9900000000e+003,3.9991025391e+003,4.0091025391e+003,4.0067949219e+003,4.0011538086e+003,
1.6875000000e+000,4.3076923828e+003,4.2791025391e+003,4.2696152344e+003,4.2292309570e+003,4.2784614258e+003,4.2466665039e+003,4.2666665039e+003,4.2793588867e+003,4.2832050781e+003,4.2883334961e+003,4.2998715820e+003,4.2848715820e+003,4.2958974609e+003,4.2807690430e+003,
1.6953125000e+000,4.1667949219e+003,4.1356411133e+003,4.1365385742e+003,4.0925642090e+003,4.1492309570e+003,4.1101284180e+003,4.1308974609e+003,4.1438461914e+003,4.1488461914e+003,4.1452563477e+003,4.1566665039e+003,4.1487177734e+003,4.1584614258e+003,4.1441025391e+003,
1.7031250000e+000,4.1524360352e+003,4.1264101563e+003,4.1184614258e+003,4.0823076172e+003,4.1826923828e+003,4.1119228516e+003,4.1296152344e+003,4.1073076172e+003,4.1170512695e+003,4.1052563477e+003,4.1297436523e+003,4.1243588867e+003,4.1294873047e+003,4.1283334961e+003,
1.7109375000e+000,4.6421796875e+003,4.6384614258e+003,4.6058974609e+003,4.5624360352e+003,4.6388461914e+003,4.5832050781e+003,4.5934614258e+003,4.6016665039e+003,4.6002563477e+003,4.6306411133e+003,4.6438461914e+003,4.6257690430e+003,4.6384614258e+003,4.6214101563e+003,
1.7187500000e+000,4.5869228516e+003,4.5889741211e+003,4.5592309570e+003,4.5094873047e+003,4.5819228516e+003,4.5326923828e+003,4.5408974609e+003,4.5571796875e+003,4.5538461914e+003,4.5830771484e+003,4.5964101563e+003,4.5821796875e+003,4.5901284180e+003,4.5728203125e+003,
1.7265625000e+000,4.4441025391e+003,4.4634614258e+003,4.4364101563e+003,4.3962822266e+003,4.4866665039e+003,4.4193588867e+003,4.4225639648e+003,4.4248715820e+003,4.4187177734e+003,4.4379487305e+003,4.4676923828e+003,4.4512822266e+003,4.4500000000e+003,4.4456411133e+003,
1.7343750000e+000,4.4898715820e+003,4.5150000000e+003,4.4858974609e+003,4.4566665039e+003,4.5338461914e+003,4.4647436523e+003,4.4684614258e+003,4.4821796875e+003,4.4683334961e+003,4.4953847656e+003,4.5126923828e+003,4.5000000000e+003,4.5020512695e+003,4.4883334961e+003,
1.7421875000e+000,4.4074360352e+003,4.4347436523e+003,4.4060258789e+003,4.3732050781e+003,4.4416665039e+003,4.3861538086e+003,4.3894873047e+003,4.4041025391e+003,4.3916665039e+003,4.4123076172e+003,4.4280771484e+003,4.4203847656e+003,4.4210258789e+003,4.4070512695e+003,
1.7500000000e+000,4.3426923828e+003,4.3730771484e+003,4.3432050781e+003,4.3079487305e+003,4.3682050781e+003,4.3261538086e+003,4.3292309570e+003,4.3405126953e+003,4.3316665039e+003,4.3446152344e+003,4.3617949219e+003,4.3564101563e+003,4.3573076172e+003,4.3447436523e+003,
1.7578125000e+000,4.4002563477e+003,4.4312822266e+003,4.4025639648e+003,4.3653847656e+003,4.4197436523e+003,4.3810258789e+003,4.3866665039e+003,4.3915385742e+003,4.3869228516e+003,4.3958974609e+003,4.4189741211e+003,4.4101284180e+003,4.4141025391e+003,4.4055126953e+003,
1.7656250000e+000,4.4843588867e+003,4.5124360352e+003,4.4865385742e+003,4.4480771484e+003,4.5087177734e+003,4.4587177734e+003,4.4653847656e+003,4.4710258789e+003,4.4655126953e+003,4.4783334961e+003,4.5052563477e+003,4.4929487305e+003,4.4958974609e+003,4.4891025391e+003,
1.7734375000e+000,4.5925639648e+003,4.6233334961e+003,4.5958974609e+003,4.5562822266e+003,4.6398715820e+003,4.5656411133e+003,4.5679487305e+003,4.5783334961e+003,4.5701284180e+003,4.5929487305e+003,4.6275639648e+003,4.6069228516e+003,4.6066665039e+003,4.5984614258e+003,
1.7812500000e+000,4.6028203125e+003,4.6412822266e+003,4.6100000000e+003,4.5700000000e+003,4.6621796875e+003,4.5834614258e+003,4.5811538086e+003,4.5935898438e+003,4.5851284180e+003,4.6114101563e+003,4.6470512695e+003,4.6234614258e+003,4.6244873047e+003,4.6129487305e+003,
1.7890625000e+000,4.5952563477e+003,4.6502563477e+003,4.6189741211e+003,4.5608974609e+003,4.6634614258e+003,4.5848715820e+003,4.5808974609e+003,4.5988461914e+003,4.5882050781e+003,4.6161538086e+003,4.6460258789e+003,4.6233334961e+003,4.6323076172e+003,4.6183334961e+003,
1.7968750000e+000,4.5934614258e+003,4.6489741211e+003,4.6176923828e+003,4.5553847656e+003,4.6601284180e+003,4.5814101563e+003,4.5780771484e+003,4.5982050781e+003,4.5873076172e+003,4.6157690430e+003,4.6423076172e+003,4.6207690430e+003,4.6300000000e+003,4.6170512695e+003,
1.8046875000e+000,4.5747436523e+003,4.6302563477e+003,4.5988461914e+003,4.5378203125e+003,4.6383334961e+003,4.5658974609e+003,4.5612822266e+003,4.5826923828e+003,4.5723076172e+003,4.6016665039e+003,4.6233334961e+003,4.6044873047e+003,4.6112822266e+003,4.5991025391e+003,
1.8125000000e+000,4.4282050781e+003,4.4951284180e+003,4.4637177734e+003,4.4053847656e+003,4.5197436523e+003,4.4488461914e+003,4.4466665039e+003,4.4606411133e+003,4.4514101563e+003,4.4696152344e+003,4.4929487305e+003,4.4762822266e+003,4.4803847656e+003,4.4733334961e+003,
1.8203125000e+000,4.4029487305e+003,4.4708974609e+003,4.4374360352e+003,4.3816665039e+003,4.4912822266e+003,4.4212822266e+003,4.4223076172e+003,4.4379487305e+003,4.4266665039e+003,4.4455126953e+003,4.4680771484e+003,4.4484614258e+003,4.4515385742e+003,4.4470512695e+003,
1.8281250000e+000,4.2710258789e+003,4.3220512695e+003,4.3097436523e+003,4.2611538086e+003,4.3253847656e+003,4.2961538086e+003,4.3035898438e+003,4.3073076172e+003,4.2929487305e+003,4.3021796875e+003,4.3188461914e+003,4.3105126953e+003,4.3053847656e+003,4.3097436523e+003,
1.8359375000e+000,4.3243588867e+003,4.3760258789e+003,4.3535898438e+003,4.2982050781e+003,4.4419228516e+003,4.3376923828e+003,4.3434614258e+003,4.3533334961e+003,4.3444873047e+003,4.3450000000e+003,4.3743588867e+003,4.3589741211e+003,4.3621796875e+003,4.3620512695e+003,
1.8437500000e+000,4.3424360352e+003,4.3928203125e+003,4.3691025391e+003,4.3141025391e+003,4.4596152344e+003,4.3491025391e+003,4.3565385742e+003,4.3694873047e+003,4.3632050781e+003,4.3637177734e+003,4.3902563477e+003,4.3764101563e+003,4.3773076172e+003,4.3788461914e+003,
1.8515625000e+000,4.3270512695e+003,4.3665385742e+003,4.3573076172e+003,4.3016665039e+003,4.4012822266e+003,4.3334614258e+003,4.3423076172e+003,4.3537177734e+003,4.3537177734e+003,4.3573076172e+003,4.3664101563e+003,4.3597436523e+003,4.3644873047e+003,4.3628203125e+003,
1.8593750000e+000,4.2988461914e+003,4.3387177734e+003,4.3308974609e+003,4.2751284180e+003,4.3742309570e+003,4.3079487305e+003,4.3162822266e+003,4.3250000000e+003,4.3237177734e+003,4.3308974609e+003,4.3414101563e+003,4.3320512695e+003,4.3397436523e+003,4.3356411133e+003,
1.8671875000e+000,4.3128203125e+003,4.3552563477e+003,4.3389741211e+003,4.2880771484e+003,4.3926923828e+003,4.3192309570e+003,4.3273076172e+003,4.3270512695e+003,4.3214101563e+003,4.3350000000e+003,4.3546152344e+003,4.3374360352e+003,4.3480771484e+003,4.3439741211e+003,
1.8750000000e+000,4.3821796875e+003,4.4238461914e+003,4.4033334961e+003,4.3537177734e+003,4.4571796875e+003,4.3825639648e+003,4.3901284180e+003,4.3891025391e+003,4.3820512695e+003,4.3961538086e+003,4.4197436523e+003,4.4007690430e+003,4.4101284180e+003,4.4078203125e+003,
1.8828125000e+000,4.3842309570e+003,4.4202563477e+003,4.4114101563e+003,4.3594873047e+003,4.4510258789e+003,4.3721796875e+003,4.3797436523e+003,4.4052563477e+003,4.3955126953e+003,4.4019228516e+003,4.4214101563e+003,4.4124360352e+003,4.4042309570e+003,4.4096152344e+003,
1.8906250000e+000,4.2471796875e+003,4.2814101563e+003,4.2784614258e+003,4.2311538086e+003,4.3057690430e+003,4.2406411133e+003,4.2493588867e+003,4.2741025391e+003,4.2661538086e+003,4.2666665039e+003,4.2815385742e+003,4.2775639648e+003,4.2666665039e+003,4.2739741211e+003,
1.8984375000e+000,4.2839741211e+003,4.3156411133e+003,4.3060258789e+003,4.2705126953e+003,4.3196152344e+003,4.2869228516e+003,4.2980771484e+003,4.2852563477e+003,4.2815385742e+003,4.2758974609e+003,4.2984614258e+003,4.2911538086e+003,4.2950000000e+003,4.2961538086e+003,
1.9062500000e+000,4.6535898438e+003,4.6914101563e+003,4.6623076172e+003,4.6311538086e+003,4.6948715820e+003,4.6488461914e+003,4.6580771484e+003,4.6278203125e+003,4.6206411133e+003,4.6291025391e+003,4.6630771484e+003,4.6424360352e+003,4.6616665039e+003,4.6524360352e+003,
1.9140625000e+000,5.9182050781e+003,6.0273076172e+003,5.9183334961e+003,5.8930771484e+003,6.0524360352e+003,5.8865385742e+003,5.8619228516e+003,5.8971796875e+003,5.8602563477e+003,5.9769228516e+003,6.0039741211e+003,5.9258974609e+003,5.9680771484e+003,5.9200000000e+003,
1.9218750000e+000,5.7807690430e+003,5.9117949219e+003,5.8024360352e+003,5.7711538086e+003,5.9357690430e+003,5.7678203125e+003,5.7321796875e+003,5.8006411133e+003,5.7582050781e+003,5.8902563477e+003,5.9034614258e+003,5.8234614258e+003,5.8542309570e+003,5.8052563477e+003,
1.9296875000e+000,5.3616665039e+003,5.5005126953e+003,5.4106411133e+003,5.3674360352e+003,5.5212822266e+003,5.3783334961e+003,5.3401284180e+003,5.4206411133e+003,5.3785898438e+003,5.5000000000e+003,5.5060258789e+003,5.4364101563e+003,5.4524360352e+003,5.4102563477e+003,
1.9375000000e+000,4.6391025391e+003,4.7378203125e+003,4.7137177734e+003,4.6503847656e+003,4.7644873047e+003,4.6838461914e+003,4.6803847656e+003,4.6964101563e+003,4.6773076172e+003,4.7165385742e+003,4.7461538086e+003,4.7064101563e+003,4.7206411133e+003,4.6975639648e+003,
1.9453125000e+000,4.5800000000e+003,4.6743588867e+003,4.6571796875e+003,4.5941025391e+003,4.7042309570e+003,4.6252563477e+003,4.6203847656e+003,4.6444873047e+003,4.6256411133e+003,4.6657690430e+003,4.6862822266e+003,4.6512822266e+003,4.6596152344e+003,4.6429487305e+003,
1.9531250000e+000,4.6978203125e+003,4.7860258789e+003,4.7610258789e+003,4.7035898438e+003,4.8134614258e+003,4.7384614258e+003,4.7432050781e+003,4.7303847656e+003,4.7142309570e+003,4.7433334961e+003,4.7732050781e+003,4.7417949219e+003,4.7642309570e+003,4.7483334961e+003,
1.9609375000e+000,5.7155126953e+003,5.8560258789e+003,5.7632050781e+003,5.7129487305e+003,5.8425639648e+003,5.7351284180e+003,5.7119228516e+003,5.7407690430e+003,5.7032050781e+003,5.8115385742e+003,5.8512822266e+003,5.7683334961e+003,5.8111538086e+003,5.7655126953e+003,
1.9687500000e+000,5.6244873047e+003,5.7783334961e+003,5.6869228516e+003,5.6314101563e+003,5.7665385742e+003,5.6532050781e+003,5.6194873047e+003,5.6741025391e+003,5.6332050781e+003,5.7533334961e+003,5.7861538086e+003,5.6976923828e+003,5.7333334961e+003,5.6888461914e+003,
1.9765625000e+000,4.8003847656e+003,4.9567949219e+003,4.9067949219e+003,4.8515385742e+003,4.9811538086e+003,4.8814101563e+003,4.8585898438e+003,4.8897436523e+003,4.8582050781e+003,4.9246152344e+003,4.9473076172e+003,4.8928203125e+003,4.9134614258e+003,4.8888461914e+003,
1.9843750000e+000,4.7816665039e+003,4.9321796875e+003,4.8874360352e+003,4.8347436523e+003,4.9648715820e+003,4.8701284180e+003,4.8529487305e+003,4.8693588867e+003,4.8402563477e+003,4.8926923828e+003,4.9183334961e+003,4.8696152344e+003,4.8929487305e+003,4.8688461914e+003,
1.9921875000e+000,4.9211538086e+003,5.0564101563e+003,5.0201284180e+003,4.9643588867e+003,5.0985898438e+003,5.0079487305e+003,4.9900000000e+003,5.0148715820e+003,4.9867949219e+003,5.0397436523e+003,5.0657690430e+003,5.0121796875e+003,5.0378203125e+003,5.0097436523e+003,
2.0000000000e+000,4.8938461914e+003,5.0238461914e+003,4.9960258789e+003,4.9374360352e+003,5.0673076172e+003,4.9812822266e+003,4.9616665039e+003,4.9953847656e+003,4.9683334961e+003,5.0224360352e+003,5.0451284180e+003,4.9917949219e+003,5.0135898438e+003,4.9865385742e+003,
2.0078125000e+000,4.7138461914e+003,4.8556411133e+003,4.8243588867e+003,4.7737177734e+003,4.8789741211e+003,4.8106411133e+003,4.7971796875e+003,4.8224360352e+003,4.8000000000e+003,4.8408974609e+003,4.8602563477e+003,4.8137177734e+003,4.8293588867e+003,4.8133334961e+003,
2.0156250000e+000,4.7288461914e+003,4.8735898438e+003,4.8362822266e+003,4.7885898438e+003,4.8888461914e+003,4.8229487305e+003,4.8132050781e+003,4.8389741211e+003,4.8162822266e+003,4.8575639648e+003,4.8778203125e+003,4.8273076172e+003,4.8439741211e+003,4.8298715820e+003,
2.0234375000e+000,4.7019228516e+003,4.8320512695e+003,4.8076923828e+003,4.7555126953e+003,4.8458974609e+003,4.7858974609e+003,4.7829487305e+003,4.8123076172e+003,4.7893588867e+003,4.8332050781e+003,4.8547436523e+003,4.8025639648e+003,4.8184614258e+003,4.8039741211e+003,
2.0312500000e+000,4.6629487305e+003,4.7834614258e+003,4.7701284180e+003,4.7164101563e+003,4.8026923828e+003,4.7429487305e+003,4.7415385742e+003,4.7680771484e+003,4.7466665039e+003,4.7884614258e+003,4.8105126953e+003,4.7623076172e+003,4.7798715820e+003,4.7619228516e+003,
2.0390625000e+000,4.6433334961e+003,4.7666665039e+003,4.7496152344e+003,4.7178203125e+003,4.8060258789e+003,4.7266665039e+003,4.7206411133e+003,4.7410258789e+003,4.7221796875e+003,4.7564101563e+003,4.7784614258e+003,4.7344873047e+003,4.7583334961e+003,4.7356411133e+003,
2.0468750000e+000,4.6646152344e+003,4.7900000000e+003,4.7680771484e+003,4.7439741211e+003,4.8238461914e+003,4.7500000000e+003,4.7446152344e+003,4.7634614258e+003,4.7447436523e+003,4.7775639648e+003,4.8002563477e+003,4.7547436523e+003,4.7774360352e+003,4.7582050781e+003,
2.0546875000e+000,4.6941025391e+003,4.8182050781e+003,4.7944873047e+003,4.7744873047e+003,4.8365385742e+003,4.7788461914e+003,4.7753847656e+003,4.7928203125e+003,4.7751284180e+003,4.8064101563e+003,4.8298715820e+003,4.7829487305e+003,4.8056411133e+003,4.7879487305e+003,
2.0625000000e+000,4.6148715820e+003,4.7424360352e+003,4.7171796875e+003,4.6888461914e+003,4.7758974609e+003,4.6956411133e+003,4.6923076172e+003,4.7216665039e+003,4.7057690430e+003,4.7282050781e+003,4.7496152344e+003,4.7064101563e+003,4.7207690430e+003,4.7093588867e+003,
2.0703125000e+000,4.5379487305e+003,4.6602563477e+003,4.6415385742e+003,4.6134614258e+003,4.7120512695e+003,4.6224360352e+003,4.6188461914e+003,4.6497436523e+003,4.6335898438e+003,4.6512822266e+003,4.6743588867e+003,4.6302563477e+003,4.6400000000e+003,4.6328203125e+003,
2.0781250000e+000,4.5716665039e+003,4.6724360352e+003,4.6721796875e+003,4.6369228516e+003,4.7129487305e+003,4.6520512695e+003,4.6606411133e+003,4.6634614258e+003,4.6465385742e+003,4.6520512695e+003,4.6848715820e+003,4.6461538086e+003,4.6721796875e+003,4.6524360352e+003,
2.0859375000e+000,5.2114101563e+003,5.3447436523e+003,5.2973076172e+003,5.2658974609e+003,5.3606411133e+003,5.2760258789e+003,5.2664101563e+003,5.2929487305e+003,5.2662822266e+003,5.3243588867e+003,5.3391025391e+003,5.2850000000e+003,5.3178203125e+003,5.2901284180e+003,
2.0937500000e+000,5.1646152344e+003,5.3061538086e+003,5.2574360352e+003,5.2278203125e+003,5.3228203125e+003,5.2351284180e+003,5.2157690430e+003,5.2644873047e+003,5.2361538086e+003,5.3041025391e+003,5.3133334961e+003,5.2546152344e+003,5.2748715820e+003,5.2530771484e+003,
2.1015625000e+000,4.2861538086e+003,4.4030771484e+003,4.4152563477e+003,4.3737177734e+003,4.4276923828e+003,4.3894873047e+003,4.3816665039e+003,4.4189741211e+003,4.4035898438e+003,4.4097436523e+003,4.4355126953e+003,4.4082050781e+003,4.3971796875e+003,4.4019228516e+003,
2.1093750000e+000,4.1414101563e+003,4.2461538086e+003,4.2697436523e+003,4.2280771484e+003,4.2742309570e+003,4.2464101563e+003,4.2498715820e+003,4.2664101563e+003,4.2561538086e+003,4.2401284180e+003,4.2697436523e+003,4.2544873047e+003,4.2473076172e+003,4.2542309570e+003,
2.1171875000e+000,4.2083334961e+003,4.2923076172e+003,4.3223076172e+003,4.2870512695e+003,4.3178203125e+003,4.2971796875e+003,4.3144873047e+003,4.3128203125e+003,4.3053847656e+003,4.2806411133e+003,4.3043588867e+003,4.2974360352e+003,4.2987177734e+003,4.3044873047e+003,
2.1250000000e+000,4.2693588867e+003,4.3439741211e+003,4.3767949219e+003,4.3451284180e+003,4.3651284180e+003,4.3484614258e+003,4.3667949219e+003,4.3682050781e+003,4.3606411133e+003,4.3414101563e+003,4.3616665039e+003,4.3526923828e+003,4.3523076172e+003,4.3592309570e+003,
2.1328125000e+000,4.2488461914e+003,4.3125639648e+003,4.3378203125e+003,4.3207690430e+003,4.3357690430e+003,4.3123076172e+003,4.3291025391e+003,4.3451284180e+003,4.3383334961e+003,4.3221796875e+003,4.3410258789e+003,4.3298715820e+003,4.3244873047e+003,4.3353847656e+003,
2.1406250000e+000,4.2287177734e+003,4.2937177734e+003,4.3148715820e+003,4.3003847656e+003,4.3189741211e+003,4.2864101563e+003,4.3052563477e+003,4.3228203125e+003,4.3161538086e+003,4.2960258789e+003,4.3141025391e+003,4.3089741211e+003,4.3026923828e+003,4.3147436523e+003,
2.1484375000e+000,4.1808974609e+003,4.2408974609e+003,4.2705126953e+003,4.2610258789e+003,4.2691025391e+003,4.2324360352e+003,4.2498715820e+003,4.2642309570e+003,4.2598715820e+003,4.2332050781e+003,4.2555126953e+003,4.2542309570e+003,4.2443588867e+003,4.2633334961e+003,
2.1562500000e+000,4.1447436523e+003,4.1975639648e+003,4.2351284180e+003,4.2333334961e+003,4.2294873047e+003,4.1991025391e+003,4.2121796875e+003,4.2226923828e+003,4.2206411133e+003,4.1925639648e+003,4.2193588867e+003,4.2134614258e+003,4.2029487305e+003,4.2253847656e+003,
2.1640625000e+000,4.0001281738e+003,4.0253845215e+003,4.0742307129e+003,4.0852563477e+003,4.0747436523e+003,4.0489743652e+003,4.0664101563e+003,4.0715385742e+003,4.0720512695e+003,4.0373076172e+003,4.0635898438e+003,4.0633332520e+003,4.0508974609e+003,4.0746154785e+003,
2.1718750000e+000,3.9624357910e+003,3.9779487305e+003,4.0312819824e+003,4.0362819824e+003,4.0300000000e+003,4.0000000000e+003,4.0258974609e+003,4.0291025391e+003,4.0303845215e+003,3.9908974609e+003,4.0134614258e+003,4.0205129395e+003,4.0082050781e+003,4.0311538086e+003,
2.1796875000e+000,3.9533332520e+003,3.9597436523e+003,4.0185898438e+003,4.0189743652e+003,4.0088461914e+003,3.9803845215e+003,4.0120512695e+003,4.0117949219e+003,4.0152563477e+003,3.9711538086e+003,3.9917949219e+003,4.0028205566e+003,3.9915385742e+003,4.0141025391e+003,
2.1875000000e+000,3.9793588867e+003,3.9792307129e+003,4.0415385742e+003,4.0428205566e+003,4.0205129395e+003,4.0007692871e+003,4.0320512695e+003,4.0282050781e+003,4.0344870605e+003,3.9873076172e+003,4.0097436523e+003,4.0197436523e+003,4.0098718262e+003,4.0321794434e+003,
2.1953125000e+000,4.2042309570e+003,4.2083334961e+003,4.2380771484e+003,4.2387177734e+003,4.2435898438e+003,4.2134614258e+003,4.2319228516e+003,4.2335898438e+003,4.2344873047e+003,4.1966665039e+003,4.2296152344e+003,4.2274360352e+003,4.2335898438e+003,4.2392309570e+003,
2.2031250000e+000,4.4062822266e+003,4.4151284180e+003,4.4407690430e+003,4.4237177734e+003,4.4079487305e+003,4.4138461914e+003,4.4242309570e+003,4.4233334961e+003,4.4147436523e+003,4.4026923828e+003,4.4276923828e+003,4.4256411133e+003,4.4284614258e+003,4.4303847656e+003,
2.2109375000e+000,4.4655126953e+003,4.4783334961e+003,4.4991025391e+003,4.4847436523e+003,4.4773076172e+003,4.4760258789e+003,4.4807690430e+003,4.4808974609e+003,4.4701284180e+003,4.4619228516e+003,4.4962822266e+003,4.4864101563e+003,4.4893588867e+003,4.4893588867e+003,
2.2187500000e+000,4.4841025391e+003,4.5073076172e+003,4.5191025391e+003,4.5010258789e+003,4.5475639648e+003,4.5038461914e+003,4.5021796875e+003,4.5070512695e+003,4.4937177734e+003,4.4873076172e+003,4.5274360352e+003,4.5129487305e+003,4.5220512695e+003,4.5093588867e+003,
2.2265625000e+000,4.4680771484e+003,4.4935898438e+003,4.5053847656e+003,4.4826923828e+003,4.5488461914e+003,4.4914101563e+003,4.4889741211e+003,4.4946152344e+003,4.4826923828e+003,4.4769228516e+003,4.5110258789e+003,4.4996152344e+003,4.5111538086e+003,4.4926923828e+003,
2.2343750000e+000,4.4996152344e+003,4.5256411133e+003,4.5319228516e+003,4.5107690430e+003,4.5544873047e+003,4.5174360352e+003,4.5179487305e+003,4.5251284180e+003,4.5187177734e+003,4.5208974609e+003,4.5394873047e+003,4.5332050781e+003,4.5342309570e+003,4.5203847656e+003,
2.2421875000e+000,4.3750000000e+003,4.4035898438e+003,4.4083334961e+003,4.3873076172e+003,4.4287177734e+003,4.4051284180e+003,4.4079487305e+003,4.4160258789e+003,4.4066665039e+003,4.3951284180e+003,4.4185898438e+003,4.4187177734e+003,4.4156411133e+003,4.4050000000e+003,
2.2500000000e+000,4.3201284180e+003,4.3467949219e+003,4.3558974609e+003,4.3328203125e+003,4.3778203125e+003,4.3552563477e+003,4.3566665039e+003,4.3625639648e+003,4.3558974609e+003,4.3384614258e+003,4.3617949219e+003,4.3629487305e+003,4.3657690430e+003,4.3501284180e+003,
2.2578125000e+000,4.2444873047e+003,4.2616665039e+003,4.2814101563e+003,4.2466665039e+003,4.2682050781e+003,4.2741025391e+003,4.2796152344e+003,4.2797436523e+003,4.2766665039e+003,4.2494873047e+003,4.2732050781e+003,4.2817949219e+003,4.2785898438e+003,4.2691025391e+003,
2.2656250000e+000,4.2433334961e+003,4.2606411133e+003,4.2776923828e+003,4.2447436523e+003,4.2617949219e+003,4.2693588867e+003,4.2770512695e+003,4.2773076172e+003,4.2720512695e+003,4.2426923828e+003,4.2689741211e+003,4.2796152344e+003,4.2719228516e+003,4.2679487305e+003,
2.2734375000e+000,4.3048715820e+003,4.3253847656e+003,4.3307690430e+003,4.3124360352e+003,4.3392309570e+003,4.3275639648e+003,4.3325639648e+003,4.3348715820e+003,4.3274360352e+003,4.3010258789e+003,4.3308974609e+003,4.3371796875e+003,4.3356411133e+003,4.3284614258e+003,
2.2812500000e+000,4.3521796875e+003,4.3730771484e+003,4.3757690430e+003,4.3617949219e+003,4.3971796875e+003,4.3735898438e+003,4.3764101563e+003,4.3798715820e+003,4.3730771484e+003,4.3514101563e+003,4.3784614258e+003,4.3835898438e+003,4.3864101563e+003,4.3744873047e+003,
2.2890625000e+000,4.3576923828e+003,4.3758974609e+003,4.3832050781e+003,4.3567949219e+003,4.4155126953e+003,4.3782050781e+003,4.3789741211e+003,4.3866665039e+003,4.3820512695e+003,4.3632050781e+003,4.3835898438e+003,4.3889741211e+003,4.3850000000e+003,4.3769228516e+003,
2.2968750000e+000,4.3156411133e+003,4.3326923828e+003,4.3417949219e+003,4.3144873047e+003,4.3748715820e+003,4.3385898438e+003,4.3383334961e+003,4.3476923828e+003,4.3410258789e+003,4.3176923828e+003,4.3446152344e+003,4.3447436523e+003,4.3410258789e+003,4.3357690430e+003,
2.3046875000e+000,4.2721796875e+003,4.2875639648e+003,4.3000000000e+003,4.2760258789e+003,4.3287177734e+003,4.2970512695e+003,4.2974360352e+003,4.3078203125e+003,4.2982050781e+003,4.2701284180e+003,4.3039741211e+003,4.2998715820e+003,4.2993588867e+003,4.2946152344e+003,
2.3125000000e+000,4.2320512695e+003,4.2461538086e+003,4.2625639648e+003,4.2428203125e+003,4.2794873047e+003,4.2575639648e+003,4.2610258789e+003,4.2715385742e+003,4.2597436523e+003,4.2280771484e+003,4.2638461914e+003,4.2602563477e+003,4.2628203125e+003,4.2569228516e+003,
2.3203125000e+000,3.9891025391e+003,4.0038461914e+003,4.0165385742e+003,4.0006411133e+003,4.0276923828e+003,4.0266667480e+003,4.0400000000e+003,4.0403845215e+003,4.0392307129e+003,3.9901281738e+003,4.0074357910e+003,4.0192307129e+003,4.0141025391e+003,4.0088461914e+003,
2.3281250000e+000,3.9207692871e+003,3.9269230957e+003,3.9461538086e+003,3.9358974609e+003,3.9606411133e+003,3.9596154785e+003,3.9739743652e+003,3.9684614258e+003,3.9692307129e+003,3.9135898438e+003,3.9343588867e+003,3.9484614258e+003,3.9397436523e+003,3.9383332520e+003,
2.3359375000e+000,3.9334614258e+003,3.9102563477e+003,3.9455129395e+003,3.9470512695e+003,3.9247436523e+003,3.9505129395e+003,3.9744870605e+003,3.9620512695e+003,3.9643588867e+003,3.9019230957e+003,3.9243588867e+003,3.9452563477e+003,3.9367949219e+003,3.9397436523e+003,
2.3437500000e+000,3.9844870605e+003,3.9541025391e+003,3.9882050781e+003,3.9705129395e+003,4.0151281738e+003,3.9919230957e+003,4.0128205566e+003,4.0044870605e+003,4.0061538086e+003,3.9458974609e+003,3.9767949219e+003,3.9889743652e+003,3.9784614258e+003,3.9825642090e+003,
2.3515625000e+000,3.9685898438e+003,3.9387180176e+003,3.9724357910e+003,3.9552563477e+003,4.0052563477e+003,3.9771794434e+003,3.9957692871e+003,3.9861538086e+003,3.9882050781e+003,3.9285898438e+003,3.9625642090e+003,3.9719230957e+003,3.9607692871e+003,3.9628205566e+003,
2.3593750000e+000,3.9564101563e+003,3.9234614258e+003,3.9529487305e+003,3.9482050781e+003,3.9420512695e+003,3.9551281738e+003,3.9787180176e+003,3.9729487305e+003,3.9766667480e+003,3.9155129395e+003,3.9407692871e+003,3.9564101563e+003,3.9434614258e+003,3.9420512695e+003,
2.3671875000e+000,3.9528205566e+003,3.9120512695e+003,3.9420512695e+003,3.9223076172e+003,3.9655129395e+003,3.9400000000e+003,3.9611538086e+003,3.9611538086e+003,3.9652563477e+003,3.9070512695e+003,3.9350000000e+003,3.9457692871e+003,3.9407692871e+003,3.9470512695e+003,
2.3750000000e+000,3.9052563477e+003,3.8617949219e+003,3.8961538086e+003,3.8720512695e+003,3.9196154785e+003,3.8925642090e+003,3.9117949219e+003,3.9111538086e+003,3.9183332520e+003,3.8584614258e+003,3.8866667480e+003,3.8982050781e+003,3.8934614258e+003,3.9001281738e+003,
2.3828125000e+000,3.7725642090e+003,3.7074357910e+003,3.7593588867e+003,3.7333332520e+003,3.7173076172e+003,3.7532050781e+003,3.7820512695e+003,3.7707692871e+003,3.7825642090e+003,3.7024357910e+003,3.7287180176e+003,3.7576923828e+003,3.7442307129e+003,3.7564101563e+003,
2.3906250000e+000,3.7823076172e+003,3.7138461914e+003,3.7642307129e+003,3.7400000000e+003,3.7216667480e+003,3.7587180176e+003,3.7898718262e+003,3.7793588867e+003,3.7894870605e+003,3.7093588867e+003,3.7343588867e+003,3.7646154785e+003,3.7497436523e+003,3.7632050781e+003,
2.3984375000e+000,3.7671794434e+003,3.6988461914e+003,3.7494870605e+003,3.7196154785e+003,3.7375642090e+003,3.7383332520e+003,3.7679487305e+003,3.7614101563e+003,3.7726923828e+003,3.7008974609e+003,3.7266667480e+003,3.7532050781e+003,3.7296154785e+003,3.7480769043e+003,
2.4062500000e+000,3.7135898438e+003,3.6402563477e+003,3.6976923828e+003,3.6637180176e+003,3.6948718262e+003,3.6815385742e+003,3.7108974609e+003,3.7025642090e+003,3.7175642090e+003,3.6443588867e+003,3.6741025391e+003,3.7012819824e+003,3.6705129395e+003,3.6943588867e+003,
2.4140625000e+000,3.5616667480e+003,3.4550000000e+003,3.5307692871e+003,3.5019230957e+003,3.4942307129e+003,3.5084614258e+003,3.5505129395e+003,3.5330769043e+003,3.5525642090e+003,3.4512819824e+003,3.4866667480e+003,3.5320512695e+003,3.4935898438e+003,3.5287180176e+003,
2.4218750000e+000,3.5607692871e+003,3.4497436523e+003,3.5250000000e+003,3.4973076172e+003,3.4816667480e+003,3.5039743652e+003,3.5479487305e+003,3.5303845215e+003,3.5470512695e+003,3.4428205566e+003,3.4738461914e+003,3.5242307129e+003,3.4875642090e+003,3.5237180176e+003,
2.4296875000e+000,3.5774357910e+003,3.4670512695e+003,3.5406411133e+003,3.5111538086e+003,3.5015385742e+003,3.5215385742e+003,3.5633332520e+003,3.5460256348e+003,3.5600000000e+003,3.4593588867e+003,3.4847436523e+003,3.5364101563e+003,3.5019230957e+003,3.5385898438e+003,
2.4375000000e+000,3.5960256348e+003,3.4874357910e+003,3.5608974609e+003,3.5280769043e+003,3.5302563477e+003,3.5430769043e+003,3.5797436523e+003,3.5628205566e+003,3.5760256348e+003,3.4819230957e+003,3.5021794434e+003,3.5528205566e+003,3.5202563477e+003,3.5564101563e+003,
2.4453125000e+000,3.6478205566e+003,3.5375642090e+003,3.6078205566e+003,3.5746154785e+003,3.5491025391e+003,3.5835898438e+003,3.6200000000e+003,3.6042307129e+003,3.6201281738e+003,3.5319230957e+003,3.5585898438e+003,3.6067949219e+003,3.5744870605e+003,3.6017949219e+003,
2.4531250000e+000,3.6850000000e+003,3.5773076172e+003,3.6380769043e+003,3.6069230957e+003,3.5839743652e+003,3.6135898438e+003,3.6515385742e+003,3.6387180176e+003,3.6561538086e+003,3.5685898438e+003,3.5961538086e+003,3.6414101563e+003,3.6111538086e+003,3.6355129395e+003,
2.4609375000e+000,3.7058974609e+003,3.5960256348e+003,3.6562819824e+003,3.6343588867e+003,3.6437180176e+003,3.6315385742e+003,3.6666667480e+003,3.6570512695e+003,3.6819230957e+003,3.6014101563e+003,3.6229487305e+003,3.6592307129e+003,3.6303845215e+003,3.6553845215e+003,
2.4687500000e+000,3.6934614258e+003,3.5812819824e+003,3.6379487305e+003,3.6352563477e+003,3.5982050781e+003,3.6124357910e+003,3.6488461914e+003,3.6325642090e+003,3.6544870605e+003,3.5770512695e+003,3.5971794434e+003,3.6347436523e+003,3.6108974609e+003,3.6293588867e+003,
2.4765625000e+000,3.7267949219e+003,3.6185898438e+003,3.6660256348e+003,3.6623076172e+003,3.6165385742e+003,3.6412819824e+003,3.6746154785e+003,3.6607692871e+003,3.6835898438e+003,3.6070512695e+003,3.6232050781e+003,3.6594870605e+003,3.6434614258e+003,3.6565385742e+003,
2.4843750000e+000,3.7980769043e+003,3.6925642090e+003,3.7369230957e+003,3.7179487305e+003,3.7183332520e+003,3.7123076172e+003,3.7407692871e+003,3.7287180176e+003,3.7547436523e+003,3.6850000000e+003,3.7037180176e+003,3.7288461914e+003,3.7206411133e+003,3.7306411133e+003,
2.4921875000e+000,3.8093588867e+003,3.7035898438e+003,3.7425642090e+003,3.7397436523e+003,3.7297436523e+003,3.7202563477e+003,3.7492307129e+003,3.7376923828e+003,3.7585898438e+003,3.6914101563e+003,3.7206411133e+003,3.7366667480e+003,3.7208974609e+003,3.7400000000e+003,
2.5000000000e+000,3.8456411133e+003,3.7394870605e+003,3.7782050781e+003,3.7752563477e+003,3.7507692871e+003,3.7525642090e+003,3.7810256348e+003,3.7703845215e+003,3.7898718262e+003,3.7228205566e+003,3.7489743652e+003,3.7702563477e+003,3.7514101563e+003,3.7737180176e+003,
2.5078125000e+000,3.9594870605e+003,3.8601281738e+003,3.8944870605e+003,3.8811538086e+003,3.8653845215e+003,3.8665385742e+003,3.8914101563e+003,3.8792307129e+003,3.8960256348e+003,3.8433332520e+003,3.8589743652e+003,3.8879487305e+003,3.8702563477e+003,3.8867949219e+003,
2.5156250000e+000,3.9653845215e+003,3.8715385742e+003,3.9008974609e+003,3.8869230957e+003,3.8829487305e+003,3.8757692871e+003,3.9000000000e+003,3.8862819824e+003,3.9005129395e+003,3.8507692871e+003,3.8666667480e+003,3.8960256348e+003,3.8797436523e+003,3.8938461914e+003,
2.5234375000e+000,4.0012819824e+003,3.9185898438e+003,3.9364101563e+003,3.9246154785e+003,3.9338461914e+003,3.9144870605e+003,3.9362819824e+003,3.9207692871e+003,3.9320512695e+003,3.8815385742e+003,3.8956411133e+003,3.9289743652e+003,3.9133332520e+003,3.9269230957e+003,
2.5312500000e+000,4.0462819824e+003,3.9682050781e+003,3.9797436523e+003,3.9701281738e+003,3.9816667480e+003,3.9596154785e+003,3.9793588867e+003,3.9639743652e+003,3.9758974609e+003,3.9270512695e+003,3.9406411133e+003,3.9710256348e+003,3.9561538086e+003,3.9698718262e+003,
2.5390625000e+000,4.1075639648e+003,4.0326923828e+003,4.0425642090e+003,4.0237180176e+003,4.0376923828e+003,4.0242307129e+003,4.0442307129e+003,4.0278205566e+003,4.0382050781e+003,4.0024357910e+003,4.0261538086e+003,4.0355129395e+003,4.0217949219e+003,4.0320512695e+003,
2.5468750000e+000,4.1155126953e+003,4.0391025391e+003,4.0532050781e+003,4.0287180176e+003,4.0450000000e+003,4.0333332520e+003,4.0543588867e+003,4.0370512695e+003,4.0446154785e+003,4.0101281738e+003,4.0352563477e+003,4.0443588867e+003,4.0314101563e+003,4.0407692871e+003,
2.5546875000e+000,4.1483334961e+003,4.0717949219e+003,4.0878205566e+003,4.0629487305e+003,4.0811538086e+003,4.0683332520e+003,4.0885898438e+003,4.0721794434e+003,4.0765385742e+003,4.0429487305e+003,4.0669230957e+003,4.0778205566e+003,4.0662819824e+003,4.0746154785e+003,
2.5625000000e+000,4.2000000000e+003,4.1257690430e+003,4.1406411133e+003,4.1205126953e+003,4.1392309570e+003,4.1250000000e+003,4.1420512695e+003,4.1291025391e+003,4.1302563477e+003,4.0989741211e+003,4.1208974609e+003,4.1323076172e+003,4.1212822266e+003,4.1287177734e+003,
2.5703125000e+000,4.2266665039e+003,4.1741025391e+003,4.1744873047e+003,4.1553847656e+003,4.1728203125e+003,4.1705126953e+003,4.1785898438e+003,4.1774360352e+003,4.1801284180e+003,4.1608974609e+003,4.1723076172e+003,4.1742309570e+003,4.1606411133e+003,4.1658974609e+003,
2.5781250000e+000,4.1905126953e+003,4.1415385742e+003,4.1403847656e+003,4.1188461914e+003,4.1279487305e+003,4.1330771484e+003,4.1433334961e+003,4.1414101563e+003,4.1457690430e+003,4.1232050781e+003,4.1300000000e+003,4.1350000000e+003,4.1269228516e+003,4.1280771484e+003,
2.5859375000e+000,4.1560258789e+003,4.1112822266e+003,4.1155126953e+003,4.1088461914e+003,4.1065385742e+003,4.1110258789e+003,4.1228203125e+003,4.1083334961e+003,4.1132050781e+003,4.0761538086e+003,4.0926923828e+003,4.1058974609e+003,4.1035898438e+003,4.1005126953e+003,
2.5937500000e+000,4.3478203125e+003,4.3105126953e+003,4.3055126953e+003,4.3048715820e+003,4.3356411133e+003,4.3050000000e+003,4.3098715820e+003,4.3001284180e+003,4.3043588867e+003,4.2839741211e+003,4.3082050781e+003,4.3066665039e+003,4.2958974609e+003,4.3020512695e+003,
2.6015625000e+000,4.3674360352e+003,4.3323076172e+003,4.3270512695e+003,4.3273076172e+003,4.3455126953e+003,4.3228203125e+003,4.3280771484e+003,4.3232050781e+003,4.3243588867e+003,4.3106411133e+003,4.3298715820e+003,4.3300000000e+003,4.3160258789e+003,4.3230771484e+003,
2.6093750000e+000,4.2871796875e+003,4.2557690430e+003,4.2544873047e+003,4.2612822266e+003,4.2625639648e+003,4.2533334961e+003,4.2579487305e+003,4.2566665039e+003,4.2489741211e+003,4.2367949219e+003,4.2552563477e+003,4.2608974609e+003,4.2475639648e+003,4.2480771484e+003,
2.6171875000e+000,4.3144873047e+003,4.2929487305e+003,4.2829487305e+003,4.2843588867e+003,4.3078203125e+003,4.2878203125e+003,4.2883334961e+003,4.2900000000e+003,4.2855126953e+003,4.2579487305e+003,4.2853847656e+003,4.2887177734e+003,4.2671796875e+003,4.2748715820e+003,
2.6250000000e+000,4.3283334961e+003,4.3112822266e+003,4.2978203125e+003,4.2998715820e+003,4.3129487305e+003,4.3016665039e+003,4.3017949219e+003,4.3075639648e+003,4.3024360352e+003,4.2771796875e+003,4.3000000000e+003,4.3019228516e+003,4.2835898438e+003,4.2905126953e+003,
2.6328125000e+000,4.3239741211e+003,4.3100000000e+003,4.2962822266e+003,4.3021796875e+003,4.3050000000e+003,4.2998715820e+003,4.3000000000e+003,4.3093588867e+003,4.3026923828e+003,4.2852563477e+003,4.3000000000e+003,4.2991025391e+003,4.2882050781e+003,4.2902563477e+003,
2.6406250000e+000,4.2875639648e+003,4.2724360352e+003,4.2674360352e+003,4.2826923828e+003,4.2796152344e+003,4.2724360352e+003,4.2753847656e+003,4.2816665039e+003,4.2739741211e+003,4.2700000000e+003,4.2737177734e+003,4.2687177734e+003,4.2710258789e+003,4.2630771484e+003,
2.6484375000e+000,4.3864101563e+003,4.3819228516e+003,4.3671796875e+003,4.3756411133e+003,4.3723076172e+003,4.3752563477e+003,4.3762822266e+003,4.3762822266e+003,4.3676923828e+003,4.3517949219e+003,4.3773076172e+003,4.3660258789e+003,4.3605126953e+003,4.3617949219e+003,
2.6562500000e+000,4.4242309570e+003,4.4261538086e+003,4.4064101563e+003,4.4088461914e+003,4.4167949219e+003,4.4119228516e+003,4.4098715820e+003,4.4139741211e+003,4.4032050781e+003,4.3880771484e+003,4.4175639648e+003,4.4042309570e+003,4.3939741211e+003,4.4000000000e+003,
2.6640625000e+000,4.4315385742e+003,4.4355126953e+003,4.4169228516e+003,4.4158974609e+003,4.4373076172e+003,4.4175639648e+003,4.4134614258e+003,4.4214101563e+003,4.4092309570e+003,4.3994873047e+003,4.4260258789e+003,4.4139741211e+003,4.4001284180e+003,4.4097436523e+003,
2.6718750000e+000,4.3908974609e+003,4.3896152344e+003,4.3802563477e+003,4.3853847656e+003,4.4147436523e+003,4.3753847656e+003,4.3720512695e+003,4.3792309570e+003,4.3701284180e+003,4.3703847656e+003,4.3835898438e+003,4.3789741211e+003,4.3652563477e+003,4.3742309570e+003,
2.6796875000e+000,4.3815385742e+003,4.3789741211e+003,4.3679487305e+003,4.3792309570e+003,4.4034614258e+003,4.3658974609e+003,4.3637177734e+003,4.3678203125e+003,4.3614101563e+003,4.3619228516e+003,4.3733334961e+003,4.3692309570e+003,4.3589741211e+003,4.3647436523e+003,
2.6875000000e+000,4.3898715820e+003,4.3894873047e+003,4.3726923828e+003,4.3875639648e+003,4.4076923828e+003,4.3739741211e+003,4.3729487305e+003,4.3747436523e+003,4.3693588867e+003,4.3679487305e+003,4.3828203125e+003,4.3764101563e+003,4.3693588867e+003,4.3732050781e+003,
2.6953125000e+000,4.3056411133e+003,4.3158974609e+003,4.3139741211e+003,4.3194873047e+003,4.3361538086e+003,4.3135898438e+003,4.3147436523e+003,4.3283334961e+003,4.3246152344e+003,4.3119228516e+003,4.3271796875e+003,4.3143588867e+003,4.3096152344e+003,4.3115385742e+003,
2.7031250000e+000,4.2679487305e+003,4.2729487305e+003,4.2766665039e+003,4.2832050781e+003,4.2934614258e+003,4.2830771484e+003,4.2826923828e+003,4.2957690430e+003,4.2919228516e+003,4.2753847656e+003,4.2848715820e+003,4.2776923828e+003,4.2700000000e+003,4.2717949219e+003,
2.7109375000e+000,4.3974360352e+003,4.4046152344e+003,4.3942309570e+003,4.4070512695e+003,4.4316665039e+003,4.4061538086e+003,4.4056411133e+003,4.4096152344e+003,4.4024360352e+003,4.3901284180e+003,4.4047436523e+003,4.3957690430e+003,4.3866665039e+003,4.3898715820e+003,
2.7187500000e+000,4.4850000000e+003,4.5102563477e+003,4.4848715820e+003,4.5066665039e+003,4.5284614258e+003,4.4946152344e+003,4.4908974609e+003,4.5033334961e+003,4.4962822266e+003,4.4944873047e+003,4.5053847656e+003,4.4933334961e+003,4.4865385742e+003,4.4862822266e+003,
2.7265625000e+000,4.4855126953e+003,4.5132050781e+003,4.4867949219e+003,4.5098715820e+003,4.5252563477e+003,4.4958974609e+003,4.4907690430e+003,4.5035898438e+003,4.4955126953e+003,4.4934614258e+003,4.5053847656e+003,4.4942309570e+003,4.4879487305e+003,4.4862822266e+003,
2.7343750000e+000,4.6652563477e+003,4.7047436523e+003,4.6714101563e+003,4.6925639648e+003,4.7002563477e+003,4.6670512695e+003,4.6623076172e+003,4.6717949219e+003,4.6512822266e+003,4.6547436523e+003,4.6855126953e+003,4.6624360352e+003,4.6693588867e+003,4.6616665039e+003,
2.7421875000e+000,4.7355126953e+003,4.7808974609e+003,4.7455126953e+003,4.7675639648e+003,4.7764101563e+003,4.7401284180e+003,4.7325639648e+003,4.7435898438e+003,4.7197436523e+003,4.7280771484e+003,4.7626923828e+003,4.7347436523e+003,4.7426923828e+003,4.7351284180e+003,
2.7500000000e+000,4.7791025391e+003,4.8353847656e+003,4.7937177734e+003,4.8196152344e+003,4.8250000000e+003,4.7914101563e+003,4.7746152344e+003,4.7919228516e+003,4.7692309570e+003,4.7882050781e+003,4.8193588867e+003,4.7844873047e+003,4.7897436523e+003,4.7828203125e+003,
2.7578125000e+000,4.7716665039e+003,4.8311538086e+003,4.7857690430e+003,4.8114101563e+003,4.8051284180e+003,4.7816665039e+003,4.7644873047e+003,4.7821796875e+003,4.7601284180e+003,4.7829487305e+003,4.8110258789e+003,4.7764101563e+003,4.7798715820e+003,4.7738461914e+003,
2.7656250000e+000,4.8115385742e+003,4.8667949219e+003,4.8246152344e+003,4.8297436523e+003,4.8082050781e+003,4.7992309570e+003,4.7937177734e+003,4.8006411133e+003,4.7728203125e+003,4.7944873047e+003,4.8323076172e+003,4.8047436523e+003,4.8006411133e+003,4.8053847656e+003,
2.7734375000e+000,4.8253847656e+003,4.8814101563e+003,4.8405126953e+003,4.8403847656e+003,4.8392309570e+003,4.8141025391e+003,4.8066665039e+003,4.8134614258e+003,4.7856411133e+003,4.8056411133e+003,4.8456411133e+003,4.8184614258e+003,4.8120512695e+003,4.8197436523e+003,
2.7812500000e+000,4.8335898438e+003,4.9042309570e+003,4.8534614258e+003,4.8569228516e+003,4.9008974609e+003,4.8342309570e+003,4.8216665039e+003,4.8297436523e+003,4.8044873047e+003,4.8251284180e+003,4.8602563477e+003,4.8348715820e+003,4.8243588867e+003,4.8339741211e+003,
2.7890625000e+000,4.8507690430e+003,4.9308974609e+003,4.8707690430e+003,4.8785898438e+003,4.9303847656e+003,4.8533334961e+003,4.8419228516e+003,4.8498715820e+003,4.8238461914e+003,4.8464101563e+003,4.8805126953e+003,4.8550000000e+003,4.8443588867e+003,4.8538461914e+003,
2.7968750000e+000,4.7865385742e+003,4.8760258789e+003,4.8126923828e+003,4.8178203125e+003,4.8238461914e+003,4.7944873047e+003,4.7830771484e+003,4.8000000000e+003,4.7707690430e+003,4.7908974609e+003,4.8329487305e+003,4.7970512695e+003,4.7932050781e+003,4.7994873047e+003,
2.8046875000e+000,4.6630771484e+003,4.7455126953e+003,4.6993588867e+003,4.6973076172e+003,4.6857690430e+003,4.6797436523e+003,4.6674360352e+003,4.6860258789e+003,4.6596152344e+003,4.6732050781e+003,4.7165385742e+003,4.6823076172e+003,4.6762822266e+003,4.6829487305e+003,
2.8125000000e+000,4.5287177734e+003,4.6003847656e+003,4.5742309570e+003,4.5655126953e+003,4.5484614258e+003,4.5523076172e+003,4.5420512695e+003,4.5575639648e+003,4.5356411133e+003,4.5415385742e+003,4.5848715820e+003,4.5556411133e+003,4.5460258789e+003,4.5544873047e+003,
2.8203125000e+000,4.4353847656e+003,4.4964101563e+003,4.4842309570e+003,4.4725639648e+003,4.4638461914e+003,4.4607690430e+003,4.4553847656e+003,4.4641025391e+003,4.4464101563e+003,4.4462822266e+003,4.4888461914e+003,4.4647436523e+003,4.4526923828e+003,4.4633334961e+003,
2.8281250000e+000,4.5351284180e+003,4.5956411133e+003,4.5708974609e+003,4.5642309570e+003,4.5762822266e+003,4.5605126953e+003,4.5574360352e+003,4.5503847656e+003,4.5350000000e+003,4.5298715820e+003,4.5721796875e+003,4.5488461914e+003,4.5485898438e+003,4.5561538086e+003,
2.8359375000e+000,4.7884614258e+003,4.8755126953e+003,4.8342309570e+003,4.8317949219e+003,4.8814101563e+003,4.8341025391e+003,4.8175639648e+003,4.8176923828e+003,4.7941025391e+003,4.8069228516e+003,4.8451284180e+003,4.8215385742e+003,4.8191025391e+003,4.8238461914e+003,
2.8437500000e+000,4.8242309570e+003,4.9130771484e+003,4.8705126953e+003,4.8652563477e+003,4.9253847656e+003,4.8682050781e+003,4.8533334961e+003,4.8544873047e+003,4.8297436523e+003,4.8484614258e+003,4.8878203125e+003,4.8608974609e+003,4.8566665039e+003,4.8603847656e+003,
2.8515625000e+000,4.7843588867e+003,4.8741025391e+003,4.8370512695e+003,4.8293588867e+003,4.8529487305e+003,4.8274360352e+003,4.8187177734e+003,4.8232050781e+003,4.7952563477e+003,4.8225639648e+003,4.8576923828e+003,4.8247436523e+003,4.8279487305e+003,4.8232050781e+003,
2.8593750000e+000,4.5265385742e+003,4.6135898438e+003,4.5951284180e+003,4.5708974609e+003,4.6257690430e+003,4.5892309570e+003,4.5791025391e+003,4.5934614258e+003,4.5751284180e+003,4.5685898438e+003,4.6128203125e+003,4.5823076172e+003,4.5821796875e+003,4.5848715820e+003,
2.8671875000e+000,4.4725639648e+003,4.5571796875e+003,4.5406411133e+003,4.5134614258e+003,4.5817949219e+003,4.5394873047e+003,4.5297436523e+003,4.5407690430e+003,4.5248715820e+003,4.5138461914e+003,4.5564101563e+003,4.5273076172e+003,4.5262822266e+003,4.5305126953e+003,
2.8750000000e+000,4.3824360352e+003,4.4543588867e+003,4.4453847656e+003,4.4285898438e+003,4.4605126953e+003,4.4474360352e+003,4.4414101563e+003,4.4471796875e+003,4.4329487305e+003,4.4233334961e+003,4.4533334961e+003,4.4311538086e+003,4.4335898438e+003,4.4324360352e+003,
2.8828125000e+000,4.3282050781e+003,4.3887177734e+003,4.3907690430e+003,4.3784614258e+003,4.3826923828e+003,4.3887177734e+003,4.3851284180e+003,4.3907690430e+003,4.3778203125e+003,4.3638461914e+003,4.3901284180e+003,4.3765385742e+003,4.3766665039e+003,4.3751284180e+003,
2.8906250000e+000,4.2280771484e+003,4.2652563477e+003,4.2894873047e+003,4.2692309570e+003,4.2846152344e+003,4.2807690430e+003,4.2807690430e+003,4.2847436523e+003,4.2789741211e+003,4.2389741211e+003,4.2812822266e+003,4.2784614258e+003,4.2630771484e+003,4.2732050781e+003,
2.8984375000e+000,4.2457690430e+003,4.2828203125e+003,4.3021796875e+003,4.2807690430e+003,4.3142309570e+003,4.2964101563e+003,4.2965385742e+003,4.2976923828e+003,4.2915385742e+003,4.2534614258e+003,4.3008974609e+003,4.2942309570e+003,4.2779487305e+003,4.2879487305e+003,
2.9062500000e+000,4.3087177734e+003,4.3429487305e+003,4.3534614258e+003,4.3341025391e+003,4.3625639648e+003,4.3503847656e+003,4.3510258789e+003,4.3460258789e+003,4.3365385742e+003,4.3129487305e+003,4.3551284180e+003,4.3516665039e+003,4.3397436523e+003,4.3379487305e+003,
2.9140625000e+000,4.3329487305e+003,4.3634614258e+003,4.3735898438e+003,4.3561538086e+003,4.3666665039e+003,4.3698715820e+003,4.3707690430e+003,4.3642309570e+003,4.3553847656e+003,4.3346152344e+003,4.3706411133e+003,4.3735898438e+003,4.3653847656e+003,4.3558974609e+003,
2.9218750000e+000,4.2984614258e+003,4.3339741211e+003,4.3408974609e+003,4.3297436523e+003,4.3310258789e+003,4.3357690430e+003,4.3394873047e+003,4.3378203125e+003,4.3337177734e+003,4.2997436523e+003,4.3356411133e+003,4.3456411133e+003,4.3366665039e+003,4.3292309570e+003,
2.9296875000e+000,4.2632050781e+003,4.2994873047e+003,4.3080771484e+003,4.2953847656e+003,4.3116665039e+003,4.3007690430e+003,4.3058974609e+003,4.3046152344e+003,4.3007690430e+003,4.2624360352e+003,4.3041025391e+003,4.3141025391e+003,4.2987177734e+003,4.2988461914e+003,
2.9375000000e+000,4.2384614258e+003,4.2698715820e+003,4.2837177734e+003,4.2703847656e+003,4.2969228516e+003,4.2743588867e+003,4.2794873047e+003,4.2773076172e+003,4.2742309570e+003,4.2332050781e+003,4.2787177734e+003,4.2906411133e+003,4.2694873047e+003,4.2734614258e+003,
2.9453125000e+000,4.0229487305e+003,4.0343588867e+003,4.0597436523e+003,4.0971796875e+003,4.0221794434e+003,4.0589743652e+003,4.0630769043e+003,4.0664101563e+003,4.0666667480e+003,4.0153845215e+003,4.0426923828e+003,4.0656411133e+003,4.0434614258e+003,4.0398718262e+003,
2.9531250000e+000,3.9626923828e+003,3.9723076172e+003,3.9962819824e+003,4.0333332520e+003,3.9689743652e+003,3.9953845215e+003,4.0034614258e+003,4.0042307129e+003,4.0055129395e+003,3.9467949219e+003,3.9785898438e+003,3.9982050781e+003,3.9807692871e+003,3.9788461914e+003,
2.9609375000e+000,4.0428205566e+003,4.0303845215e+003,4.0588461914e+003,4.0926923828e+003,4.0670512695e+003,4.0561538086e+003,4.0712819824e+003,4.0620512695e+003,4.0632050781e+003,4.0011538086e+003,4.0312819824e+003,4.0560256348e+003,4.0343588867e+003,4.0439743652e+003,
2.9687500000e+000,4.0951281738e+003,4.0801281738e+003,4.1067949219e+003,4.1448715820e+003,4.1055126953e+003,4.1039741211e+003,4.1196152344e+003,4.1121796875e+003,4.1134614258e+003,4.0557692871e+003,4.0807692871e+003,4.1066665039e+003,4.0800000000e+003,4.0926923828e+003,
2.9765625000e+000,4.1239741211e+003,4.1119228516e+003,4.1311538086e+003,4.1688461914e+003,4.1146152344e+003,4.1305126953e+003,4.1462822266e+003,4.1444873047e+003,4.1462822266e+003,4.0924357910e+003,4.1141025391e+003,4.1355126953e+003,4.1128203125e+003,4.1197436523e+003,
2.9843750000e+000,4.2348715820e+003,4.2228203125e+003,4.2335898438e+003,4.2593588867e+003,4.2603847656e+003,4.2316665039e+003,4.2394873047e+003,4.2424360352e+003,4.2410258789e+003,4.1861538086e+003,4.2225639648e+003,4.2352563477e+003,4.2230771484e+003,4.2284614258e+003,
2.9921875000e+000,4.2383334961e+003,4.2252563477e+003,4.2392309570e+003,4.2651284180e+003,4.2588461914e+003,4.2332050781e+003,4.2410258789e+003,4.2487177734e+003,4.2482050781e+003,4.1948715820e+003,4.2302563477e+003,4.2414101563e+003,4.2246152344e+003,4.2333334961e+003,
3.0000000000e+000,4.1460258789e+003,4.1247436523e+003,4.1565385742e+003,4.1696152344e+003,4.1464101563e+003,4.1457690430e+003,4.1561538086e+003,4.1625639648e+003,4.1673076172e+003,4.1115385742e+003,4.1402563477e+003,4.1556411133e+003,4.1348715820e+003,4.1437177734e+003,
3.0078125000e+000,4.1015385742e+003,4.0755129395e+003,4.1124360352e+003,4.1225639648e+003,4.0926923828e+003,4.1055126953e+003,4.1164101563e+003,4.1170512695e+003,4.1247436523e+003,4.0660256348e+003,4.0920512695e+003,4.1111538086e+003,4.0919230957e+003,4.0985898438e+003,
3.0156250000e+000,4.0730769043e+003,4.0416667480e+003,4.0729487305e+003,4.1062822266e+003,4.0539743652e+003,4.0791025391e+003,4.0912819824e+003,4.0891025391e+003,4.0966665039e+003,4.0320512695e+003,4.0614101563e+003,4.0853845215e+003,4.0608974609e+003,4.0701281738e+003,
3.0234375000e+000,4.0562819824e+003,4.0216667480e+003,4.0579487305e+003,4.0916667480e+003,4.0448718262e+003,4.0589743652e+003,4.0730769043e+003,4.0719230957e+003,4.0785898438e+003,4.0120512695e+003,4.0448718262e+003,4.0705129395e+003,4.0416667480e+003,4.0544870605e+003,
3.0312500000e+000,4.0042307129e+003,3.9632050781e+003,4.0083332520e+003,4.0283332520e+003,4.0107692871e+003,4.0000000000e+003,4.0142307129e+003,4.0117949219e+003,4.0184614258e+003,3.9503845215e+003,3.9829487305e+003,4.0130769043e+003,3.9829487305e+003,4.0001281738e+003,
3.0390625000e+000,3.9797436523e+003,3.9373076172e+003,3.9811538086e+003,3.9955129395e+003,3.9815385742e+003,3.9739743652e+003,3.9867949219e+003,3.9841025391e+003,3.9907692871e+003,3.9224357910e+003,3.9523076172e+003,3.9852563477e+003,3.9555129395e+003,3.9728205566e+003,
3.0468750000e+000,3.9596154785e+003,3.9111538086e+003,3.9535898438e+003,3.9632050781e+003,3.9125642090e+003,3.9514101563e+003,3.9679487305e+003,3.9634614258e+003,3.9701281738e+003,3.8980769043e+003,3.9328205566e+003,3.9660256348e+003,3.9332050781e+003,3.9461538086e+003,
3.0546875000e+000,3.9826923828e+003,3.9319230957e+003,3.9750000000e+003,3.9841025391e+003,3.9341025391e+003,3.9732050781e+003,3.9903845215e+003,3.9833332520e+003,3.9903845215e+003,3.9208974609e+003,3.9575642090e+003,3.9852563477e+003,3.9561538086e+003,3.9678205566e+003,
3.0625000000e+000,4.0155129395e+003,3.9633332520e+003,4.0051281738e+003,4.0139743652e+003,3.9730769043e+003,4.0042307129e+003,4.0203845215e+003,4.0102563477e+003,4.0171794434e+003,3.9529487305e+003,3.9884614258e+003,4.0111538086e+003,3.9866667480e+003,3.9987180176e+003,
3.0703125000e+000,4.0523076172e+003,3.9998718262e+003,4.0380769043e+003,4.0480769043e+003,4.0180769043e+003,4.0382050781e+003,4.0532050781e+003,4.0400000000e+003,4.0460256348e+003,3.9874357910e+003,4.0194870605e+003,4.0411538086e+003,4.0187180176e+003,4.0323076172e+003,
3.0781250000e+000,4.1807690430e+003,4.1315385742e+003,4.1548715820e+003,4.1853847656e+003,4.1679487305e+003,4.1643588867e+003,4.1701284180e+003,4.1666665039e+003,4.1667949219e+003,4.1093588867e+003,4.1446152344e+003,4.1597436523e+003,4.1430771484e+003,4.1491025391e+003,
3.0859375000e+000,4.1657690430e+003,4.1205126953e+003,4.1439741211e+003,4.1744873047e+003,4.1501284180e+003,4.1575639648e+003,4.1602563477e+003,4.1582050781e+003,4.1578203125e+003,4.1007690430e+003,4.1406411133e+003,4.1480771484e+003,4.1321796875e+003,4.1382050781e+003,
3.0937500000e+000,4.0492307129e+003,4.0087180176e+003,4.0317949219e+003,4.0533332520e+003,4.0212819824e+003,4.0384614258e+003,4.0469230957e+003,4.0405129395e+003,4.0479487305e+003,3.9891025391e+003,4.0153845215e+003,4.0342307129e+003,4.0070512695e+003,4.0230769043e+003,
3.1015625000e+000,3.9258974609e+003,3.8742307129e+003,3.9088461914e+003,3.9230769043e+003,3.9246154785e+003,3.9037180176e+003,3.9205129395e+003,3.9133332520e+003,3.9278205566e+003,3.8489743652e+003,3.8778205566e+003,3.9035898438e+003,3.8797436523e+003,3.8975642090e+003,
3.1093750000e+000,3.7817949219e+003,3.7110256348e+003,3.7629487305e+003,3.7723076172e+003,3.7116667480e+003,3.7587180176e+003,3.7798718262e+003,3.7693588867e+003,3.7850000000e+003,3.7087180176e+003,3.7380769043e+003,3.7635898438e+003,3.7362819824e+003,3.7628205566e+003,
3.1171875000e+000,3.7535898438e+003,3.6806411133e+003,3.7324357910e+003,3.7482050781e+003,3.6860256348e+003,3.7239743652e+003,3.7482050781e+003,3.7394870605e+003,3.7557692871e+003,3.6776923828e+003,3.7000000000e+003,3.7350000000e+003,3.7058974609e+003,3.7339743652e+003,
3.1250000000e+000,3.7588461914e+003,3.6783332520e+003,3.7275642090e+003,3.7487180176e+003,3.7188461914e+003,3.7219230957e+003,3.7485898438e+003,3.7355129395e+003,3.7496154785e+003,3.6647436523e+003,3.6878205566e+003,3.7325642090e+003,3.7047436523e+003,3.7365385742e+003,
3.1328125000e+000,3.8043588867e+003,3.7156411133e+003,3.7669230957e+003,3.7855129395e+003,3.7679487305e+003,3.7666667480e+003,3.7912819824e+003,3.7764101563e+003,3.7870512695e+003,3.7025642090e+003,3.7292307129e+003,3.7730769043e+003,3.7458974609e+003,3.7794870605e+003,
3.1406250000e+000,3.8948718262e+003,3.7908974609e+003,3.8574357910e+003,3.8744870605e+003,3.8246154785e+003,3.8533332520e+003,3.8724357910e+003,3.8614101563e+003,3.8651281738e+003,3.7926923828e+003,3.8212819824e+003,3.8598718262e+003,3.8264101563e+003,3.8605129395e+003,
3.1484375000e+000,3.8908974609e+003,3.7964101563e+003,3.8543588867e+003,3.8770512695e+003,3.8191025391e+003,3.8491025391e+003,3.8688461914e+003,3.8552563477e+003,3.8606411133e+003,3.7907692871e+003,3.8212819824e+003,3.8550000000e+003,3.8253845215e+003,3.8535898438e+003,
3.1562500000e+000,3.9534614258e+003,3.8865385742e+003,3.9065385742e+003,3.9403845215e+003,3.9076923828e+003,3.9133332520e+003,3.9344870605e+003,3.9114101563e+003,3.9191025391e+003,3.8557692871e+003,3.8880769043e+003,3.9105129395e+003,3.8973076172e+003,3.9100000000e+003,
3.1640625000e+000,4.0384614258e+003,3.9762819824e+003,3.9835898438e+003,4.0192307129e+003,4.0050000000e+003,3.9966667480e+003,4.0171794434e+003,3.9921794434e+003,3.9979487305e+003,3.9403845215e+003,3.9702563477e+003,3.9893588867e+003,3.9815385742e+003,3.9912819824e+003,
3.1718750000e+000,4.2947436523e+003,4.2239741211e+003,4.2339741211e+003,4.2625639648e+003,4.2391025391e+003,4.2424360352e+003,4.2521796875e+003,4.2415385742e+003,4.2405126953e+003,4.2014101563e+003,4.2337177734e+003,4.2332050781e+003,4.2265385742e+003,4.2397436523e+003,
3.1796875000e+000,4.3091025391e+003,4.2439741211e+003,4.2525639648e+003,4.2776923828e+003,4.2466665039e+003,4.2578203125e+003,4.2646152344e+003,4.2584614258e+003,4.2574360352e+003,4.2216665039e+003,4.2558974609e+003,4.2528203125e+003,4.2452563477e+003,4.2564101563e+003,
3.1875000000e+000,4.2974360352e+003,4.2408974609e+003,4.2455126953e+003,4.2666665039e+003,4.2396152344e+003,4.2496152344e+003,4.2553847656e+003,4.2496152344e+003,4.2489741211e+003,4.2146152344e+003,4.2466665039e+003,4.2485898438e+003,4.2406411133e+003,4.2487177734e+003,
3.1953125000e+000,4.2961538086e+003,4.2461538086e+003,4.2466665039e+003,4.2638461914e+003,4.2525639648e+003,4.2514101563e+003,4.2575639648e+003,4.2488461914e+003,4.2483334961e+003,4.2148715820e+003,4.2417949219e+003,4.2520512695e+003,4.2451284180e+003,4.2498715820e+003,
3.2031250000e+000,4.5691025391e+003,4.5364101563e+003,4.5208974609e+003,4.5239741211e+003,4.5578203125e+003,4.5333334961e+003,4.5276923828e+003,4.5183334961e+003,4.5138461914e+003,4.5029487305e+003,4.5411538086e+003,4.5262822266e+003,4.5278203125e+003,4.5239741211e+003,
3.2109375000e+000,4.6157690430e+003,4.5979487305e+003,4.5742309570e+003,4.5748715820e+003,4.6050000000e+003,4.5857690430e+003,4.5769228516e+003,4.5715385742e+003,4.5633334961e+003,4.5587177734e+003,4.6028203125e+003,4.5810258789e+003,4.5802563477e+003,4.5758974609e+003,
3.2187500000e+000,4.7171796875e+003,4.7238461914e+003,4.6908974609e+003,4.6953847656e+003,4.7307690430e+003,4.6932050781e+003,4.6823076172e+003,4.6897436523e+003,4.6714101563e+003,4.6743588867e+003,4.7105126953e+003,4.6953847656e+003,4.6974360352e+003,4.6857690430e+003,
3.2265625000e+000,4.8255126953e+003,4.8438461914e+003,4.8074360352e+003,4.8188461914e+003,4.8255126953e+003,4.8115385742e+003,4.7960258789e+003,4.8041025391e+003,4.7820512695e+003,4.8038461914e+003,4.8487177734e+003,4.8210258789e+003,4.8292309570e+003,4.8161538086e+003,
3.2343750000e+000,4.8144873047e+003,4.8441025391e+003,4.8012822266e+003,4.8116665039e+003,4.8158974609e+003,4.8092309570e+003,4.7906411133e+003,4.8015385742e+003,4.7757690430e+003,4.8042309570e+003,4.8493588867e+003,4.8196152344e+003,4.8271796875e+003,4.8150000000e+003,
3.2421875000e+000,4.7352563477e+003,4.7793588867e+003,4.7396152344e+003,4.7329487305e+003,4.7717949219e+003,4.7444873047e+003,4.7301284180e+003,4.7383334961e+003,4.7096152344e+003,4.7319228516e+003,4.7765385742e+003,4.7534614258e+003,4.7542309570e+003,4.7516665039e+003,
3.2500000000e+000,4.7114101563e+003,4.7621796875e+003,4.7320512695e+003,4.7198715820e+003,4.7625639648e+003,4.7300000000e+003,4.7114101563e+003,4.7269228516e+003,4.7020512695e+003,4.7302563477e+003,4.7755126953e+003,4.7424360352e+003,4.7511538086e+003,4.7414101563e+003,
3.2578125000e+000,4.6680771484e+003,4.7175639648e+003,4.6923076172e+003,4.6782050781e+003,4.7211538086e+003,4.6916665039e+003,4.6685898438e+003,4.6885898438e+003,4.6641025391e+003,4.6920512695e+003,4.7320512695e+003,4.7033334961e+003,4.7097436523e+003,4.7015385742e+003,
3.2656250000e+000,4.4967949219e+003,4.5323076172e+003,4.5226923828e+003,4.5107690430e+003,4.5579487305e+003,4.5262822266e+003,4.5069228516e+003,4.5214101563e+003,4.5088461914e+003,4.5082050781e+003,4.5462822266e+003,4.5297436523e+003,4.5316665039e+003,4.5323076172e+003,
3.2734375000e+000,4.4398715820e+003,4.4752563477e+003,4.4664101563e+003,4.4578203125e+003,4.4979487305e+003,4.4693588867e+003,4.4546152344e+003,4.4670512695e+003,4.4578203125e+003,4.4493588867e+003,4.4878203125e+003,4.4725639648e+003,4.4748715820e+003,4.4751284180e+003,
3.2812500000e+000,4.3537177734e+003,4.3876923828e+003,4.3815385742e+003,4.3662822266e+003,4.3946152344e+003,4.3811538086e+003,4.3734614258e+003,4.3837177734e+003,4.3742309570e+003,4.3591025391e+003,4.3924360352e+003,4.3888461914e+003,4.3821796875e+003,4.3892309570e+003,
3.2890625000e+000,4.3497436523e+003,4.3807690430e+003,4.3756411133e+003,4.3537177734e+003,4.3838461914e+003,4.3752563477e+003,4.3692309570e+003,4.3765385742e+003,4.3673076172e+003,4.3491025391e+003,4.3817949219e+003,4.3830771484e+003,4.3720512695e+003,4.3844873047e+003,
3.2968750000e+000,4.5007690430e+003,4.5335898438e+003,4.5191025391e+003,4.5093588867e+003,4.5315385742e+003,4.5219228516e+003,4.5156411133e+003,4.5135898438e+003,4.5078203125e+003,4.4856411133e+003,4.5347436523e+003,4.5182050781e+003,4.5198715820e+003,4.5279487305e+003,
3.3046875000e+000,4.5685898438e+003,4.6024360352e+003,4.5865385742e+003,4.5846152344e+003,4.5987177734e+003,4.5887177734e+003,4.5802563477e+003,4.5807690430e+003,4.5719228516e+003,4.5544873047e+003,4.6052563477e+003,4.5841025391e+003,4.5878203125e+003,4.5917949219e+003,
3.3125000000e+000,4.6267949219e+003,4.6610258789e+003,4.6441025391e+003,4.6457690430e+003,4.6565385742e+003,4.6470512695e+003,4.6352563477e+003,4.6411538086e+003,4.6279487305e+003,4.6173076172e+003,4.6646152344e+003,4.6437177734e+003,4.6444873047e+003,4.6465385742e+003,
3.3203125000e+000,4.6629487305e+003,4.6992309570e+003,4.6796152344e+003,4.6807690430e+003,4.6938461914e+003,4.6857690430e+003,4.6701284180e+003,4.6820512695e+003,4.6658974609e+003,4.6619228516e+003,4.7034614258e+003,4.6834614258e+003,4.6800000000e+003,4.6819228516e+003,
3.3281250000e+000,4.5860258789e+003,4.6346152344e+003,4.6202563477e+003,4.5980771484e+003,4.6371796875e+003,4.6253847656e+003,4.6098715820e+003,4.6193588867e+003,4.6060258789e+003,4.6006411133e+003,4.6333334961e+003,4.6111538086e+003,4.6202563477e+003,4.6169228516e+003,
3.3359375000e+000,4.6058974609e+003,4.6537177734e+003,4.6397436523e+003,4.6166665039e+003,4.6694873047e+003,4.6441025391e+003,4.6293588867e+003,4.6371796875e+003,4.6230771484e+003,4.6157690430e+003,4.6469228516e+003,4.6291025391e+003,4.6380771484e+003,4.6365385742e+003,
3.3437500000e+000,4.6932050781e+003,4.7511538086e+003,4.7200000000e+003,4.7107690430e+003,4.7597436523e+003,4.7369228516e+003,4.7182050781e+003,4.7316665039e+003,4.7133334961e+003,4.7075639648e+003,4.7567949219e+003,4.7262822266e+003,4.7284614258e+003,4.7330771484e+003,
3.3515625000e+000,4.6234614258e+003,4.6894873047e+003,4.6606411133e+003,4.6469228516e+003,4.6734614258e+003,4.6714101563e+003,4.6526923828e+003,4.6689741211e+003,4.6511538086e+003,4.6512822266e+003,4.6915385742e+003,4.6521796875e+003,4.6683334961e+003,4.6617949219e+003,
3.3593750000e+000,4.6146152344e+003,4.6798715820e+003,4.6546152344e+003,4.6387177734e+003,4.6684614258e+003,4.6619228516e+003,4.6457690430e+003,4.6611538086e+003,4.6433334961e+003,4.6450000000e+003,4.6760258789e+003,4.6423076172e+003,4.6594873047e+003,4.6534614258e+003,
3.3671875000e+000,4.6260258789e+003,4.6925639648e+003,4.6674360352e+003,4.6566665039e+003,4.6880771484e+003,4.6789741211e+003,4.6630771484e+003,4.6742309570e+003,4.6593588867e+003,4.6539741211e+003,4.6974360352e+003,4.6673076172e+003,4.6742309570e+003,4.6782050781e+003,
3.3750000000e+000,4.5401284180e+003,4.5979487305e+003,4.5900000000e+003,4.5602563477e+003,4.6110258789e+003,4.5998715820e+003,4.5798715820e+003,4.5996152344e+003,4.5880771484e+003,4.5744873047e+003,4.6171796875e+003,4.5874360352e+003,4.5925639648e+003,4.5921796875e+003,
3.3828125000e+000,4.5203847656e+003,4.5752563477e+003,4.5739741211e+003,4.5391025391e+003,4.5873076172e+003,4.5821796875e+003,4.5650000000e+003,4.5828203125e+003,4.5712822266e+003,4.5565385742e+003,4.5937177734e+003,4.5684614258e+003,4.5725639648e+003,4.5732050781e+003,
3.3906250000e+000,4.5289741211e+003,4.5846152344e+003,4.5820512695e+003,4.5496152344e+003,4.5934614258e+003,4.5930771484e+003,4.5775639648e+003,4.5920512695e+003,4.5800000000e+003,4.5653847656e+003,4.5998715820e+003,4.5769228516e+003,4.5812822266e+003,4.5837177734e+003,
3.3984375000e+000,4.5714101563e+003,4.6348715820e+003,4.6158974609e+003,4.5974360352e+003,4.6479487305e+003,4.6382050781e+003,4.6183334961e+003,4.6324360352e+003,4.6178203125e+003,4.6058974609e+003,4.6420512695e+003,4.6205126953e+003,4.6232050781e+003,4.6301284180e+003,
3.4062500000e+000,4.4517949219e+003,4.5082050781e+003,4.4950000000e+003,4.4700000000e+003,4.5248715820e+003,4.5041025391e+003,4.4897436523e+003,4.5097436523e+003,4.4946152344e+003,4.4787177734e+003,4.5216665039e+003,4.5042309570e+003,4.4984614258e+003,4.5067949219e+003,
3.4140625000e+000,4.4088461914e+003,4.4624360352e+003,4.4520512695e+003,4.4242309570e+003,4.4673076172e+003,4.4578203125e+003,4.4488461914e+003,4.4666665039e+003,4.4537177734e+003,4.4351284180e+003,4.4807690430e+003,4.4610258789e+003,4.4580771484e+003,4.4643588867e+003,
3.4218750000e+000,4.3937177734e+003,4.4474360352e+003,4.4361538086e+003,4.4060258789e+003,4.4397436523e+003,4.4433334961e+003,4.4371796875e+003,4.4519228516e+003,4.4397436523e+003,4.4208974609e+003,4.4673076172e+003,4.4462822266e+003,4.4469228516e+003,4.4523076172e+003,
3.4296875000e+000,4.4234614258e+003,4.4783334961e+003,4.4651284180e+003,4.4288461914e+003,4.4706411133e+003,4.4751284180e+003,4.4687177734e+003,4.4792309570e+003,4.4633334961e+003,4.4524360352e+003,4.4921796875e+003,4.4769228516e+003,4.4798715820e+003,4.4893588867e+003,
