Time (s);AF3;F7;F3;FC5;T7;P7;O1;O2;P8;T8;FC6;F4;F8;AF4;Sampling Rate
0.0000000000e+000;3.8576923828e+003;3.8605129395e+003;3.8680769043e+003;3.8814101563e+003;3.8816667480e+003;3.8966667480e+003;3.8929487305e+003;3.8820512695e+003;3.8914101563e+003;3.8829487305e+003;3.8691025391e+003;3.8841025391e+003;3.8750000000e+003;3.8703845215e+003;128
7.8125000000e-003;3.8692307129e+003;3.8739743652e+003;3.8834614258e+003;3.8921794434e+003;3.8957692871e+003;3.9084614258e+003;3.9034614258e+003;3.8957692871e+003;3.9060256348e+003;3.9015385742e+003;3.8814101563e+003;3.8965385742e+003;3.8871794434e+003;3.8816667480e+003;
1.5625000000e-002;3.8188461914e+003;3.8137180176e+003;3.8301281738e+003;3.8342307129e+003;3.8305129395e+003;3.8584614258e+003;3.8478205566e+003;3.8414101563e+003;3.8512819824e+003;3.8350000000e+003;3.8200000000e+003;3.8370512695e+003;3.8215385742e+003;3.8203845215e+003;
2.3437500000e-002;3.8165385742e+003;3.8052563477e+003;3.8260256348e+003;3.8283332520e+003;3.8264101563e+003;3.8562819824e+003;3.8469230957e+003;3.8417949219e+003;3.8519230957e+003;3.8342307129e+003;3.8210256348e+003;3.8367949219e+003;3.8193588867e+003;3.8196154785e+003;
3.1250000000e-002;3.7519230957e+003;3.7406411133e+003;3.7637180176e+003;3.7766667480e+003;3.7544870605e+003;3.7934614258e+003;3.7884614258e+003;3.7721794434e+003;3.7803845215e+003;3.7666667480e+003;3.7576923828e+003;3.7765385742e+003;3.7571794434e+003;3.7632050781e+003;
3.9062500000e-002;3.7737180176e+003;3.7641025391e+003;3.7864101563e+003;3.7925642090e+003;3.7788461914e+003;3.8093588867e+003;3.7985898438e+003;3.7897436523e+003;3.7948718262e+003;3.7821794434e+003;3.7653845215e+003;3.7901281738e+003;3.7724357910e+003;3.7743588867e+003;
4.6875000000e-002;3.7689743652e+003;3.7558974609e+003;3.7837180176e+003;3.7865385742e+003;3.7711538086e+003;3.8061538086e+003;3.7941025391e+003;3.7811538086e+003;3.7846154785e+003;3.7743588867e+003;3.7592307129e+003;3.7833332520e+003;3.7644870605e+003;3.7669230957e+003;
5.4687500000e-002;3.8326923828e+003;3.8165385742e+003;3.8458974609e+003;3.8546154785e+003;3.8185898438e+003;3.8498718262e+003;3.8441025391e+003;3.8323076172e+003;3.8348718262e+003;3.8396154785e+003;3.8306411133e+003;3.8507692871e+003;3.8333332520e+003;3.8347436523e+003;
6.2500000000e-002;3.8119230957e+003;3.7976923828e+003;3.8248718262e+003;3.8369230957e+003;3.8030769043e+003;3.8257692871e+003;3.8202563477e+003;3.8130769043e+003;3.8158974609e+003;3.8203845215e+003;3.8126923828e+003;3.8346154785e+003;3.8160256348e+003;3.8171794434e+003;
7.0312500000e-002;3.8300000000e+003;3.8234614258e+003;3.8370512695e+003;3.8455129395e+003;3.8487180176e+003;3.8319230957e+003;3.8284614258e+003;3.8253845215e+003;3.8312819824e+003;3.8353845215e+003;3.8302563477e+003;3.8542307129e+003;3.8314101563e+003;3.8333332520e+003;
7.8125000000e-002;3.8023076172e+003;3.7893588867e+003;3.8173076172e+003;3.8178205566e+003;3.8032050781e+003;3.8134614258e+003;3.8085898438e+003;3.7984614258e+003;3.8062819824e+003;3.8075642090e+003;3.7969230957e+003;3.8257692871e+003;3.8029487305e+003;3.8001281738e+003;
8.5937500000e-002;3.8189743652e+003;3.8055129395e+003;3.8348718262e+003;3.8383332520e+003;3.8208974609e+003;3.8347436523e+003;3.8316667480e+003;3.8187180176e+003;3.8266667480e+003;3.8233332520e+003;3.8116667480e+003;3.8379487305e+003;3.8215385742e+003;3.8125642090e+003;
9.3750000000e-002;3.8532050781e+003;3.8420512695e+003;3.8673076172e+003;3.8748718262e+003;3.8615385742e+003;3.8714101563e+003;3.8696154785e+003;3.8593588867e+003;3.8667949219e+003;3.8608974609e+003;3.8465385742e+003;3.8698718262e+003;3.8578205566e+003;3.8442307129e+003;
1.0156250000e-001;3.8230769043e+003;3.8182050781e+003;3.8350000000e+003;3.8465385742e+003;3.8424357910e+003;3.8538461914e+003;3.8447436523e+003;3.8397436523e+003;3.8473076172e+003;3.8398718262e+003;3.8214101563e+003;3.8475642090e+003;3.8267949219e+003;3.8169230957e+003;
1.0937500000e-001;3.7753845215e+003;3.7711538086e+003;3.7875642090e+003;3.7983332520e+003;3.7943588867e+003;3.8142307129e+003;3.7996154785e+003;3.7891025391e+003;3.7992307129e+003;3.7897436523e+003;3.7734614258e+003;3.8037180176e+003;3.7765385742e+003;3.7711538086e+003;
1.1718750000e-001;3.7610256348e+003;3.7561538086e+003;3.7730769043e+003;3.7823076172e+003;3.7775642090e+003;3.8033332520e+003;3.7855129395e+003;3.7687180176e+003;3.7826923828e+003;3.7710256348e+003;3.7580769043e+003;3.7903845215e+003;3.7605129395e+003;3.7574357910e+003;
1.2500000000e-001;3.7801281738e+003;3.7767949219e+003;3.7991025391e+003;3.8142307129e+003;3.8066667480e+003;3.8216667480e+003;3.8097436523e+003;3.7976923828e+003;3.8157692871e+003;3.7956411133e+003;3.7884614258e+003;3.8101281738e+003;3.7897436523e+003;3.7792307129e+003;
1.3281250000e-001;3.8130769043e+003;3.8096154785e+003;3.8320512695e+003;3.8416667480e+003;3.8365385742e+003;3.8517949219e+003;3.8412819824e+003;3.8311538086e+003;3.8485898438e+003;3.8298718262e+003;3.8221794434e+003;3.8426923828e+003;3.8220512695e+003;3.8130769043e+003;
1.4062500000e-001;3.8025642090e+003;3.7984614258e+003;3.8270512695e+003;3.8230769043e+003;3.8203845215e+003;3.8435898438e+003;3.8330769043e+003;3.8315385742e+003;3.8417949219e+003;3.8279487305e+003;3.8164101563e+003;3.8425642090e+003;3.8139743652e+003;3.8076923828e+003;
1.4843750000e-001;3.7625642090e+003;3.7591025391e+003;3.7897436523e+003;3.7844870605e+003;3.7837180176e+003;3.8071794434e+003;3.7992307129e+003;3.7964101563e+003;3.8002563477e+003;3.7853845215e+003;3.7764101563e+003;3.8055129395e+003;3.7751281738e+003;3.7676923828e+003;
1.5625000000e-001;3.7961538086e+003;3.7878205566e+003;3.8197436523e+003;3.8200000000e+003;3.8035898438e+003;3.8307692871e+003;3.8311538086e+003;3.8291025391e+003;3.8180769043e+003;3.8062819824e+003;3.8032050781e+003;3.8335898438e+003;3.8065385742e+003;3.7953845215e+003;
1.6406250000e-001;3.7203845215e+003;3.7126923828e+003;3.7410256348e+003;3.7507692871e+003;3.7171794434e+003;3.7520512695e+003;3.7505129395e+003;3.7444870605e+003;3.7302563477e+003;3.7283332520e+003;3.7223076172e+003;3.7582050781e+003;3.7288461914e+003;3.7203845215e+003;
1.7187500000e-001;3.7416667480e+003;3.7379487305e+003;3.7602563477e+003;3.7669230957e+003;3.7543588867e+003;3.7660256348e+003;3.7670512695e+003;3.7597436523e+003;3.7474357910e+003;3.7476923828e+003;3.7423076172e+003;3.7765385742e+003;3.7496154785e+003;3.7407692871e+003;
1.7968750000e-001;3.7742307129e+003;3.7666667480e+003;3.7971794434e+003;3.7939743652e+003;3.7921794434e+003;3.7911538086e+003;3.7870512695e+003;3.7793588867e+003;3.7788461914e+003;3.7761538086e+003;3.7765385742e+003;3.8092307129e+003;3.7776923828e+003;3.7700000000e+003;
1.8750000000e-001;3.7884614258e+003;3.7801281738e+003;3.8105129395e+003;3.8088461914e+003;3.7951281738e+003;3.8056411133e+003;3.7994870605e+003;3.7864101563e+003;3.7933332520e+003;3.7900000000e+003;3.7908974609e+003;3.8215385742e+003;3.7912819824e+003;3.7828205566e+003;
1.9531250000e-001;3.8383332520e+003;3.8388461914e+003;3.8597436523e+003;3.8625642090e+003;3.8546154785e+003;3.8557692871e+003;3.8469230957e+003;3.8394870605e+003;3.8628205566e+003;3.8633332520e+003;3.8482050781e+003;3.8723076172e+003;3.8535898438e+003;3.8394870605e+003;
2.0312500000e-001;3.8108974609e+003;3.8137180176e+003;3.8374357910e+003;3.8396154785e+003;3.8356411133e+003;3.8347436523e+003;3.8239743652e+003;3.8175642090e+003;3.8406411133e+003;3.8384614258e+003;3.8228205566e+003;3.8461538086e+003;3.8288461914e+003;3.8120512695e+003;
2.1093750000e-001;3.8405129395e+003;3.8432050781e+003;3.8707692871e+003;3.8635898438e+003;3.8619230957e+003;3.8666667480e+003;3.8519230957e+003;3.8434614258e+003;3.8714101563e+003;3.8664101563e+003;3.8553845215e+003;3.8721794434e+003;3.8585898438e+003;3.8346154785e+003;
2.1875000000e-001;3.8708974609e+003;3.8717949219e+003;3.8985898438e+003;3.8883332520e+003;3.8851281738e+003;3.8944870605e+003;3.8761538086e+003;3.8689743652e+003;3.9033332520e+003;3.9001281738e+003;3.8880769043e+003;3.9016667480e+003;3.8889743652e+003;3.8648718262e+003;
2.2656250000e-001;3.8655129395e+003;3.8650000000e+003;3.8910256348e+003;3.8826923828e+003;3.8751281738e+003;3.8894870605e+003;3.8674357910e+003;3.8612819824e+003;3.9011538086e+003;3.8988461914e+003;3.8838461914e+003;3.8970512695e+003;3.8832050781e+003;3.8632050781e+003;
2.3437500000e-001;3.8367949219e+003;3.8358974609e+003;3.8614101563e+003;3.8582050781e+003;3.8467949219e+003;3.8630769043e+003;3.8396154785e+003;3.8321794434e+003;3.8739743652e+003;3.8700000000e+003;3.8530769043e+003;3.8676923828e+003;3.8523076172e+003;3.8379487305e+003;
2.4218750000e-001;3.8614101563e+003;3.8576923828e+003;3.8819230957e+003;3.8834614258e+003;3.8774357910e+003;3.8837180176e+003;3.8721794434e+003;3.8703845215e+003;3.8924357910e+003;3.8870512695e+003;3.8693588867e+003;3.8851281738e+003;3.8720512695e+003;3.8521794434e+003;
2.5000000000e-001;3.8310256348e+003;3.8262819824e+003;3.8506411133e+003;3.8534614258e+003;3.8393588867e+003;3.8598718262e+003;3.8493588867e+003;3.8456411133e+003;3.8619230957e+003;3.8564101563e+003;3.8411538086e+003;3.8579487305e+003;3.8442307129e+003;3.8238461914e+003;
2.5781250000e-001;3.8646154785e+003;3.8666667480e+003;3.8884614258e+003;3.8847436523e+003;3.8815385742e+003;3.8967949219e+003;3.8938461914e+003;3.8928205566e+003;3.8914101563e+003;3.8897436523e+003;3.8812819824e+003;3.8971794434e+003;3.8856411133e+003;3.8650000000e+003;
2.6562500000e-001;3.8339743652e+003;3.8383332520e+003;3.8612819824e+003;3.8632050781e+003;3.8706411133e+003;3.8675642090e+003;3.8684614258e+003;3.8557692871e+003;3.8430769043e+003;3.8491025391e+003;3.8519230957e+003;3.8728205566e+003;3.8537180176e+003;3.8360256348e+003;
2.7343750000e-001;3.8892307129e+003;3.8911538086e+003;3.9116667480e+003;3.9157692871e+003;3.9153845215e+003;3.9119230957e+003;3.9161538086e+003;3.8980769043e+003;3.8875642090e+003;3.8973076172e+003;3.9020512695e+003;3.9228205566e+003;3.9058974609e+003;3.8887180176e+003;
2.8125000000e-001;3.9633332520e+003;3.9556411133e+003;3.9884614258e+003;3.9741025391e+003;3.9707692871e+003;3.9610256348e+003;3.9666667480e+003;3.9660256348e+003;3.9673076172e+003;3.9819230957e+003;3.9725642090e+003;3.9900000000e+003;3.9738461914e+003;3.9633332520e+003;
2.8906250000e-001;3.9546154785e+003;3.9519230957e+003;3.9715385742e+003;3.9639743652e+003;3.9696154785e+003;3.9588461914e+003;3.9625642090e+003;3.9596154785e+003;3.9735898438e+003;3.9834614258e+003;3.9688461914e+003;3.9814101563e+003;3.9723076172e+003;3.9575642090e+003;
2.9687500000e-001;3.9639743652e+003;3.9657692871e+003;3.9764101563e+003;3.9733332520e+003;3.9757692871e+003;3.9700000000e+003;3.9697436523e+003;3.9676923828e+003;3.9879487305e+003;3.9971794434e+003;3.9812819824e+003;3.9950000000e+003;3.9844870605e+003;3.9696154785e+003;
3.0468750000e-001;3.9194870605e+003;3.9287180176e+003;3.9311538086e+003;3.9276923828e+003;3.9366667480e+003;3.9310256348e+003;3.9232050781e+003;3.9164101563e+003;3.9492307129e+003;3.9547436523e+003;3.9378205566e+003;3.9512819824e+003;3.9420512695e+003;3.9253845215e+003;
3.1250000000e-001;3.9385898438e+003;3.9456411133e+003;3.9502563477e+003;3.9444870605e+003;3.9547436523e+003;3.9485898438e+003;3.9401281738e+003;3.9360256348e+003;3.9683332520e+003;3.9752563477e+003;3.9548718262e+003;3.9675642090e+003;3.9608974609e+003;3.9429487305e+003;
3.2031250000e-001;3.9465385742e+003;3.9492307129e+003;3.9592307129e+003;3.9514101563e+003;3.9596154785e+003;3.9574357910e+003;3.9473076172e+003;3.9464101563e+003;3.9776923828e+003;3.9851281738e+003;3.9615385742e+003;3.9753845215e+003;3.9674357910e+003;3.9502563477e+003;
3.2812500000e-001;3.9205129395e+003;3.9174357910e+003;3.9350000000e+003;3.9264101563e+003;3.9346154785e+003;3.9382050781e+003;3.9244870605e+003;3.9217949219e+003;3.9546154785e+003;3.9578205566e+003;3.9357692871e+003;3.9535898438e+003;3.9389743652e+003;3.9232050781e+003;
3.3593750000e-001;3.9194870605e+003;3.9211538086e+003;3.9323076172e+003;3.9261538086e+003;3.9238461914e+003;3.9384614258e+003;3.9260256348e+003;3.9315385742e+003;3.9633332520e+003;3.9667949219e+003;3.9426923828e+003;3.9580769043e+003;3.9446154785e+003;3.9274357910e+003;
3.4375000000e-001;3.8835898438e+003;3.8851281738e+003;3.8983332520e+003;3.8948718262e+003;3.8819230957e+003;3.9074357910e+003;3.8948718262e+003;3.8997436523e+003;3.9273076172e+003;3.9301281738e+003;3.9058974609e+003;3.9225642090e+003;3.9073076172e+003;3.8933332520e+003;
3.5156250000e-001;3.8644870605e+003;3.8650000000e+003;3.8796154785e+003;3.8789743652e+003;3.8638461914e+003;3.8911538086e+003;3.8797436523e+003;3.8787180176e+003;3.9020512695e+003;3.9037180176e+003;3.8826923828e+003;3.9002563477e+003;3.8839743652e+003;3.8726923828e+003;
3.5937500000e-001;3.8891025391e+003;3.8880769043e+003;3.9021794434e+003;3.9016667480e+003;3.8967949219e+003;3.9125642090e+003;3.9041025391e+003;3.8971794434e+003;3.9166667480e+003;3.9188461914e+003;3.9025642090e+003;3.9196154785e+003;3.9034614258e+003;3.8929487305e+003;
3.6718750000e-001;3.9230769043e+003;3.9221794434e+003;3.9346154785e+003;3.9367949219e+003;3.9483332520e+003;3.9350000000e+003;3.9387180176e+003;3.9271794434e+003;3.9203845215e+003;3.9323076172e+003;3.9207692871e+003;3.9485898438e+003;3.9205129395e+003;3.9161538086e+003;
3.7500000000e-001;3.9847436523e+003;3.9875642090e+003;3.9923076172e+003;3.9887180176e+003;3.9960256348e+003;3.9842307129e+003;3.9917949219e+003;3.9867949219e+003;3.9816667480e+003;3.9930769043e+003;3.9843588867e+003;4.0101281738e+003;3.9808974609e+003;3.9743588867e+003;
3.8281250000e-001;3.9525642090e+003;3.9502563477e+003;3.9608974609e+003;3.9548718262e+003;3.9629487305e+003;3.9551281738e+003;3.9607692871e+003;3.9551281738e+003;3.9548718262e+003;3.9639743652e+003;3.9535898438e+003;3.9805129395e+003;3.9526923828e+003;3.9446154785e+003;
3.9062500000e-001;3.9712819824e+003;3.9671794434e+003;3.9761538086e+003;3.9750000000e+003;3.9766667480e+003;3.9707692871e+003;3.9794870605e+003;3.9738461914e+003;3.9839743652e+003;3.9923076172e+003;3.9767949219e+003;4.0019230957e+003;3.9780769043e+003;3.9683332520e+003;
3.9843750000e-001;3.9853845215e+003;3.9839743652e+003;3.9883332520e+003;3.9914101563e+003;3.9883332520e+003;3.9825642090e+003;3.9912819824e+003;3.9896154785e+003;4.0038461914e+003;4.0126923828e+003;3.9947436523e+003;4.0188461914e+003;3.9930769043e+003;3.9858974609e+003;
4.0625000000e-001;3.9538461914e+003;3.9601281738e+003;3.9511538086e+003;3.9642307129e+003;3.9638461914e+003;3.9567949219e+003;3.9541025391e+003;3.9493588867e+003;3.9728205566e+003;3.9748718262e+003;3.9585898438e+003;3.9810256348e+003;3.9570512695e+003;3.9525642090e+003;
4.1406250000e-001;3.9966667480e+003;4.0055129395e+003;3.9993588867e+003;4.0014101563e+003;3.9874357910e+003;4.0051281738e+003;3.9960256348e+003;4.0007692871e+003;4.0271794434e+003;4.0303845215e+003;4.0050000000e+003;4.0258974609e+003;4.0043588867e+003;3.9967949219e+003;
4.2187500000e-001;3.9664101563e+003;3.9729487305e+003;3.9739743652e+003;3.9723076172e+003;3.9555129395e+003;3.9789743652e+003;3.9701281738e+003;3.9725642090e+003;3.9996154785e+003;4.0000000000e+003;3.9751281738e+003;3.9967949219e+003;3.9725642090e+003;3.9661538086e+003;
4.2968750000e-001;3.9657692871e+003;3.9693588867e+003;3.9739743652e+003;3.9717949219e+003;3.9637180176e+003;3.9766667480e+003;3.9708974609e+003;3.9692307129e+003;3.9971794434e+003;3.9942307129e+003;3.9716667480e+003;3.9929487305e+003;3.9687180176e+003;3.9619230957e+003;
4.3750000000e-001;4.0402563477e+003;4.0448718262e+003;4.0417949219e+003;4.0496154785e+003;4.0705129395e+003;4.0423076172e+003;4.0388461914e+003;4.0423076172e+003;4.0684614258e+003;4.0664101563e+003;4.0429487305e+003;4.0639743652e+003;4.0451281738e+003;4.0319230957e+003;
4.4531250000e-001;4.0489743652e+003;4.0578205566e+003;4.0493588867e+003;4.0634614258e+003;4.0861538086e+003;4.0535898438e+003;4.0469230957e+003;4.0558974609e+003;4.0787180176e+003;4.0789743652e+003;4.0541025391e+003;4.0770512695e+003;4.0592307129e+003;4.0428205566e+003;
4.5312500000e-001;4.0741025391e+003;4.0784614258e+003;4.0698718262e+003;4.0760256348e+003;4.0810256348e+003;4.0741025391e+003;4.0683332520e+003;4.0712819824e+003;4.0906411133e+003;4.0988461914e+003;4.0769230957e+003;4.0996152344e+003;4.0814101563e+003;4.0669230957e+003;
4.6093750000e-001;4.0843588867e+003;4.0829487305e+003;4.0779487305e+003;4.0798718262e+003;4.0858974609e+003;4.0775642090e+003;4.0735898438e+003;4.0755129395e+003;4.0939743652e+003;4.1066665039e+003;4.0838461914e+003;4.1058974609e+003;4.0866667480e+003;4.0753845215e+003;
4.6875000000e-001;4.0603845215e+003;4.0570512695e+003;4.0543588867e+003;4.0570512695e+003;4.0637180176e+003;4.0529487305e+003;4.0483332520e+003;4.0492307129e+003;4.0638461914e+003;4.0794870605e+003;4.0574357910e+003;4.0803845215e+003;4.0594870605e+003;4.0502563477e+003;
4.7656250000e-001;4.1791025391e+003;4.1817949219e+003;4.1714101563e+003;4.1742309570e+003;4.1742309570e+003;4.1560258789e+003;4.1635898438e+003;4.1606411133e+003;4.1567949219e+003;4.1875639648e+003;4.1748715820e+003;4.1935898438e+003;4.1770512695e+003;4.1652563477e+003;
4.8437500000e-001;4.1364101563e+003;4.1348715820e+003;4.1302563477e+003;4.1311538086e+003;4.1305126953e+003;4.1146152344e+003;4.1226923828e+003;4.1212822266e+003;4.1162822266e+003;4.1485898438e+003;4.1348715820e+003;4.1557690430e+003;4.1355126953e+003;4.1274360352e+003;
4.9218750000e-001;4.0489743652e+003;4.0496154785e+003;4.0464101563e+003;4.0457692871e+003;4.0489743652e+003;4.0350000000e+003;4.0432050781e+003;4.0398718262e+003;4.0369230957e+003;4.0669230957e+003;4.0553845215e+003;4.0769230957e+003;4.0557692871e+003;4.0479487305e+003;
5.0000000000e-001;3.9819230957e+003;3.9798718262e+003;3.9823076172e+003;3.9879487305e+003;3.9641025391e+003;3.9741025391e+003;3.9816667480e+003;3.9802563477e+003;3.9988461914e+003;4.0103845215e+003;3.9950000000e+003;4.0119230957e+003;3.9967949219e+003;3.9837180176e+003;
5.0781250000e-001;4.0133332520e+003;4.0046154785e+003;4.0116667480e+003;4.0160256348e+003;3.9994870605e+003;4.0024357910e+003;4.0084614258e+003;4.0085898438e+003;4.0319230957e+003;4.0417949219e+003;4.0264101563e+003;4.0392307129e+003;4.0260256348e+003;4.0123076172e+003;
5.1562500000e-001;4.0217949219e+003;4.0139743652e+003;4.0234614258e+003;4.0197436523e+003;4.0298718262e+003;4.0184614258e+003;4.0138461914e+003;4.0260256348e+003;4.0482050781e+003;4.0583332520e+003;4.0408974609e+003;4.0516667480e+003;4.0356411133e+003;4.0241025391e+003;
5.2343750000e-001;3.9871794434e+003;3.9860256348e+003;3.9900000000e+003;3.9871794434e+003;4.0024357910e+003;3.9928205566e+003;3.9834614258e+003;3.9975642090e+003;4.0155129395e+003;4.0256411133e+003;4.0064101563e+003;4.0194870605e+003;4.0024357910e+003;3.9916667480e+003;
5.3125000000e-001;4.0792307129e+003;4.0879487305e+003;4.0651281738e+003;4.0812819824e+003;4.0850000000e+003;4.0757692871e+003;4.0716667480e+003;4.0850000000e+003;4.1048715820e+003;4.1180771484e+003;4.0908974609e+003;4.0973076172e+003;4.0943588867e+003;4.0760256348e+003;
5.3906250000e-001;4.0992309570e+003;4.1060258789e+003;4.0844870605e+003;4.1012822266e+003;4.1044873047e+003;4.0926923828e+003;4.0898718262e+003;4.1053847656e+003;4.1271796875e+003;4.1388461914e+003;4.1111538086e+003;4.1164101563e+003;4.1130771484e+003;4.0948718262e+003;
5.4687500000e-001;4.0491025391e+003;4.0519230957e+003;4.0407692871e+003;4.0512819824e+003;4.0583332520e+003;4.0500000000e+003;4.0462819824e+003;4.0573076172e+003;4.0733332520e+003;4.0800000000e+003;4.0571794434e+003;4.0660256348e+003;4.0580769043e+003;4.0424357910e+003;
5.5468750000e-001;4.0470512695e+003;4.0488461914e+003;4.0396154785e+003;4.0480769043e+003;4.0524357910e+003;4.0497436523e+003;4.0447436523e+003;4.0546154785e+003;4.0662819824e+003;4.0742307129e+003;4.0524357910e+003;4.0612819824e+003;4.0546154785e+003;4.0385898438e+003;
5.6250000000e-001;4.0278205566e+003;4.0306411133e+003;4.0235898438e+003;4.0324357910e+003;4.0332050781e+003;4.0370512695e+003;4.0306411133e+003;4.0406411133e+003;4.0467949219e+003;4.0614101563e+003;4.0406411133e+003;4.0465385742e+003;4.0396154785e+003;4.0256411133e+003;
5.7031250000e-001;4.0180769043e+003;4.0239743652e+003;4.0167949219e+003;4.0211538086e+003;4.0342307129e+003;4.0300000000e+003;4.0289743652e+003;4.0307692871e+003;4.0343588867e+003;4.0497436523e+003;4.0329487305e+003;4.0403845215e+003;4.0312819824e+003;4.0192307129e+003;
5.7812500000e-001;4.0424357910e+003;4.0507692871e+003;4.0426923828e+003;4.0394870605e+003;4.0611538086e+003;4.0521794434e+003;4.0569230957e+003;4.0532050781e+003;4.0528205566e+003;4.0719230957e+003;4.0574357910e+003;4.0673076172e+003;4.0570512695e+003;4.0448718262e+003;
5.8593750000e-001;4.0748718262e+003;4.0829487305e+003;4.0750000000e+003;4.0658974609e+003;4.0826923828e+003;4.0796154785e+003;4.0866667480e+003;4.0834614258e+003;4.0796154785e+003;4.1046152344e+003;4.0891025391e+003;4.1024360352e+003;4.0908974609e+003;4.0771794434e+003;
5.9375000000e-001;3.9853845215e+003;3.9852563477e+003;3.9732050781e+003;3.9880769043e+003;3.9782050781e+003;3.9753845215e+003;3.9798718262e+003;3.9698718262e+003;3.9728205566e+003;4.0016667480e+003;3.9917949219e+003;4.0078205566e+003;3.9919230957e+003;3.9819230957e+003;
6.0156250000e-001;3.9888461914e+003;3.9932050781e+003;3.9857692871e+003;3.9919230957e+003;3.9915385742e+003;3.9728205566e+003;3.9765385742e+003;3.9734614258e+003;3.9933332520e+003;4.0224357910e+003;4.0079487305e+003;4.0192307129e+003;4.0100000000e+003;3.9965385742e+003;
6.0937500000e-001;4.0017949219e+003;4.0056411133e+003;3.9955129395e+003;4.0033332520e+003;3.9925642090e+003;3.9857692871e+003;3.9880769043e+003;3.9846154785e+003;4.0110256348e+003;4.0353845215e+003;4.0179487305e+003;4.0271794434e+003;4.0220512695e+003;4.0061538086e+003;
6.1718750000e-001;4.0415385742e+003;4.0428205566e+003;4.0328205566e+003;4.0391025391e+003;4.0303845215e+003;4.0243588867e+003;4.0242307129e+003;4.0291025391e+003;4.0612819824e+003;4.0769230957e+003;4.0519230957e+003;4.0600000000e+003;4.0541025391e+003;4.0412819824e+003;
6.2500000000e-001;4.0583332520e+003;4.0658974609e+003;4.0493588867e+003;4.0662819824e+003;4.0662819824e+003;4.0616667480e+003;4.0547436523e+003;4.0676923828e+003;4.0869230957e+003;4.0976923828e+003;4.0700000000e+003;4.0760256348e+003;4.0725642090e+003;4.0564101563e+003;
6.3281250000e-001;4.0624357910e+003;4.0708974609e+003;4.0520512695e+003;4.0694870605e+003;4.0708974609e+003;4.0692307129e+003;4.0610256348e+003;4.0774357910e+003;4.0946154785e+003;4.1060258789e+003;4.0746154785e+003;4.0815385742e+003;4.0776923828e+003;4.0600000000e+003;
6.4062500000e-001;3.9702563477e+003;3.9751281738e+003;3.9682050781e+003;3.9791025391e+003;3.9807692871e+003;3.9915385742e+003;3.9824357910e+003;3.9916667480e+003;4.0050000000e+003;4.0092307129e+003;3.9760256348e+003;3.9894870605e+003;3.9796154785e+003;3.9646154785e+003;
6.4843750000e-001;3.9569230957e+003;3.9619230957e+003;3.9575642090e+003;3.9667949219e+003;3.9733332520e+003;3.9826923828e+003;3.9742307129e+003;3.9785898438e+003;3.9901281738e+003;3.9901281738e+003;3.9597436523e+003;3.9725642090e+003;3.9637180176e+003;3.9478205566e+003;
6.5625000000e-001;3.9953845215e+003;4.0074357910e+003;3.9944870605e+003;4.0134614258e+003;4.0256411133e+003;4.0319230957e+003;4.0203845215e+003;4.0270512695e+003;4.0325642090e+003;4.0317949219e+003;4.0080769043e+003;4.0158974609e+003;4.0076923828e+003;3.9911538086e+003;
6.6406250000e-001;3.9706411133e+003;3.9802563477e+003;3.9724357910e+003;3.9921794434e+003;3.9910256348e+003;4.0126923828e+003;4.0012819824e+003;3.9997436523e+003;4.0030769043e+003;4.0034614258e+003;3.9833332520e+003;3.9951281738e+003;3.9826923828e+003;3.9703845215e+003;
6.7187500000e-001;3.9988461914e+003;3.9991025391e+003;4.0030769043e+003;4.0117949219e+003;4.0019230957e+003;4.0293588867e+003;4.0266667480e+003;4.0087180176e+003;4.0064101563e+003;4.0165385742e+003;4.0019230957e+003;4.0232050781e+003;4.0051281738e+003;3.9975642090e+003;
6.7968750000e-001;4.0239743652e+003;4.0214101563e+003;4.0271794434e+003;4.0303845215e+003;4.0319230957e+003;4.0429487305e+003;4.0434614258e+003;4.0262819824e+003;4.0214101563e+003;4.0379487305e+003;4.0246154785e+003;4.0484614258e+003;4.0285898438e+003;4.0210256348e+003;
6.8750000000e-001;3.9952563477e+003;3.9953845215e+003;3.9934614258e+003;4.0069230957e+003;4.0280769043e+003;4.0037180176e+003;4.0033332520e+003;3.9870512695e+003;3.9926923828e+003;4.0067949219e+003;4.0015385742e+003;4.0225642090e+003;4.0051281738e+003;3.9966667480e+003;
6.9531250000e-001;4.0135898438e+003;4.0160256348e+003;4.0100000000e+003;4.0261538086e+003;4.0388461914e+003;4.0188461914e+003;4.0191025391e+003;4.0048718262e+003;4.0171794434e+003;4.0294870605e+003;4.0224357910e+003;4.0424357910e+003;4.0274357910e+003;4.0202563477e+003;
7.0312500000e-001;4.0229487305e+003;4.0273076172e+003;4.0194870605e+003;4.0352563477e+003;4.0364101563e+003;4.0251281738e+003;4.0252563477e+003;4.0167949219e+003;4.0335898438e+003;4.0464101563e+003;4.0346154785e+003;4.0556411133e+003;4.0406411133e+003;4.0353845215e+003;
7.1093750000e-001;4.0029487305e+003;4.0082050781e+003;4.0014101563e+003;4.0160256348e+003;4.0076923828e+003;4.0039743652e+003;4.0025642090e+003;3.9991025391e+003;4.0187180176e+003;4.0325642090e+003;4.0166667480e+003;4.0397436523e+003;4.0229487305e+003;4.0187180176e+003;
7.1875000000e-001;4.0133332520e+003;4.0174357910e+003;4.0111538086e+003;4.0171794434e+003;4.0183332520e+003;4.0079487305e+003;4.0014101563e+003;4.0011538086e+003;4.0392307129e+003;4.0479487305e+003;4.0310256348e+003;4.0428205566e+003;4.0351281738e+003;4.0211538086e+003;
7.2656250000e-001;4.0484614258e+003;4.0557692871e+003;4.0416667480e+003;4.0664101563e+003;4.0603845215e+003;4.0552563477e+003;4.0473076172e+003;4.0473076172e+003;4.0748718262e+003;4.0812819824e+003;4.0597436523e+003;4.0707692871e+003;4.0682050781e+003;4.0552563477e+003;
7.3437500000e-001;4.0833332520e+003;4.0923076172e+003;4.0742307129e+003;4.0980771484e+003;4.0950000000e+003;4.0885898438e+003;4.0787180176e+003;4.0856411133e+003;4.1114101563e+003;4.1197436523e+003;4.0961538086e+003;4.1034614258e+003;4.1023076172e+003;4.0862819824e+003;
7.4218750000e-001;4.0176923828e+003;4.0269230957e+003;4.0129487305e+003;4.0301281738e+003;4.0293588867e+003;4.0353845215e+003;4.0189743652e+003;4.0320512695e+003;4.0553845215e+003;4.0617949219e+003;4.0323076172e+003;4.0378205566e+003;4.0375642090e+003;4.0191025391e+003;
7.5000000000e-001;3.9846154785e+003;3.9937180176e+003;3.9828205566e+003;4.0000000000e+003;4.0017949219e+003;4.0089743652e+003;3.9925642090e+003;4.0030769043e+003;4.0239743652e+003;4.0282050781e+003;3.9976923828e+003;4.0030769043e+003;4.0053845215e+003;3.9862819824e+003;
7.5781250000e-001;4.0115385742e+003;4.0223076172e+003;4.0120512695e+003;4.0334614258e+003;4.0269230957e+003;4.0376923828e+003;4.0266667480e+003;4.0411538086e+003;4.0505129395e+003;4.0541025391e+003;4.0243588867e+003;4.0329487305e+003;4.0355129395e+003;4.0162819824e+003;
7.6562500000e-001;3.9880769043e+003;3.9955129395e+003;3.9897436523e+003;4.0042307129e+003;3.9921794434e+003;4.0151281738e+003;4.0079487305e+003;4.0088461914e+003;4.0042307129e+003;4.0137180176e+003;3.9952563477e+003;4.0064101563e+003;4.0015385742e+003;3.9874357910e+003;
7.7343750000e-001;4.0120512695e+003;4.0162819824e+003;4.0133332520e+003;4.0278205566e+003;4.0257692871e+003;4.0360256348e+003;4.0306411133e+003;4.0284614258e+003;4.0208974609e+003;4.0355129395e+003;4.0176923828e+003;4.0297436523e+003;4.0228205566e+003;4.0089743652e+003;
7.8125000000e-001;3.9702563477e+003;3.9789743652e+003;3.9711538086e+003;3.9960256348e+003;4.0047436523e+003;3.9957692871e+003;3.9961538086e+003;3.9848718262e+003;3.9691025391e+003;3.9871794434e+003;3.9725642090e+003;3.9937180176e+003;3.9823076172e+003;3.9693588867e+003;
7.8906250000e-001;3.9847436523e+003;3.9965385742e+003;3.9824357910e+003;4.0055129395e+003;4.0117949219e+003;4.0046154785e+003;4.0082050781e+003;3.9978205566e+003;3.9808974609e+003;4.0005129395e+003;3.9860256348e+003;4.0055129395e+003;3.9983332520e+003;3.9834614258e+003;
7.9687500000e-001;3.9938461914e+003;4.0016667480e+003;3.9906411133e+003;4.0032050781e+003;4.0003845215e+003;3.9997436523e+003;4.0046154785e+003;4.0069230957e+003;3.9948718262e+003;4.0176923828e+003;3.9997436523e+003;4.0146154785e+003;4.0089743652e+003;3.9933332520e+003;
8.0468750000e-001;3.9512819824e+003;3.9562819824e+003;3.9512819824e+003;3.9623076172e+003;3.9541025391e+003;3.9565385742e+003;3.9589743652e+003;3.9646154785e+003;3.9588461914e+003;3.9796154785e+003;3.9614101563e+003;3.9766667480e+003;3.9666667480e+003;3.9535898438e+003;
8.1250000000e-001;3.8843588867e+003;3.8906411133e+003;3.8906411133e+003;3.9119230957e+003;3.8950000000e+003;3.8939743652e+003;3.8906411133e+003;3.9037180176e+003;3.9185898438e+003;3.9273076172e+003;3.9071794434e+003;3.9230769043e+003;3.9082050781e+003;3.8988461914e+003;
8.2031250000e-001;3.8564101563e+003;3.8621794434e+003;3.8656411133e+003;3.8878205566e+003;3.8688461914e+003;3.8717949219e+003;3.8656411133e+003;3.8837180176e+003;3.9016667480e+003;3.9051281738e+003;3.8830769043e+003;3.8982050781e+003;3.8843588867e+003;3.8735898438e+003;
8.2812500000e-001;3.8180769043e+003;3.8234614258e+003;3.8294870605e+003;3.8517949219e+003;3.8314101563e+003;3.8414101563e+003;3.8326923828e+003;3.8505129395e+003;3.8705129395e+003;3.8684614258e+003;3.8461538086e+003;3.8596154785e+003;3.8487180176e+003;3.8353845215e+003;
8.3593750000e-001;3.8078205566e+003;3.8142307129e+003;3.8176923828e+003;3.8407692871e+003;3.8212819824e+003;3.8355129395e+003;3.8258974609e+003;3.8387180176e+003;3.8615385742e+003;3.8558974609e+003;3.8342307129e+003;3.8446154785e+003;3.8393588867e+003;3.8221794434e+003;
8.4375000000e-001;3.8828205566e+003;3.8911538086e+003;3.8771794434e+003;3.9074357910e+003;3.9042307129e+003;3.9057692871e+003;3.8866667480e+003;3.9037180176e+003;3.9291025391e+003;3.9237180176e+003;3.8991025391e+003;3.9100000000e+003;3.9050000000e+003;3.8839743652e+003;
8.5156250000e-001;3.8692307129e+003;3.8756411133e+003;3.8647436523e+003;3.8938461914e+003;3.8892307129e+003;3.8958974609e+003;3.8753845215e+003;3.8898718262e+003;3.9112819824e+003;3.9025642090e+003;3.8811538086e+003;3.8925642090e+003;3.8875642090e+003;3.8644870605e+003;
8.5937500000e-001;3.9570512695e+003;3.9632050781e+003;3.9555129395e+003;3.9850000000e+003;3.9624357910e+003;3.9850000000e+003;3.9683332520e+003;3.9808974609e+003;3.9958974609e+003;3.9911538086e+003;3.9648718262e+003;3.9719230957e+003;3.9778205566e+003;3.9448718262e+003;
8.6718750000e-001;3.9380769043e+003;3.9461538086e+003;3.9280769043e+003;3.9626923828e+003;3.9824357910e+003;3.9717949219e+003;3.9598718262e+003;3.9575642090e+003;3.9574357910e+003;3.9592307129e+003;3.9426923828e+003;3.9511538086e+003;3.9497436523e+003;3.9216667480e+003;
8.7500000000e-001;3.9855129395e+003;3.9952563477e+003;3.9719230957e+003;3.9998718262e+003;4.0344870605e+003;4.0141025391e+003;4.0042307129e+003;3.9994870605e+003;3.9955129395e+003;3.9997436523e+003;3.9875642090e+003;3.9955129395e+003;3.9932050781e+003;3.9660256348e+003;
8.8281250000e-001;3.9503845215e+003;3.9667949219e+003;3.9489743652e+003;3.9738461914e+003;3.9787180176e+003;3.9792307129e+003;3.9667949219e+003;3.9578205566e+003;3.9489743652e+003;3.9585898438e+003;3.9475642090e+003;3.9644870605e+003;3.9557692871e+003;3.9350000000e+003;
8.9062500000e-001;3.9615385742e+003;3.9711538086e+003;3.9510256348e+003;3.9771794434e+003;3.9800000000e+003;3.9644870605e+003;3.9612819824e+003;3.9511538086e+003;3.9357692871e+003;3.9547436523e+003;3.9535898438e+003;3.9746154785e+003;3.9594870605e+003;3.9414101563e+003;
8.9843750000e-001;3.9469230957e+003;3.9514101563e+003;3.9366667480e+003;3.9584614258e+003;3.9596154785e+003;3.9471794434e+003;3.9447436523e+003;3.9333332520e+003;3.9198718262e+003;3.9389743652e+003;3.9397436523e+003;3.9646154785e+003;3.9435898438e+003;3.9275642090e+003;
9.0625000000e-001;3.9646154785e+003;3.9653845215e+003;3.9632050781e+003;3.9807692871e+003;3.9703845215e+003;3.9610256348e+003;3.9573076172e+003;3.9451281738e+003;3.9571794434e+003;3.9642307129e+003;3.9615385742e+003;3.9815385742e+003;3.9655129395e+003;3.9491025391e+003;
9.1406250000e-001;3.9770512695e+003;3.9801281738e+003;3.9758974609e+003;3.9911538086e+003;3.9830769043e+003;3.9702563477e+003;3.9656411133e+003;3.9605129395e+003;3.9779487305e+003;3.9842307129e+003;3.9746154785e+003;3.9929487305e+003;3.9807692871e+003;3.9616667480e+003;
9.2187500000e-001;3.9488461914e+003;3.9521794434e+003;3.9428205566e+003;3.9520512695e+003;3.9473076172e+003;3.9407692871e+003;3.9383332520e+003;3.9358974609e+003;3.9550000000e+003;3.9607692871e+003;3.9425642090e+003;3.9646154785e+003;3.9533332520e+003;3.9282050781e+003;
9.2968750000e-001;3.9635898438e+003;3.9642307129e+003;3.9532050781e+003;3.9621794434e+003;3.9592307129e+003;3.9538461914e+003;3.9546154785e+003;3.9506411133e+003;3.9701281738e+003;3.9742307129e+003;3.9561538086e+003;3.9785898438e+003;3.9674357910e+003;3.9400000000e+003;
9.3750000000e-001;3.9973076172e+003;3.9958974609e+003;3.9838461914e+003;3.9964101563e+003;3.9956411133e+003;3.9870512695e+003;3.9883332520e+003;3.9882050781e+003;4.0087180176e+003;4.0102563477e+003;3.9923076172e+003;4.0130769043e+003;4.0024357910e+003;3.9744870605e+003;
9.4531250000e-001;3.9907692871e+003;3.9924357910e+003;3.9789743652e+003;4.0060256348e+003;4.0008974609e+003;3.9950000000e+003;3.9838461914e+003;3.9998718262e+003;4.0200000000e+003;4.0162819824e+003;3.9952563477e+003;4.0123076172e+003;4.0024357910e+003;3.9797436523e+003;
9.5312500000e-001;3.9646154785e+003;3.9698718262e+003;3.9537180176e+003;3.9843588867e+003;3.9733332520e+003;3.9769230957e+003;3.9605129395e+003;3.9776923828e+003;3.9955129395e+003;3.9920512695e+003;3.9700000000e+003;3.9853845215e+003;3.9775642090e+003;3.9569230957e+003;
9.6093750000e-001;3.9696154785e+003;3.9773076172e+003;3.9578205566e+003;3.9861538086e+003;3.9707692871e+003;3.9829487305e+003;3.9665385742e+003;3.9806411133e+003;3.9961538086e+003;3.9962819824e+003;3.9737180176e+003;3.9867949219e+003;3.9824357910e+003;3.9608974609e+003;
9.6875000000e-001;3.9796154785e+003;3.9844870605e+003;3.9728205566e+003;3.9969230957e+003;4.0194870605e+003;4.0038461914e+003;3.9946154785e+003;4.0019230957e+003;4.0093588867e+003;4.0069230957e+003;3.9842307129e+003;3.9901281738e+003;3.9897436523e+003;3.9660256348e+003;
9.7656250000e-001;4.0255129395e+003;4.0305129395e+003;4.0175642090e+003;4.0358974609e+003;4.0694870605e+003;4.0471794434e+003;4.0392307129e+003;4.0471794434e+003;4.0534614258e+003;4.0542307129e+003;4.0280769043e+003;4.0334614258e+003;4.0339743652e+003;4.0103845215e+003;
9.8437500000e-001;4.0000000000e+003;4.0039743652e+003;3.9960256348e+003;4.0060256348e+003;4.0206411133e+003;4.0219230957e+003;4.0179487305e+003;4.0230769043e+003;4.0200000000e+003;4.0265385742e+003;4.0051281738e+003;4.0224357910e+003;4.0079487305e+003;3.9856411133e+003;
9.9218750000e-001;3.9755129395e+003;3.9814101563e+003;3.9702563477e+003;3.9879487305e+003;3.9970512695e+003;3.9996154785e+003;3.9983332520e+003;3.9953845215e+003;3.9882050781e+003;3.9943588867e+003;3.9801281738e+003;3.9969230957e+003;3.9829487305e+003;3.9610256348e+003;
1.0000000000e+000;4.0039743652e+003;4.0115385742e+003;3.9917949219e+003;4.0208974609e+003;4.0273076172e+003;4.0223076172e+003;4.0234614258e+003;4.0161538086e+003;4.0061538086e+003;4.0206411133e+003;4.0083332520e+003;4.0180769043e+003;4.0112819824e+003;3.9901281738e+003;
1.0078125000e+000;3.9962819824e+003;4.0021794434e+003;3.9841025391e+003;4.0130769043e+003;4.0138461914e+003;4.0130769043e+003;4.0114101563e+003;4.0057692871e+003;3.9969230957e+003;4.0162819824e+003;4.0032050781e+003;4.0120512695e+003;4.0038461914e+003;3.9834614258e+003;
1.0156250000e+000;4.0194870605e+003;4.0212819824e+003;4.0133332520e+003;4.0267949219e+003;4.0266667480e+003;4.0196154785e+003;4.0203845215e+003;4.0101281738e+003;4.0139743652e+003;4.0364101563e+003;4.0320512695e+003;4.0410256348e+003;4.0280769043e+003;4.0039743652e+003;
1.0234375000e+000;4.0983334961e+003;4.1006411133e+003;4.0900000000e+003;4.0952563477e+003;4.0982050781e+003;4.0808974609e+003;4.0858974609e+003;4.0842307129e+003;4.1053847656e+003;4.1293588867e+003;4.1132050781e+003;4.1184614258e+003;4.1098715820e+003;4.0894870605e+003;
1.0312500000e+000;4.1167949219e+003;4.1228203125e+003;4.1076923828e+003;4.1138461914e+003;4.1112822266e+003;4.0983334961e+003;4.1028203125e+003;4.1014101563e+003;4.1265385742e+003;4.1498715820e+003;4.1325639648e+003;4.1362822266e+003;4.1302563477e+003;4.1082050781e+003;
1.0390625000e+000;4.1475639648e+003;4.1569228516e+003;4.1371796875e+003;4.1432050781e+003;4.1392309570e+003;4.1258974609e+003;4.1289741211e+003;4.1317949219e+003;4.1585898438e+003;4.1812822266e+003;4.1635898438e+003;4.1660258789e+003;4.1625639648e+003;4.1374360352e+003;
1.0468750000e+000;4.1116665039e+003;4.1176923828e+003;4.1015385742e+003;4.1083334961e+003;4.1051284180e+003;4.0903845215e+003;4.0870512695e+003;4.1047436523e+003;4.1251284180e+003;4.1443588867e+003;4.1248715820e+003;4.1298715820e+003;4.1239741211e+003;4.0987177734e+003;
1.0546875000e+000;4.0483332520e+003;4.0491025391e+003;4.0389743652e+003;4.0488461914e+003;4.0411538086e+003;4.0338461914e+003;4.0278205566e+003;4.0464101563e+003;4.0611538086e+003;4.0764101563e+003;4.0585898438e+003;4.0655129395e+003;4.0562819824e+003;4.0343588867e+003;
1.0625000000e+000;4.0662819824e+003;4.0624357910e+003;4.0546154785e+003;4.0634614258e+003;4.0496154785e+003;4.0574357910e+003;4.0517949219e+003;4.0669230957e+003;4.0769230957e+003;4.0871794434e+003;4.0735898438e+003;4.0780769043e+003;4.0697436523e+003;4.0498718262e+003;
1.0703125000e+000;4.0839743652e+003;4.0821794434e+003;4.0774357910e+003;4.0779487305e+003;4.0975639648e+003;4.0828205566e+003;4.0743588867e+003;4.0906411133e+003;4.1062822266e+003;4.1130771484e+003;4.0943588867e+003;4.1019228516e+003;4.0951281738e+003;4.0769230957e+003;
1.0781250000e+000;4.0624357910e+003;4.0624357910e+003;4.0556411133e+003;4.0621794434e+003;4.0853845215e+003;4.0650000000e+003;4.0576923828e+003;4.0689743652e+003;4.0828205566e+003;4.0888461914e+003;4.0719230957e+003;4.0794870605e+003;4.0733332520e+003;4.0557692871e+003;
1.0859375000e+000;4.0335898438e+003;4.0391025391e+003;4.0298718262e+003;4.0347436523e+003;4.0452563477e+003;4.0505129395e+003;4.0443588867e+003;4.0543588867e+003;4.0546154785e+003;4.0651281738e+003;4.0435898438e+003;4.0589743652e+003;4.0430769043e+003;4.0337180176e+003;
1.0937500000e+000;4.0288461914e+003;4.0312819824e+003;4.0251281738e+003;4.0284614258e+003;4.0356411133e+003;4.0471794434e+003;4.0428205566e+003;4.0475642090e+003;4.0465385742e+003;4.0561538086e+003;4.0356411133e+003;4.0529487305e+003;4.0342307129e+003;4.0279487305e+003;
1.1015625000e+000;4.0766667480e+003;4.0720512695e+003;4.0712819824e+003;4.0773076172e+003;4.0856411133e+003;4.0841025391e+003;4.0852563477e+003;4.0846154785e+003;4.0873076172e+003;4.0953845215e+003;4.0805129395e+003;4.0951281738e+003;4.0774357910e+003;4.0723076172e+003;
1.1093750000e+000;4.0793588867e+003;4.0738461914e+003;4.0757692871e+003;4.0820512695e+003;4.0894870605e+003;4.0817949219e+003;4.0852563477e+003;4.0846154785e+003;4.0873076172e+003;4.0964101563e+003;4.0842307129e+003;4.0991025391e+003;4.0803845215e+003;4.0757692871e+003;
1.1171875000e+000;4.1389741211e+003;4.1369228516e+003;4.1325639648e+003;4.1282050781e+003;4.1330771484e+003;4.1274360352e+003;4.1394873047e+003;4.1306411133e+003;4.1278203125e+003;4.1478203125e+003;4.1392309570e+003;4.1591025391e+003;4.1394873047e+003;4.1332050781e+003;
1.1250000000e+000;4.2196152344e+003;4.2185898438e+003;4.2106411133e+003;4.2082050781e+003;4.2160258789e+003;4.1942309570e+003;4.2064101563e+003;4.2066665039e+003;4.2134614258e+003;4.2417949219e+003;4.2275639648e+003;4.2438461914e+003;4.2238461914e+003;4.2126923828e+003;
1.1328125000e+000;4.2084614258e+003;4.2084614258e+003;4.2030771484e+003;4.1998715820e+003;4.2053847656e+003;4.1802563477e+003;4.1937177734e+003;4.1923076172e+003;4.2023076172e+003;4.2307690430e+003;4.2157690430e+003;4.2315385742e+003;4.2121796875e+003;4.2007690430e+003;
1.1406250000e+000;4.2338461914e+003;4.2338461914e+003;4.2294873047e+003;4.2220512695e+003;4.2238461914e+003;4.1971796875e+003;4.2134614258e+003;4.2123076172e+003;4.2251284180e+003;4.2552563477e+003;4.2396152344e+003;4.2539741211e+003;4.2364101563e+003;4.2242309570e+003;
1.1484375000e+000;4.2766665039e+003;4.2755126953e+003;4.2707690430e+003;4.2583334961e+003;4.2550000000e+003;4.2300000000e+003;4.2475639648e+003;4.2514101563e+003;4.2670512695e+003;4.2997436523e+003;4.2834614258e+003;4.2957690430e+003;4.2789741211e+003;4.2660258789e+003;
1.1562500000e+000;4.2716665039e+003;4.2842309570e+003;4.2584614258e+003;4.2597436523e+003;4.2847436523e+003;4.2398715820e+003;4.2424360352e+003;4.2525639648e+003;4.2762822266e+003;4.3034614258e+003;4.2882050781e+003;4.2925639648e+003;4.2851284180e+003;4.2662822266e+003;
1.1640625000e+000;4.3146152344e+003;4.3292309570e+003;4.3006411133e+003;4.3014101563e+003;4.3387177734e+003;4.2837177734e+003;4.2844873047e+003;4.2958974609e+003;4.3198715820e+003;4.3475639648e+003;4.3285898438e+003;4.3308974609e+003;4.3279487305e+003;4.3085898438e+003;
1.1718750000e+000;4.2784614258e+003;4.2837177734e+003;4.2702563477e+003;4.2653847656e+003;4.2779487305e+003;4.2550000000e+003;4.2470512695e+003;4.2587177734e+003;4.2798715820e+003;4.2996152344e+003;4.2810258789e+003;4.2817949219e+003;4.2783334961e+003;4.2658974609e+003;
1.1796875000e+000;4.2943588867e+003;4.3025639648e+003;4.2833334961e+003;4.2753847656e+003;4.3051284180e+003;4.2778203125e+003;4.2728203125e+003;4.2847436523e+003;4.2976923828e+003;4.3156411133e+003;4.2900000000e+003;4.2900000000e+003;4.2933334961e+003;4.2756411133e+003;
1.1875000000e+000;4.2626923828e+003;4.2697436523e+003;4.2538461914e+003;4.2460258789e+003;4.2748715820e+003;4.2550000000e+003;4.2489741211e+003;4.2632050781e+003;4.2719228516e+003;4.2893588867e+003;4.2593588867e+003;4.2630771484e+003;4.2628203125e+003;4.2465385742e+003;
1.1953125000e+000;4.2015385742e+003;4.2137177734e+003;4.1946152344e+003;4.1956411133e+003;4.2084614258e+003;4.2071796875e+003;4.2056411133e+003;4.2158974609e+003;4.2133334961e+003;4.2292309570e+003;4.2076923828e+003;4.2062822266e+003;4.2056411133e+003;4.1920512695e+003;
1.2031250000e+000;4.1997436523e+003;4.2134614258e+003;4.1923076172e+003;4.1929487305e+003;4.2103847656e+003;4.2030771484e+003;4.2026923828e+003;4.2147436523e+003;4.2098715820e+003;4.2285898438e+003;4.2085898438e+003;4.2062822266e+003;4.2050000000e+003;4.1937177734e+003;
1.2109375000e+000;4.1553847656e+003;4.1603847656e+003;4.1500000000e+003;4.1492309570e+003;4.1491025391e+003;4.1535898438e+003;4.1571796875e+003;4.1591025391e+003;4.1533334961e+003;4.1743588867e+003;4.1566665039e+003;4.1648715820e+003;4.1569228516e+003;4.1498715820e+003;
1.2187500000e+000;4.1857690430e+003;4.1900000000e+003;4.1798715820e+003;4.1769228516e+003;4.1655126953e+003;4.1776923828e+003;4.1858974609e+003;4.1860258789e+003;4.1802563477e+003;4.2041025391e+003;4.1860258789e+003;4.1941025391e+003;4.1871796875e+003;4.1782050781e+003;
1.2265625000e+000;4.2011538086e+003;4.2048715820e+003;4.1996152344e+003;4.1865385742e+003;4.1773076172e+003;4.1875639648e+003;4.1994873047e+003;4.2033334961e+003;4.1975639648e+003;4.2264101563e+003;4.2066665039e+003;4.2133334961e+003;4.2052563477e+003;4.1969228516e+003;
1.2343750000e+000;4.1941025391e+003;4.1933334961e+003;4.1939741211e+003;4.1769228516e+003;4.1814101563e+003;4.1771796875e+003;4.1900000000e+003;4.1919228516e+003;4.1894873047e+003;4.2170512695e+003;4.1993588867e+003;4.2056411133e+003;4.1969228516e+003;4.1902563477e+003;
1.2421875000e+000;4.2174360352e+003;4.2105126953e+003;4.2146152344e+003;4.1966665039e+003;4.2153847656e+003;4.1908974609e+003;4.2064101563e+003;4.2046152344e+003;4.2085898438e+003;4.2344873047e+003;4.2193588867e+003;4.2248715820e+003;4.2173076172e+003;4.2108974609e+003;
1.2500000000e+000;4.2630771484e+003;4.2519228516e+003;4.2553847656e+003;4.2391025391e+003;4.2642309570e+003;4.2233334961e+003;4.2420512695e+003;4.2388461914e+003;4.2503847656e+003;4.2761538086e+003;4.2617949219e+003;4.2669228516e+003;4.2602563477e+003;4.2532050781e+003;
1.2578125000e+000;4.2634614258e+003;4.2646152344e+003;4.2533334961e+003;4.2439741211e+003;4.2471796875e+003;4.2206411133e+003;4.2321796875e+003;4.2294873047e+003;4.2452563477e+003;4.2773076172e+003;4.2629487305e+003;4.2684614258e+003;4.2580771484e+003;4.2529487305e+003;
1.2656250000e+000;4.3103847656e+003;4.3101284180e+003;4.2992309570e+003;4.2853847656e+003;4.2978203125e+003;4.2660258789e+003;4.2746152344e+003;4.2758974609e+003;4.2942309570e+003;4.3246152344e+003;4.3088461914e+003;4.3116665039e+003;4.3048715820e+003;4.2985898438e+003;
1.2734375000e+000;4.2996152344e+003;4.2937177734e+003;4.2916665039e+003;4.2721796875e+003;4.2911538086e+003;4.2665385742e+003;4.2691025391e+003;4.2865385742e+003;4.3041025391e+003;4.3239741211e+003;4.2982050781e+003;4.3038461914e+003;4.2943588867e+003;4.2903847656e+003;
1.2812500000e+000;4.3669228516e+003;4.3755126953e+003;4.3560258789e+003;4.3496152344e+003;4.3701284180e+003;4.3433334961e+003;4.3512822266e+003;4.3678203125e+003;4.3752563477e+003;4.3917949219e+003;4.3644873047e+003;4.3634614258e+003;4.3624360352e+003;4.3570512695e+003;
1.2890625000e+000;4.3655126953e+003;4.3741025391e+003;4.3541025391e+003;4.3507690430e+003;4.3724360352e+003;4.3467949219e+003;4.3526923828e+003;4.3710258789e+003;4.3778203125e+003;4.3923076172e+003;4.3643588867e+003;4.3619228516e+003;4.3607690430e+003;4.3546152344e+003;
1.2968750000e+000;4.2398715820e+003;4.2434614258e+003;4.2296152344e+003;4.2228203125e+003;4.2461538086e+003;4.2412822266e+003;4.2414101563e+003;4.2483334961e+003;4.2497436523e+003;4.2593588867e+003;4.2374360352e+003;4.2353847656e+003;4.2315385742e+003;4.2191025391e+003;
1.3046875000e+000;4.2180771484e+003;4.2230771484e+003;4.2126923828e+003;4.2017949219e+003;4.2170512695e+003;4.2224360352e+003;4.2230771484e+003;4.2293588867e+003;4.2279487305e+003;4.2383334961e+003;4.2176923828e+003;4.2173076172e+003;4.2106411133e+003;4.2001284180e+003;
1.3125000000e+000;4.1497436523e+003;4.1561538086e+003;4.1579487305e+003;4.1447436523e+003;4.1410258789e+003;4.1608974609e+003;4.1637177734e+003;4.1651284180e+003;4.1593588867e+003;4.1678203125e+003;4.1530771484e+003;4.1573076172e+003;4.1438461914e+003;4.1430771484e+003;
1.3203125000e+000;4.1397436523e+003;4.1448715820e+003;4.1488461914e+003;4.1369228516e+003;4.1382050781e+003;4.1511538086e+003;4.1553847656e+003;4.1512822266e+003;4.1450000000e+003;4.1526923828e+003;4.1417949219e+003;4.1456411133e+003;4.1335898438e+003;4.1360258789e+003;
1.3281250000e+000;4.1675639648e+003;4.1664101563e+003;4.1673076172e+003;4.1616665039e+003;4.1878203125e+003;4.1693588867e+003;4.1769228516e+003;4.1735898438e+003;4.1684614258e+003;4.1841025391e+003;4.1694873047e+003;4.1760258789e+003;4.1637177734e+003;4.1682050781e+003;
1.3359375000e+000;4.1312822266e+003;4.1297436523e+003;4.1334614258e+003;4.1301284180e+003;4.1447436523e+003;4.1316665039e+003;4.1420512695e+003;4.1373076172e+003;4.1323076172e+003;4.1485898438e+003;4.1337177734e+003;4.1453847656e+003;4.1274360352e+003;4.1325639648e+003;
1.3437500000e+000;4.1351284180e+003;4.1355126953e+003;4.1423076172e+003;4.1257690430e+003;4.1192309570e+003;4.1200000000e+003;4.1315385742e+003;4.1262822266e+003;4.1244873047e+003;4.1458974609e+003;4.1398715820e+003;4.1470512695e+003;4.1294873047e+003;4.1328203125e+003;
1.3515625000e+000;4.1285898438e+003;4.1274360352e+003;4.1351284180e+003;4.1151284180e+003;4.1106411133e+003;4.1126923828e+003;4.1189741211e+003;4.1169228516e+003;4.1179487305e+003;4.1405126953e+003;4.1358974609e+003;4.1392309570e+003;4.1255126953e+003;4.1273076172e+003;
1.3593750000e+000;4.1176923828e+003;4.1107690430e+003;4.1206411133e+003;4.1075639648e+003;4.1046152344e+003;4.1002563477e+003;4.1046152344e+003;4.0962822266e+003;4.1087177734e+003;4.1273076172e+003;4.1243588867e+003;4.1273076172e+003;4.1176923828e+003;4.1150000000e+003;
1.3671875000e+000;4.1682050781e+003;4.1597436523e+003;4.1675639648e+003;4.1578203125e+003;4.1579487305e+003;4.1421796875e+003;4.1507690430e+003;4.1403847656e+003;4.1592309570e+003;4.1780771484e+003;4.1726923828e+003;4.1773076172e+003;4.1675639648e+003;4.1628203125e+003;
1.3750000000e+000;4.2239741211e+003;4.2164101563e+003;4.2202563477e+003;4.2112822266e+003;4.2152563477e+003;4.1892309570e+003;4.2007690430e+003;4.1937177734e+003;4.2164101563e+003;4.2387177734e+003;4.2278203125e+003;4.2342309570e+003;4.2226923828e+003;4.2175639648e+003;
1.3828125000e+000;4.2526923828e+003;4.2546152344e+003;4.2416665039e+003;4.2443588867e+003;4.2476923828e+003;4.2289741211e+003;4.2306411133e+003;4.2391025391e+003;4.2555126953e+003;4.2741025391e+003;4.2591025391e+003;4.2584614258e+003;4.2502563477e+003;4.2429487305e+003;
1.3906250000e+000;4.2785898438e+003;4.2785898438e+003;4.2664101563e+003;4.2653847656e+003;4.2800000000e+003;4.2561538086e+003;4.2569228516e+003;4.2735898438e+003;4.2874360352e+003;4.3042309570e+003;4.2865385742e+003;4.2873076172e+003;4.2775639648e+003;4.2691025391e+003;
1.3984375000e+000;4.2753847656e+003;4.2776923828e+003;4.2706411133e+003;4.2543588867e+003;4.2619228516e+003;4.2675639648e+003;4.2628203125e+003;4.2832050781e+003;4.2865385742e+003;4.3044873047e+003;4.2847436523e+003;4.2860258789e+003;4.2801284180e+003;4.2708974609e+003;
1.4062500000e+000;4.2983334961e+003;4.3024360352e+003;4.2952563477e+003;4.2806411133e+003;4.2814101563e+003;4.2911538086e+003;4.2852563477e+003;4.3065385742e+003;4.3065385742e+003;4.3285898438e+003;4.3089741211e+003;4.3056411133e+003;4.3050000000e+003;4.2948715820e+003;
1.4140625000e+000;4.2715385742e+003;4.2769228516e+003;4.2693588867e+003;4.2655126953e+003;4.2783334961e+003;4.2711538086e+003;4.2661538086e+003;4.2850000000e+003;4.2800000000e+003;4.3035898438e+003;4.2848715820e+003;4.2782050781e+003;4.2789741211e+003;4.2701284180e+003;
1.4218750000e+000;4.2605126953e+003;4.2665385742e+003;4.2570512695e+003;4.2553847656e+003;4.2842309570e+003;4.2630771484e+003;4.2629487305e+003;4.2755126953e+003;4.2693588867e+003;4.2894873047e+003;4.2733334961e+003;4.2678203125e+003;4.2675639648e+003;4.2585898438e+003;
1.4296875000e+000;4.3580771484e+003;4.3637177734e+003;4.3515385742e+003;4.3439741211e+003;4.3747436523e+003;4.3510258789e+003;4.3619228516e+003;4.3739741211e+003;4.3630771484e+003;4.3873076172e+003;4.3693588867e+003;4.3675639648e+003;4.3687177734e+003;4.3542309570e+003;
1.4375000000e+000;4.2719228516e+003;4.2789741211e+003;4.2669228516e+003;4.2569228516e+003;4.2746152344e+003;4.2665385742e+003;4.2747436523e+003;4.2729487305e+003;4.2594873047e+003;4.2894873047e+003;4.2832050781e+003;4.2764101563e+003;4.2762822266e+003;4.2724360352e+003;
1.4453125000e+000;4.2982050781e+003;4.3066665039e+003;4.2921796875e+003;4.2794873047e+003;4.3023076172e+003;4.2851284180e+003;4.2967949219e+003;4.2951284180e+003;4.2837177734e+003;4.3128203125e+003;4.3100000000e+003;4.3039741211e+003;4.3026923828e+003;4.3002563477e+003;
1.4531250000e+000;4.2921796875e+003;4.2907690430e+003;4.2902563477e+003;4.2794873047e+003;4.2750000000e+003;4.2639741211e+003;4.2778203125e+003;4.2841025391e+003;4.2798715820e+003;4.3017949219e+003;4.2978203125e+003;4.3057690430e+003;4.2969228516e+003;4.2917949219e+003;
1.4609375000e+000;4.2905126953e+003;4.2869228516e+003;4.2852563477e+003;4.2761538086e+003;4.2715385742e+003;4.2580771484e+003;4.2734614258e+003;4.2767949219e+003;4.2770512695e+003;4.2993588867e+003;4.2943588867e+003;4.3010258789e+003;4.2939741211e+003;4.2870512695e+003;
1.4687500000e+000;4.2657690430e+003;4.2652563477e+003;4.2606411133e+003;4.2506411133e+003;4.2633334961e+003;4.2467949219e+003;4.2567949219e+003;4.2610258789e+003;4.2741025391e+003;4.2988461914e+003;4.2853847656e+003;4.2898715820e+003;4.2787177734e+003;4.2729487305e+003;
1.4765625000e+000;4.2461538086e+003;4.2465385742e+003;4.2443588867e+003;4.2385898438e+003;4.2420512695e+003;4.2370512695e+003;4.2421796875e+003;4.2465385742e+003;4.2617949219e+003;4.2828203125e+003;4.2670512695e+003;4.2729487305e+003;4.2616665039e+003;4.2556411133e+003;
1.4843750000e+000;4.3329487305e+003;4.3392309570e+003;4.3251284180e+003;4.3241025391e+003;4.3216665039e+003;4.3147436523e+003;4.3188461914e+003;4.3346152344e+003;4.3551284180e+003;4.3703847656e+003;4.3473076172e+003;4.3466665039e+003;4.3473076172e+003;4.3352563477e+003;
1.4921875000e+000;4.3835898438e+003;4.3937177734e+003;4.3700000000e+003;4.3670512695e+003;4.3751284180e+003;4.3538461914e+003;4.3597436523e+003;4.3858974609e+003;4.4085898438e+003;4.4235898438e+003;4.3970512695e+003;4.3910258789e+003;4.3969228516e+003;4.3820512695e+003;
1.5000000000e+000;4.3958974609e+003;4.4079487305e+003;4.3789741211e+003;4.3743588867e+003;4.3964101563e+003;4.3601284180e+003;4.3670512695e+003;4.3985898438e+003;4.4220512695e+003;4.4374360352e+003;4.4101284180e+003;4.4011538086e+003;4.4087177734e+003;4.3923076172e+003;
1.5078125000e+000;4.3557690430e+003;4.3665385742e+003;4.3493588867e+003;4.3398715820e+003;4.3688461914e+003;4.3424360352e+003;4.3382050781e+003;4.3673076172e+003;4.3834614258e+003;4.3988461914e+003;4.3753847656e+003;4.3666665039e+003;4.3769228516e+003;4.3620512695e+003;
1.5156250000e+000;4.3039741211e+003;4.3161538086e+003;4.2988461914e+003;4.2908974609e+003;4.3156411133e+003;4.2988461914e+003;4.2943588867e+003;4.3165385742e+003;4.3307690430e+003;4.3448715820e+003;4.3243588867e+003;4.3164101563e+003;4.3246152344e+003;4.3119228516e+003;
1.5234375000e+000;4.4129487305e+003;4.4260258789e+003;4.4028203125e+003;4.3908974609e+003;4.4276923828e+003;4.4030771484e+003;4.4051284180e+003;4.4167949219e+003;4.4212822266e+003;4.4425639648e+003;4.4253847656e+003;4.4214101563e+003;4.4260258789e+003;4.4143588867e+003;
1.5312500000e+000;4.2025639648e+003;4.2074360352e+003;4.2048715820e+003;4.1921796875e+003;4.2061538086e+003;4.2035898438e+003;4.2011538086e+003;4.2142309570e+003;4.2106411133e+003;4.2243588867e+003;4.2115385742e+003;4.2187177734e+003;4.2046152344e+003;4.2053847656e+003;
1.5390625000e+000;4.1112822266e+003;4.1123076172e+003;4.1167949219e+003;4.1084614258e+003;4.1161538086e+003;4.1165385742e+003;4.1153847656e+003;4.1208974609e+003;4.1178203125e+003;4.1278203125e+003;4.1194873047e+003;4.1289741211e+003;4.1130771484e+003;4.1142309570e+003;
1.5468750000e+000;3.9498718262e+003;3.9475642090e+003;3.9602563477e+003;3.9594870605e+003;3.9475642090e+003;3.9665385742e+003;3.9632050781e+003;3.9560256348e+003;3.9512819824e+003;3.9587180176e+003;3.9598718262e+003;3.9792307129e+003;3.9533332520e+003;3.9591025391e+003;
1.5546875000e+000;3.9088461914e+003;3.9033332520e+003;3.9164101563e+003;3.9182050781e+003;3.8916667480e+003;3.9191025391e+003;3.9193588867e+003;3.9089743652e+003;3.9135898438e+003;3.9158974609e+003;3.9216667480e+003;3.9347436523e+003;3.9143588867e+003;3.9176923828e+003;
1.5625000000e+000;3.8769230957e+003;3.8694870605e+003;3.8869230957e+003;3.8933332520e+003;3.8692307129e+003;3.8871794434e+003;3.8870512695e+003;3.8767949219e+003;3.8851281738e+003;3.8855129395e+003;3.8891025391e+003;3.9030769043e+003;3.8834614258e+003;3.8858974609e+003;
1.5703125000e+000;3.8680769043e+003;3.8675642090e+003;3.8746154785e+003;3.8943588867e+003;3.8846154785e+003;3.8752563477e+003;3.8728205566e+003;3.8548718262e+003;3.8694870605e+003;3.8685898438e+003;3.8725642090e+003;3.8858974609e+003;3.8674357910e+003;3.8724357910e+003;
1.5781250000e+000;3.8951281738e+003;3.8943588867e+003;3.8989743652e+003;3.9182050781e+003;3.9023076172e+003;3.8996154785e+003;3.8938461914e+003;3.8811538086e+003;3.8979487305e+003;3.8997436523e+003;3.9015385742e+003;3.9124357910e+003;3.8941025391e+003;3.8993588867e+003;
1.5859375000e+000;3.8829487305e+003;3.8798718262e+003;3.8887180176e+003;3.9050000000e+003;3.8797436523e+003;3.8897436523e+003;3.8792307129e+003;3.8739743652e+003;3.8920512695e+003;3.8939743652e+003;3.8926923828e+003;3.9033332520e+003;3.8842307129e+003;3.8894870605e+003;
1.5937500000e+000;3.8169230957e+003;3.8125642090e+003;3.8323076172e+003;3.8403845215e+003;3.8174357910e+003;3.8344870605e+003;3.8183332520e+003;3.8246154785e+003;3.8414101563e+003;3.8326923828e+003;3.8297436523e+003;3.8408974609e+003;3.8248718262e+003;3.8275642090e+003;
1.6015625000e+000;3.8291025391e+003;3.8262819824e+003;3.8451281738e+003;3.8510256348e+003;3.8401281738e+003;3.8475642090e+003;3.8320512695e+003;3.8451281738e+003;3.8605129395e+003;3.8455129395e+003;3.8423076172e+003;3.8512819824e+003;3.8387180176e+003;3.8389743652e+003;
1.6093750000e+000;3.8660256348e+003;3.8646154785e+003;3.8765385742e+003;3.8897436523e+003;3.8835898438e+003;3.8892307129e+003;3.8732050781e+003;3.8965385742e+003;3.9102563477e+003;3.8887180176e+003;3.8807692871e+003;3.8873076172e+003;3.8737180176e+003;3.8719230957e+003;
1.6171875000e+000;3.8664101563e+003;3.8667949219e+003;3.8743588867e+003;3.8953845215e+003;3.8814101563e+003;3.8969230957e+003;3.8802563477e+003;3.8993588867e+003;3.9128205566e+003;3.8914101563e+003;3.8814101563e+003;3.8870512695e+003;3.8732050781e+003;3.8698718262e+003;
1.6250000000e+000;3.8921794434e+003;3.8958974609e+003;3.8966667480e+003;3.9239743652e+003;3.9076923828e+003;3.9269230957e+003;3.9111538086e+003;3.9228205566e+003;3.9360256348e+003;3.9179487305e+003;3.9069230957e+003;3.9094870605e+003;3.8994870605e+003;3.8925642090e+003;
1.6328125000e+000;3.9512819824e+003;3.9589743652e+003;3.9515385742e+003;3.9807692871e+003;3.9725642090e+003;3.9847436523e+003;3.9707692871e+003;3.9789743652e+003;3.9905129395e+003;3.9794870605e+003;3.9667949219e+003;3.9648718262e+003;3.9600000000e+003;3.9489743652e+003;
1.6406250000e+000;3.9341025391e+003;3.9373076172e+003;3.9379487305e+003;3.9623076172e+003;3.9488461914e+003;3.9716667480e+003;3.9597436523e+003;3.9643588867e+003;3.9614101563e+003;3.9560256348e+003;3.9443588867e+003;3.9491025391e+003;3.9366667480e+003;3.9279487305e+003;
1.6484375000e+000;3.9533332520e+003;3.9557692871e+003;3.9558974609e+003;3.9783332520e+003;3.9588461914e+003;3.9852563477e+003;3.9773076172e+003;3.9752563477e+003;3.9716667480e+003;3.9651281738e+003;3.9574357910e+003;3.9641025391e+003;3.9532050781e+003;3.9452563477e+003;
1.6562500000e+000;4.0035898438e+003;4.0042307129e+003;4.0080769043e+003;4.0188461914e+003;4.0242307129e+003;4.0185898438e+003;4.0173076172e+003;4.0135898438e+003;4.0085898438e+003;4.0097436523e+003;4.0094870605e+003;4.0197436523e+003;4.0043588867e+003;3.9988461914e+003;
1.6640625000e+000;4.0121794434e+003;4.0102563477e+003;4.0242307129e+003;4.0320512695e+003;4.0428205566e+003;4.0292307129e+003;4.0296154785e+003;4.0167949219e+003;4.0101281738e+003;4.0151281738e+003;4.0200000000e+003;4.0346154785e+003;4.0173076172e+003;4.0058974609e+003;
1.6718750000e+000;4.0461538086e+003;4.0457692871e+003;4.0571794434e+003;4.0641025391e+003;4.0707692871e+003;4.0593588867e+003;4.0610256348e+003;4.0482050781e+003;4.0428205566e+003;4.0494870605e+003;4.0539743652e+003;4.0706411133e+003;4.0535898438e+003;4.0396154785e+003;
1.6796875000e+000;4.0238461914e+003;4.0264101563e+003;4.0280769043e+003;4.0324357910e+003;4.0306411133e+003;4.0261538086e+003;4.0308974609e+003;4.0185898438e+003;4.0208974609e+003;4.0239743652e+003;4.0283332520e+003;4.0455129395e+003;4.0248718262e+003;4.0176923828e+003;
1.6875000000e+000;4.0428205566e+003;4.0421794434e+003;4.0469230957e+003;4.0466667480e+003;4.0484614258e+003;4.0392307129e+003;4.0451281738e+003;4.0325642090e+003;4.0364101563e+003;4.0402563477e+003;4.0443588867e+003;4.0580769043e+003;4.0398718262e+003;4.0310256348e+003;
1.6953125000e+000;4.0579487305e+003;4.0542307129e+003;4.0667949219e+003;4.0644870605e+003;4.0620512695e+003;4.0552563477e+003;4.0534614258e+003;4.0546154785e+003;4.0596154785e+003;4.0646154785e+003;4.0611538086e+003;4.0750000000e+003;4.0587180176e+003;4.0419230957e+003;
1.7031250000e+000;4.1176923828e+003;4.1180771484e+003;4.1161538086e+003;4.1293588867e+003;4.1341025391e+003;4.1106411133e+003;4.1129487305e+003;4.1220512695e+003;4.1337177734e+003;4.1271796875e+003;4.1205126953e+003;4.1287177734e+003;4.1175639648e+003;4.1046152344e+003;
1.7109375000e+000;4.1407690430e+003;4.1411538086e+003;4.1384614258e+003;4.1482050781e+003;4.1585898438e+003;4.1312822266e+003;4.1321796875e+003;4.1497436523e+003;4.1610258789e+003;4.1548715820e+003;4.1434614258e+003;4.1535898438e+003;4.1389741211e+003;4.1264101563e+003;
1.7187500000e+000;4.0946154785e+003;4.0929487305e+003;4.0921794434e+003;4.0932050781e+003;4.0985898438e+003;4.0998715820e+003;4.0928205566e+003;4.1091025391e+003;4.1156411133e+003;4.1093588867e+003;4.0967949219e+003;4.1128203125e+003;4.0961538086e+003;4.0791025391e+003;
1.7265625000e+000;4.1261538086e+003;4.1192309570e+003;4.1273076172e+003;4.1296152344e+003;4.1328203125e+003;4.1369228516e+003;4.1312822266e+003;4.1412822266e+003;4.1419228516e+003;4.1394873047e+003;4.1284614258e+003;4.1387177734e+003;4.1271796875e+003;4.1088461914e+003;
1.7343750000e+000;4.1169228516e+003;4.1097436523e+003;4.1205126953e+003;4.1234614258e+003;4.1358974609e+003;4.1285898438e+003;4.1228203125e+003;4.1260258789e+003;4.1250000000e+003;4.1223076172e+003;4.1169228516e+003;4.1291025391e+003;4.1146152344e+003;4.0982050781e+003;
1.7421875000e+000;4.1384614258e+003;4.1328203125e+003;4.1416665039e+003;4.1439741211e+003;4.1674360352e+003;4.1467949219e+003;4.1420512695e+003;4.1389741211e+003;4.1376923828e+003;4.1356411133e+003;4.1366665039e+003;4.1502563477e+003;4.1337177734e+003;4.1191025391e+003;
1.7500000000e+000;4.1788461914e+003;4.1752563477e+003;4.1805126953e+003;4.1802563477e+003;4.2100000000e+003;4.1825639648e+003;4.1793588867e+003;4.1738461914e+003;4.1724360352e+003;4.1729487305e+003;4.1774360352e+003;4.1919228516e+003;4.1739741211e+003;4.1611538086e+003;
1.7578125000e+000;4.1791025391e+003;4.1756411133e+003;4.1817949219e+003;4.1725639648e+003;4.1885898438e+003;4.1865385742e+003;4.1912822266e+003;4.1743588867e+003;4.1607690430e+003;4.1775639648e+003;4.1815385742e+003;4.1950000000e+003;4.1755126953e+003;4.1597436523e+003;
1.7656250000e+000;4.2306411133e+003;4.2274360352e+003;4.2314101563e+003;4.2216665039e+003;4.2425639648e+003;4.2293588867e+003;4.2374360352e+003;4.2234614258e+003;4.2107690430e+003;4.2305126953e+003;4.2350000000e+003;4.2465385742e+003;4.2293588867e+003;4.2112822266e+003;
1.7734375000e+000;4.2451284180e+003;4.2393588867e+003;4.2479487305e+003;4.2339741211e+003;4.2370512695e+003;4.2287177734e+003;4.2400000000e+003;4.2324360352e+003;4.2283334961e+003;4.2450000000e+003;4.2508974609e+003;4.2665385742e+003;4.2485898438e+003;4.2376923828e+003;
1.7812500000e+000;4.3182050781e+003;4.3178203125e+003;4.3137177734e+003;4.2978203125e+003;4.3110258789e+003;4.2820512695e+003;4.2958974609e+003;4.2939741211e+003;4.2948715820e+003;4.3211538086e+003;4.3158974609e+003;4.3250000000e+003;4.3183334961e+003;4.2998715820e+003;
1.7890625000e+000;4.3114101563e+003;4.3107690430e+003;4.3089741211e+003;4.2919228516e+003;4.3108974609e+003;4.2752563477e+003;4.2885898438e+003;4.2916665039e+003;4.2956411133e+003;4.3230771484e+003;4.3129487305e+003;4.3208974609e+003;4.3150000000e+003;4.2942309570e+003;
1.7968750000e+000;4.2961538086e+003;4.3008974609e+003;4.2965385742e+003;4.2861538086e+003;4.2810258789e+003;4.2697436523e+003;4.2852563477e+003;4.2926923828e+003;4.3025639648e+003;4.3201284180e+003;4.3076923828e+003;4.3119228516e+003;4.3082050781e+003;4.2825639648e+003;
1.8046875000e+000;4.3197436523e+003;4.3248715820e+003;4.3169228516e+003;4.3096152344e+003;4.3000000000e+003;4.2915385742e+003;4.3055126953e+003;4.3214101563e+003;4.3287177734e+003;4.3474360352e+003;4.3320512695e+003;4.3351284180e+003;4.3315385742e+003;4.3064101563e+003;
1.8125000000e+000;4.3014101563e+003;4.3067949219e+003;4.2947436523e+003;4.2900000000e+003;4.3238461914e+003;4.2826923828e+003;4.2865385742e+003;4.3066665039e+003;4.3137177734e+003;4.3303847656e+003;4.3106411133e+003;4.3147436523e+003;4.3151284180e+003;4.2893588867e+003;
1.8203125000e+000;4.2826923828e+003;4.2887177734e+003;4.2814101563e+003;4.2712822266e+003;4.3076923828e+003;4.2810258789e+003;4.2761538086e+003;4.2908974609e+003;4.3035898438e+003;4.3133334961e+003;4.2934614258e+003;4.2970512695e+003;4.2957690430e+003;4.2703847656e+003;
1.8281250000e+000;4.2452563477e+003;4.2466665039e+003;4.2447436523e+003;4.2373076172e+003;4.2601284180e+003;4.2506411133e+003;4.2410258789e+003;4.2505126953e+003;4.2615385742e+003;4.2680771484e+003;4.2516665039e+003;4.2582050781e+003;4.2528203125e+003;4.2307690430e+003;
1.8359375000e+000;4.2491025391e+003;4.2469228516e+003;4.2465385742e+003;4.2402563477e+003;4.2588461914e+003;4.2551284180e+003;4.2441025391e+003;4.2467949219e+003;4.2560258789e+003;4.2615385742e+003;4.2493588867e+003;4.2580771484e+003;4.2523076172e+003;4.2317949219e+003;
1.8437500000e+000;4.3446152344e+003;4.3420512695e+003;4.3382050781e+003;4.3220512695e+003;4.3539741211e+003;4.3371796875e+003;4.3320512695e+003;4.3312822266e+003;4.3365385742e+003;4.3507690430e+003;4.3403847656e+003;4.3521796875e+003;4.3465385742e+003;4.3283334961e+003;
1.8515625000e+000;4.2717949219e+003;4.2637177734e+003;4.2692309570e+003;4.2533334961e+003;4.2692309570e+003;4.2662822266e+003;4.2705126953e+003;4.2584614258e+003;4.2520512695e+003;4.2757690430e+003;4.2689741211e+003;4.2873076172e+003;4.2665385742e+003;4.2593588867e+003;
1.8593750000e+000;4.2884614258e+003;4.2767949219e+003;4.2819228516e+003;4.2694873047e+003;4.2826923828e+003;4.2811538086e+003;4.2876923828e+003;4.2714101563e+003;4.2628203125e+003;4.2876923828e+003;4.2834614258e+003;4.2989741211e+003;4.2815385742e+003;4.2730771484e+003;
1.8671875000e+000;4.3253847656e+003;4.3125639648e+003;4.3147436523e+003;4.3023076172e+003;4.3174360352e+003;4.3141025391e+003;4.3214101563e+003;4.3073076172e+003;4.2976923828e+003;4.3235898438e+003;4.3193588867e+003;4.3317949219e+003;4.3201284180e+003;4.3088461914e+003;
1.8750000000e+000;4.3392309570e+003;4.3284614258e+003;4.3279487305e+003;4.3123076172e+003;4.3296152344e+003;4.3256411133e+003;4.3325639648e+003;4.3238461914e+003;4.3134614258e+003;4.3396152344e+003;4.3339741211e+003;4.3452563477e+003;4.3375639648e+003;4.3244873047e+003;
1.8828125000e+000;4.3182050781e+003;4.3116665039e+003;4.3150000000e+003;4.2980771484e+003;4.3074360352e+003;4.2926923828e+003;4.3105126953e+003;4.3087177734e+003;4.2989741211e+003;4.3232050781e+003;4.3221796875e+003;4.3362822266e+003;4.3184614258e+003;4.3132050781e+003;
1.8906250000e+000;4.2982050781e+003;4.2906411133e+003;4.2961538086e+003;4.2814101563e+003;4.2800000000e+003;4.2737177734e+003;4.2900000000e+003;4.2910258789e+003;4.2862822266e+003;4.3067949219e+003;4.3066665039e+003;4.3206411133e+003;4.3001284180e+003;4.2960258789e+003;
1.8984375000e+000;4.2611538086e+003;4.2520512695e+003;4.2574360352e+003;4.2353847656e+003;4.2339741211e+003;4.2311538086e+003;4.2451284180e+003;4.2469228516e+003;4.2566665039e+003;4.2676923828e+003;4.2647436523e+003;4.2734614258e+003;4.2608974609e+003;4.2535898438e+003;
1.9062500000e+000;4.2662822266e+003;4.2629487305e+003;4.2600000000e+003;4.2510258789e+003;4.2767949219e+003;4.2351284180e+003;4.2465385742e+003;4.2637177734e+003;4.2824360352e+003;4.2875639648e+003;4.2705126953e+003;4.2853847656e+003;4.2676923828e+003;4.2642309570e+003;
1.9140625000e+000;4.2379487305e+003;4.2396152344e+003;4.2317949219e+003;4.2303847656e+003;4.2508974609e+003;4.2142309570e+003;4.2225639648e+003;4.2366665039e+003;4.2567949219e+003;4.2576923828e+003;4.2424360352e+003;4.2567949219e+003;4.2412822266e+003;4.2369228516e+003;
1.9218750000e+000;4.2801284180e+003;4.2846152344e+003;4.2766665039e+003;4.2717949219e+003;4.2811538086e+003;4.2647436523e+003;4.2562822266e+003;4.2741025391e+003;4.2948715820e+003;4.3006411133e+003;4.2858974609e+003;4.2856411133e+003;4.2851284180e+003;4.2761538086e+003;
1.9296875000e+000;4.2557690430e+003;4.2570512695e+003;4.2543588867e+003;4.2487177734e+003;4.2593588867e+003;4.2461538086e+003;4.2326923828e+003;4.2496152344e+003;4.2710258789e+003;4.2773076172e+003;4.2612822266e+003;4.2620512695e+003;4.2593588867e+003;4.2532050781e+003;
1.9375000000e+000;4.2434614258e+003;4.2441025391e+003;4.2341025391e+003;4.2298715820e+003;4.2493588867e+003;4.2365385742e+003;4.2269228516e+003;4.2258974609e+003;4.2471796875e+003;4.2524360352e+003;4.2421796875e+003;4.2493588867e+003;4.2450000000e+003;4.2391025391e+003;
1.9453125000e+000;4.1697436523e+003;4.1730771484e+003;4.1708974609e+003;4.1651284180e+003;4.1734614258e+003;4.1821796875e+003;4.1671796875e+003;4.1612822266e+003;4.1691025391e+003;4.1773076172e+003;4.1757690430e+003;4.1819228516e+003;4.1729487305e+003;4.1734614258e+003;
1.9531250000e+000;4.1747436523e+003;4.1791025391e+003;4.1756411133e+003;4.1744873047e+003;4.1860258789e+003;4.1889741211e+003;4.1765385742e+003;4.1653847656e+003;4.1724360352e+003;4.1794873047e+003;4.1805126953e+003;4.1864101563e+003;4.1757690430e+003;4.1785898438e+003;
1.9609375000e+000;4.2028203125e+003;4.2073076172e+003;4.2002563477e+003;4.2026923828e+003;4.2176923828e+003;4.2124360352e+003;4.2046152344e+003;4.1914101563e+003;4.1988461914e+003;4.2060258789e+003;4.2061538086e+003;4.2146152344e+003;4.2016665039e+003;4.2048715820e+003;
1.9687500000e+000;4.1867949219e+003;4.1892309570e+003;4.1808974609e+003;4.1860258789e+003;4.1852563477e+003;4.1925639648e+003;4.1901284180e+003;4.1770512695e+003;4.1823076172e+003;4.1905126953e+003;4.1851284180e+003;4.2025639648e+003;4.1846152344e+003;4.1871796875e+003;
1.9765625000e+000;4.1721796875e+003;4.1755126953e+003;4.1706411133e+003;4.1712822266e+003;4.1616665039e+003;4.1824360352e+003;4.1846152344e+003;4.1693588867e+003;4.1744873047e+003;4.1771796875e+003;4.1752563477e+003;4.1851284180e+003;4.1730771484e+003;4.1724360352e+003;
1.9843750000e+000;4.1803847656e+003;4.1821796875e+003;4.1788461914e+003;4.1766665039e+003;4.1830771484e+003;4.1874360352e+003;4.1902563477e+003;4.1787177734e+003;4.1851284180e+003;4.1874360352e+003;4.1847436523e+003;4.1932050781e+003;4.1793588867e+003;4.1785898438e+003;
1.9921875000e+000;4.1589741211e+003;4.1583334961e+003;4.1566665039e+003;4.1546152344e+003;4.1755126953e+003;4.1635898438e+003;4.1665385742e+003;4.1567949219e+003;4.1641025391e+003;4.1664101563e+003;4.1626923828e+003;4.1714101563e+003;4.1553847656e+003;4.1544873047e+003;
2.0000000000e+000;4.1257690430e+003;4.1237177734e+003;4.1180771484e+003;4.1256411133e+003;4.1479487305e+003;4.1256411133e+003;4.1301284180e+003;4.1203847656e+003;4.1329487305e+003;4.1337177734e+003;4.1275639648e+003;4.1338461914e+003;4.1243588867e+003;4.1192309570e+003;
2.0078125000e+000;4.1128203125e+003;4.1194873047e+003;4.1121796875e+003;4.1225639648e+003;4.1152563477e+003;4.1174360352e+003;4.1210258789e+003;4.1288461914e+003;4.1474360352e+003;4.1426923828e+003;4.1279487305e+003;4.1316665039e+003;4.1270512695e+003;4.1206411133e+003;
2.0156250000e+000;4.0966665039e+003;4.1048715820e+003;4.0992309570e+003;4.1082050781e+003;4.1017949219e+003;4.1029487305e+003;4.1073076172e+003;4.1152563477e+003;4.1320512695e+003;4.1262822266e+003;4.1126923828e+003;4.1171796875e+003;4.1111538086e+003;4.1056411133e+003;
2.0234375000e+000;4.1684614258e+003;4.1771796875e+003;4.1630771484e+003;4.1733334961e+003;4.1758974609e+003;4.1629487305e+003;4.1644873047e+003;4.1784614258e+003;4.1966665039e+003;4.1975639648e+003;4.1829487305e+003;4.1844873047e+003;4.1842309570e+003;4.1755126953e+003;
2.0312500000e+000;4.1374360352e+003;4.1469228516e+003;4.1325639648e+003;4.1428203125e+003;4.1403847656e+003;4.1374360352e+003;4.1330771484e+003;4.1488461914e+003;4.1678203125e+003;4.1678203125e+003;4.1516665039e+003;4.1560258789e+003;4.1541025391e+003;4.1452563477e+003;
2.0390625000e+000;4.0929487305e+003;4.1056411133e+003;4.0915385742e+003;4.0962822266e+003;4.0966665039e+003;4.1026923828e+003;4.0935898438e+003;4.0988461914e+003;4.1173076172e+003;4.1138461914e+003;4.1015385742e+003;4.1098715820e+003;4.1037177734e+003;4.0956411133e+003;
2.0468750000e+000;4.1229487305e+003;4.1366665039e+003;4.1208974609e+003;4.1234614258e+003;4.1319228516e+003;4.1297436523e+003;4.1214101563e+003;4.1232050781e+003;4.1411538086e+003;4.1389741211e+003;4.1298715820e+003;4.1366665039e+003;4.1292309570e+003;4.1226923828e+003;
2.0546875000e+000;4.0712819824e+003;4.0810256348e+003;4.0682050781e+003;4.0821794434e+003;4.0748718262e+003;4.0844870605e+003;4.0717949219e+003;4.0670512695e+003;4.0789743652e+003;4.0743588867e+003;4.0778205566e+003;4.0848718262e+003;4.0733332520e+003;4.0721794434e+003;
2.0625000000e+000;4.0520512695e+003;4.0610256348e+003;4.0489743652e+003;4.0651281738e+003;4.0461538086e+003;4.0700000000e+003;4.0574357910e+003;4.0470512695e+003;4.0560256348e+003;4.0497436523e+003;4.0551281738e+003;4.0648718262e+003;4.0550000000e+003;4.0517949219e+003;
2.0703125000e+000;4.1135898438e+003;4.1164101563e+003;4.1110258789e+003;4.1223076172e+003;4.1150000000e+003;4.1302563477e+003;4.1226923828e+003;4.1108974609e+003;4.1173076172e+003;4.1202563477e+003;4.1158974609e+003;4.1314101563e+003;4.1157690430e+003;4.1121796875e+003;
2.0781250000e+000;4.2370512695e+003;4.2408974609e+003;4.2298715820e+003;4.2328203125e+003;4.2570512695e+003;4.2394873047e+003;4.2411538086e+003;4.2275639648e+003;4.2332050781e+003;4.2412822266e+003;4.2348715820e+003;4.2414101563e+003;4.2391025391e+003;4.2288461914e+003;
2.0859375000e+000;4.2805126953e+003;4.2855126953e+003;4.2723076172e+003;4.2708974609e+003;4.2902563477e+003;4.2780771484e+003;4.2815385742e+003;4.2743588867e+003;4.2778203125e+003;4.2865385742e+003;4.2787177734e+003;4.2841025391e+003;4.2850000000e+003;4.2729487305e+003;
2.0937500000e+000;4.2714101563e+003;4.2761538086e+003;4.2648715820e+003;4.2617949219e+003;4.2714101563e+003;4.2701284180e+003;4.2735898438e+003;4.2714101563e+003;4.2726923828e+003;4.2801284180e+003;4.2720512695e+003;4.2792309570e+003;4.2775639648e+003;4.2666665039e+003;
2.1015625000e+000;4.2373076172e+003;4.2408974609e+003;4.2330771484e+003;4.2303847656e+003;4.2344873047e+003;4.2398715820e+003;4.2430771484e+003;4.2407690430e+003;4.2415385742e+003;4.2464101563e+003;4.2396152344e+003;4.2484614258e+003;4.2430771484e+003;4.2341025391e+003;
2.1093750000e+000;4.3214101563e+003;4.3225639648e+003;4.3094873047e+003;4.3076923828e+003;4.3247436523e+003;4.3075639648e+003;4.3166665039e+003;4.3228203125e+003;4.3341025391e+003;4.3424360352e+003;4.3220512695e+003;4.3214101563e+003;4.3324360352e+003;4.3155126953e+003;
2.1171875000e+000;4.2958974609e+003;4.2957690430e+003;4.2843588867e+003;4.2848715820e+003;4.2953847656e+003;4.2841025391e+003;4.2929487305e+003;4.3003847656e+003;4.3119228516e+003;4.3174360352e+003;4.2967949219e+003;4.2985898438e+003;4.3080771484e+003;4.2903847656e+003;
2.1250000000e+000;4.3457690430e+003;4.3511538086e+003;4.3375639648e+003;4.3341025391e+003;4.3476923828e+003;4.3314101563e+003;4.3416665039e+003;4.3498715820e+003;4.3614101563e+003;4.3624360352e+003;4.3456411133e+003;4.3485898438e+003;4.3548715820e+003;4.3361538086e+003;
2.1328125000e+000;4.2796152344e+003;4.2894873047e+003;4.2732050781e+003;4.2676923828e+003;4.2589741211e+003;4.2701284180e+003;4.2751284180e+003;4.2810258789e+003;4.2952563477e+003;4.2950000000e+003;4.2757690430e+003;4.2794873047e+003;4.2841025391e+003;4.2765385742e+003;
2.1406250000e+000;4.2694873047e+003;4.2757690430e+003;4.2596152344e+003;4.2561538086e+003;4.2528203125e+003;4.2608974609e+003;4.2648715820e+003;4.2674360352e+003;4.2820512695e+003;4.2810258789e+003;4.2657690430e+003;4.2682050781e+003;4.2741025391e+003;4.2657690430e+003;
2.1484375000e+000;4.2411538086e+003;4.2488461914e+003;4.2302563477e+003;4.2316665039e+003;4.2621796875e+003;4.2469228516e+003;4.2443588867e+003;4.2448715820e+003;4.2553847656e+003;4.2570512695e+003;4.2447436523e+003;4.2410258789e+003;4.2521796875e+003;4.2362822266e+003;
2.1562500000e+000;4.3557690430e+003;4.3646152344e+003;4.3414101563e+003;4.3396152344e+003;4.3639741211e+003;4.3528203125e+003;4.3561538086e+003;4.3528203125e+003;4.3605126953e+003;4.3661538086e+003;4.3491025391e+003;4.3438461914e+003;4.3589741211e+003;4.3433334961e+003;
2.1640625000e+000;4.3628203125e+003;4.3702563477e+003;4.3503847656e+003;4.3467949219e+003;4.3697436523e+003;4.3611538086e+003;4.3644873047e+003;4.3626923828e+003;4.3692309570e+003;4.3762822266e+003;4.3574360352e+003;4.3544873047e+003;4.3664101563e+003;4.3517949219e+003;
2.1718750000e+000;4.3407690430e+003;4.3524360352e+003;4.3317949219e+003;4.3314101563e+003;4.3637177734e+003;4.3501284180e+003;4.3530771484e+003;4.3430771484e+003;4.3460258789e+003;4.3547436523e+003;4.3396152344e+003;4.3358974609e+003;4.3508974609e+003;4.3326923828e+003;
2.1796875000e+000;4.3737177734e+003;4.3844873047e+003;4.3626923828e+003;4.3632050781e+003;4.3920512695e+003;4.3770512695e+003;4.3816665039e+003;4.3760258789e+003;4.3774360352e+003;4.3894873047e+003;4.3721796875e+003;4.3692309570e+003;4.3837177734e+003;4.3646152344e+003;
2.1875000000e+000;4.3693588867e+003;4.3774360352e+003;4.3588461914e+003;4.3584614258e+003;4.3791025391e+003;4.3692309570e+003;4.3742309570e+003;4.3741025391e+003;4.3742309570e+003;4.3873076172e+003;4.3679487305e+003;4.3687177734e+003;4.3780771484e+003;4.3601284180e+003;
2.1953125000e+000;4.2587177734e+003;4.2661538086e+003;4.2543588867e+003;4.2491025391e+003;4.2639741211e+003;4.2655126953e+003;4.2707690430e+003;4.2685898438e+003;4.2682050781e+003;4.2712822266e+003;4.2593588867e+003;4.2642309570e+003;4.2661538086e+003;4.2525639648e+003;
2.2031250000e+000;4.2097436523e+003;4.2233334961e+003;4.2070512695e+003;4.2058974609e+003;4.2112822266e+003;4.2180771484e+003;4.2248715820e+003;4.2274360352e+003;4.2270512695e+003;4.2251284180e+003;4.2174360352e+003;4.2142309570e+003;4.2257690430e+003;4.2139741211e+003;
2.2109375000e+000;4.1892309570e+003;4.2012822266e+003;4.1871796875e+003;4.1933334961e+003;4.1833334961e+003;4.1987177734e+003;4.2050000000e+003;4.2085898438e+003;4.2075639648e+003;4.2048715820e+003;4.1944873047e+003;4.1951284180e+003;4.2042309570e+003;4.1938461914e+003;
2.2187500000e+000;4.1905126953e+003;4.2003847656e+003;4.1869228516e+003;4.1983334961e+003;4.1815385742e+003;4.1982050781e+003;4.2058974609e+003;4.2070512695e+003;4.2056411133e+003;4.2019228516e+003;4.1903847656e+003;4.1950000000e+003;4.2008974609e+003;4.1919228516e+003;
2.2265625000e+000;4.2343588867e+003;4.2423076172e+003;4.2264101563e+003;4.2371796875e+003;4.2291025391e+003;4.2341025391e+003;4.2450000000e+003;4.2452563477e+003;4.2435898438e+003;4.2406411133e+003;4.2291025391e+003;4.2346152344e+003;4.2391025391e+003;4.2314101563e+003;
2.2343750000e+000;4.2764101563e+003;4.2851284180e+003;4.2726923828e+003;4.2635898438e+003;4.2905126953e+003;4.2682050781e+003;4.2779487305e+003;4.2878203125e+003;4.2842309570e+003;4.2865385742e+003;4.2797436523e+003;4.2783334961e+003;4.2829487305e+003;4.2783334961e+003;
2.2421875000e+000;4.2655126953e+003;4.2776923828e+003;4.2653847656e+003;4.2603847656e+003;4.2773076172e+003;4.2653847656e+003;4.2725639648e+003;4.2778203125e+003;4.2773076172e+003;4.2771796875e+003;4.2714101563e+003;4.2673076172e+003;4.2747436523e+003;4.2688461914e+003;
2.2500000000e+000;4.2288461914e+003;4.2366665039e+003;4.2280771484e+003;4.2274360352e+003;4.2355126953e+003;4.2379487305e+003;4.2321796875e+003;4.2393588867e+003;4.2447436523e+003;4.2412822266e+003;4.2284614258e+003;4.2264101563e+003;4.2339741211e+003;4.2317949219e+003;
2.2578125000e+000;4.2065385742e+003;4.2135898438e+003;4.2060258789e+003;4.2082050781e+003;4.2156411133e+003;4.2164101563e+003;4.2143588867e+003;4.2092309570e+003;4.2141025391e+003;4.2103847656e+003;4.2001284180e+003;4.1997436523e+003;4.2085898438e+003;4.1988461914e+003;
2.2656250000e+000;4.2048715820e+003;4.2123076172e+003;4.2064101563e+003;4.2084614258e+003;4.2152563477e+003;4.2200000000e+003;4.2184614258e+003;4.2141025391e+003;4.2188461914e+003;4.2138461914e+003;4.2028203125e+003;4.2023076172e+003;4.2073076172e+003;4.1982050781e+003;
2.2734375000e+000;4.1384614258e+003;4.1355126953e+003;4.1442309570e+003;4.1358974609e+003;4.1482050781e+003;4.1642309570e+003;4.1583334961e+003;4.1511538086e+003;4.1475639648e+003;4.1432050781e+003;4.1329487305e+003;4.1392309570e+003;4.1300000000e+003;4.1369228516e+003;
2.2812500000e+000;4.1739741211e+003;4.1693588867e+003;4.1805126953e+003;4.1708974609e+003;4.1782050781e+003;4.1837177734e+003;4.1817949219e+003;4.1771796875e+003;4.1703847656e+003;4.1761538086e+003;4.1669228516e+003;4.1776923828e+003;4.1712822266e+003;4.1750000000e+003;
2.2890625000e+000;4.1524360352e+003;4.1452563477e+003;4.1547436523e+003;4.1555126953e+003;4.1492309570e+003;4.1594873047e+003;4.1598715820e+003;4.1517949219e+003;4.1434614258e+003;4.1485898438e+003;4.1447436523e+003;4.1561538086e+003;4.1501284180e+003;4.1515385742e+003;
2.2968750000e+000;4.1614101563e+003;4.1516665039e+003;4.1569228516e+003;4.1660258789e+003;4.1476923828e+003;4.1619228516e+003;4.1655126953e+003;4.1543588867e+003;4.1448715820e+003;4.1496152344e+003;4.1517949219e+003;4.1616665039e+003;4.1565385742e+003;4.1567949219e+003;
2.3046875000e+000;4.2252563477e+003;4.2164101563e+003;4.2155126953e+003;4.2191025391e+003;4.2015385742e+003;4.2124360352e+003;4.2175639648e+003;4.2134614258e+003;4.2052563477e+003;4.2134614258e+003;4.2166665039e+003;4.2223076172e+003;4.2173076172e+003;4.2198715820e+003;
2.3125000000e+000;4.2193588867e+003;4.2142309570e+003;4.2135898438e+003;4.2092309570e+003;4.2044873047e+003;4.2078203125e+003;4.2111538086e+003;4.2108974609e+003;4.2052563477e+003;4.2148715820e+003;4.2137177734e+003;4.2194873047e+003;4.2139741211e+003;4.2175639648e+003;
2.3203125000e+000;4.2064101563e+003;4.2044873047e+003;4.2038461914e+003;4.1952563477e+003;4.2060258789e+003;4.1974360352e+003;4.2001284180e+003;4.1997436523e+003;4.1969228516e+003;4.2070512695e+003;4.2017949219e+003;4.2079487305e+003;4.2042309570e+003;4.2062822266e+003;
2.3281250000e+000;4.2448715820e+003;4.2435898438e+003;4.2437177734e+003;4.2339741211e+003;4.2367949219e+003;4.2266665039e+003;4.2293588867e+003;4.2419228516e+003;4.2371796875e+003;4.2419228516e+003;4.2314101563e+003;4.2419228516e+003;4.2383334961e+003;4.2424360352e+003;
2.3359375000e+000;4.2303847656e+003;4.2314101563e+003;4.2300000000e+003;4.2208974609e+003;4.2242309570e+003;4.2180771484e+003;4.2214101563e+003;4.2294873047e+003;4.2257690430e+003;4.2279487305e+003;4.2183334961e+003;4.2269228516e+003;4.2256411133e+003;4.2301284180e+003;
2.3437500000e+000;4.2526923828e+003;4.2575639648e+003;4.2510258789e+003;4.2574360352e+003;4.2670512695e+003;4.2569228516e+003;4.2583334961e+003;4.2671796875e+003;4.2701284180e+003;4.2705126953e+003;4.2546152344e+003;4.2542309570e+003;4.2626923828e+003;4.2557690430e+003;
2.3515625000e+000;4.3601284180e+003;4.3738461914e+003;4.3543588867e+003;4.3469228516e+003;4.3711538086e+003;4.3569228516e+003;4.3593588867e+003;4.3584614258e+003;4.3615385742e+003;4.3679487305e+003;4.3523076172e+003;4.3493588867e+003;4.3608974609e+003;4.3560258789e+003;
2.3593750000e+000;4.4200000000e+003;4.4320512695e+003;4.4103847656e+003;4.3979487305e+003;4.4247436523e+003;4.4069228516e+003;4.4088461914e+003;4.4134614258e+003;4.4144873047e+003;4.4285898438e+003;4.4100000000e+003;4.4069228516e+003;4.4180771484e+003;4.4134614258e+003;
2.3671875000e+000;4.2755126953e+003;4.2785898438e+003;4.2703847656e+003;4.2650000000e+003;4.2788461914e+003;4.2730771484e+003;4.2633334961e+003;4.2721796875e+003;4.2667949219e+003;4.2852563477e+003;4.2733334961e+003;4.2707690430e+003;4.2784614258e+003;4.2721796875e+003;
2.3750000000e+000;4.2448715820e+003;4.2484614258e+003;4.2411538086e+003;4.2365385742e+003;4.2458974609e+003;4.2458974609e+003;4.2360258789e+003;4.2387177734e+003;4.2350000000e+003;4.2521796875e+003;4.2469228516e+003;4.2428203125e+003;4.2506411133e+003;4.2447436523e+003;
2.3828125000e+000;4.2262822266e+003;4.2302563477e+003;4.2230771484e+003;4.2187177734e+003;4.2088461914e+003;4.2282050781e+003;4.2212822266e+003;4.2143588867e+003;4.2169228516e+003;4.2332050781e+003;4.2341025391e+003;4.2329487305e+003;4.2344873047e+003;4.2333334961e+003;
2.3906250000e+000;4.1964101563e+003;4.1989741211e+003;4.1933334961e+003;4.1912822266e+003;4.1755126953e+003;4.2002563477e+003;4.1950000000e+003;4.1828203125e+003;4.1869228516e+003;4.2006411133e+003;4.2028203125e+003;4.2044873047e+003;4.2030771484e+003;4.2038461914e+003;
2.3984375000e+000;4.1907690430e+003;4.1934614258e+003;4.1846152344e+003;4.1846152344e+003;4.2006411133e+003;4.1892309570e+003;4.1843588867e+003;4.1779487305e+003;4.1821796875e+003;4.1888461914e+003;4.1888461914e+003;4.1910258789e+003;4.1911538086e+003;4.1928203125e+003;
2.4062500000e+000;4.1817949219e+003;4.1841025391e+003;4.1764101563e+003;4.1751284180e+003;4.1930771484e+003;4.1789741211e+003;4.1712822266e+003;4.1715385742e+003;4.1753847656e+003;4.1828203125e+003;4.1788461914e+003;4.1851284180e+003;4.1798715820e+003;4.1846152344e+003;
2.4140625000e+000;4.1462822266e+003;4.1442309570e+003;4.1429487305e+003;4.1432050781e+003;4.1406411133e+003;4.1417949219e+003;4.1348715820e+003;4.1346152344e+003;4.1400000000e+003;4.1457690430e+003;4.1393588867e+003;4.1524360352e+003;4.1406411133e+003;4.1483334961e+003;
2.4218750000e+000;4.1624360352e+003;4.1593588867e+003;4.1585898438e+003;4.1596152344e+003;4.1506411133e+003;4.1534614258e+003;4.1506411133e+003;4.1505126953e+003;4.1574360352e+003;4.1612822266e+003;4.1550000000e+003;4.1661538086e+003;4.1589741211e+003;4.1639741211e+003;
2.4296875000e+000;4.1235898438e+003;4.1211538086e+003;4.1273076172e+003;4.1216665039e+003;4.1180771484e+003;4.1214101563e+003;4.1191025391e+003;4.1334614258e+003;4.1335898438e+003;4.1300000000e+003;4.1256411133e+003;4.1308974609e+003;4.1288461914e+003;4.1330771484e+003;
2.4375000000e+000;4.1035898438e+003;4.1014101563e+003;4.1103847656e+003;4.1026923828e+003;4.0996152344e+003;4.1060258789e+003;4.1035898438e+003;4.1150000000e+003;4.1124360352e+003;4.1067949219e+003;4.1048715820e+003;4.1112822266e+003;4.1067949219e+003;4.1125639648e+003;
2.4453125000e+000;4.1269228516e+003;4.1257690430e+003;4.1332050781e+003;4.1252563477e+003;4.1230771484e+003;4.1278203125e+003;4.1278203125e+003;4.1358974609e+003;4.1328203125e+003;4.1275639648e+003;4.1261538086e+003;4.1335898438e+003;4.1288461914e+003;4.1341025391e+003;
2.4531250000e+000;4.1667949219e+003;4.1673076172e+003;4.1703847656e+003;4.1642309570e+003;4.1634614258e+003;4.1637177734e+003;4.1664101563e+003;4.1746152344e+003;4.1725639648e+003;4.1696152344e+003;4.1661538086e+003;4.1739741211e+003;4.1708974609e+003;4.1741025391e+003;
2.4609375000e+000;4.1006411133e+003;4.1041025391e+003;4.1052563477e+003;4.1103847656e+003;4.1162822266e+003;4.1151284180e+003;4.1083334961e+003;4.1187177734e+003;4.1170512695e+003;4.1142309570e+003;4.1138461914e+003;4.1192309570e+003;4.1152563477e+003;4.1164101563e+003;
2.4687500000e+000;4.0456411133e+003;4.0473076172e+003;4.0539743652e+003;4.0578205566e+003;4.0307692871e+003;4.0565385742e+003;4.0503845215e+003;4.0457692871e+003;4.0492307129e+003;4.0466667480e+003;4.0506411133e+003;4.0576923828e+003;4.0537180176e+003;4.0588461914e+003;
2.4765625000e+000;4.0837180176e+003;4.0852563477e+003;4.0892307129e+003;4.0910256348e+003;4.0685898438e+003;4.0916667480e+003;4.0867949219e+003;4.0776923828e+003;4.0829487305e+003;4.0820512695e+003;4.0870512695e+003;4.0928205566e+003;4.0923076172e+003;4.0928205566e+003;
2.4843750000e+000;4.1507690430e+003;4.1503847656e+003;4.1569228516e+003;4.1542309570e+003;4.1617949219e+003;4.1597436523e+003;4.1529487305e+003;4.1508974609e+003;4.1539741211e+003;4.1570512695e+003;4.1569228516e+003;4.1650000000e+003;4.1635898438e+003;4.1593588867e+003;
2.4921875000e+000;4.1741025391e+003;4.1838461914e+003;4.1789741211e+003;4.1837177734e+003;4.1906411133e+003;4.1830771484e+003;4.1808974609e+003;4.1708974609e+003;4.1674360352e+003;4.1711538086e+003;4.1741025391e+003;4.1819228516e+003;4.1798715820e+003;4.1837177734e+003;
2.5000000000e+000;4.1864101563e+003;4.1923076172e+003;4.1883334961e+003;4.1915385742e+003;4.1923076172e+003;4.1894873047e+003;4.1866665039e+003;4.1805126953e+003;4.1766665039e+003;4.1846152344e+003;4.1844873047e+003;4.1937177734e+003;4.1874360352e+003;4.1912822266e+003;
2.5078125000e+000;4.1719228516e+003;4.1728203125e+003;4.1728203125e+003;4.1758974609e+003;4.1774360352e+003;4.1732050781e+003;4.1715385742e+003;4.1652563477e+003;4.1597436523e+003;4.1676923828e+003;4.1658974609e+003;4.1798715820e+003;4.1691025391e+003;4.1708974609e+003;
2.5156250000e+000;4.2248715820e+003;4.2287177734e+003;4.2246152344e+003;4.2262822266e+003;4.2350000000e+003;4.2217949219e+003;4.2250000000e+003;4.2176923828e+003;4.2133334961e+003;4.2193588867e+003;4.2187177734e+003;4.2298715820e+003;4.2247436523e+003;4.2243588867e+003;
2.5234375000e+000;4.3305126953e+003;4.3398715820e+003;4.3342309570e+003;4.3246152344e+003;4.3370512695e+003;4.3221796875e+003;4.3255126953e+003;4.3351284180e+003;4.3367949219e+003;4.3434614258e+003;4.3364101563e+003;4.3393588867e+003;4.3424360352e+003;4.3385898438e+003;
2.5312500000e+000;4.2911538086e+003;4.3005126953e+003;4.2969228516e+003;4.2891025391e+003;4.2973076172e+003;4.2893588867e+003;4.2896152344e+003;4.2982050781e+003;4.2997436523e+003;4.3060258789e+003;4.2979487305e+003;4.3023076172e+003;4.3048715820e+003;4.2991025391e+003;
2.5390625000e+000;4.3143588867e+003;4.3273076172e+003;4.3152563477e+003;4.3093588867e+003;4.3261538086e+003;4.3132050781e+003;4.3157690430e+003;4.3205126953e+003;4.3201284180e+003;4.3267949219e+003;4.3182050781e+003;4.3180771484e+003;4.3292309570e+003;4.3185898438e+003;
2.5468750000e+000;4.3424360352e+003;4.3570512695e+003;4.3420512695e+003;4.3324360352e+003;4.3583334961e+003;4.3400000000e+003;4.3428203125e+003;4.3506411133e+003;4.3493588867e+003;4.3555126953e+003;4.3467949219e+003;4.3434614258e+003;4.3570512695e+003;4.3470512695e+003;
2.5546875000e+000;4.2905126953e+003;4.3016665039e+003;4.2937177734e+003;4.2797436523e+003;4.2934614258e+003;4.2951284180e+003;4.2910258789e+003;4.2997436523e+003;4.3005126953e+003;4.3001284180e+003;4.2980771484e+003;4.2956411133e+003;4.2994873047e+003;4.2976923828e+003;
2.5625000000e+000;4.2853847656e+003;4.2950000000e+003;4.2871796875e+003;4.2730771484e+003;4.2767949219e+003;4.2866665039e+003;4.2830771484e+003;4.2920512695e+003;4.2957690430e+003;4.2967949219e+003;4.2934614258e+003;4.2912822266e+003;4.2938461914e+003;4.2920512695e+003;
2.5703125000e+000;4.2719228516e+003;4.2807690430e+003;4.2732050781e+003;4.2589741211e+003;4.2589741211e+003;4.2706411133e+003;4.2679487305e+003;4.2776923828e+003;4.2839741211e+003;4.2864101563e+003;4.2803847656e+003;4.2783334961e+003;4.2810258789e+003;4.2788461914e+003;
2.5781250000e+000;4.2457690430e+003;4.2546152344e+003;4.2476923828e+003;4.2357690430e+003;4.2405126953e+003;4.2452563477e+003;4.2432050781e+003;4.2502563477e+003;4.2578203125e+003;4.2592309570e+003;4.2529487305e+003;4.2512822266e+003;4.2546152344e+003;4.2524360352e+003;
2.5859375000e+000;4.3780771484e+003;4.3875639648e+003;4.3734614258e+003;4.3701284180e+003;4.3982050781e+003;4.3615385742e+003;4.3639741211e+003;4.3633334961e+003;4.3648715820e+003;4.3687177734e+003;4.3741025391e+003;4.3760258789e+003;4.3762822266e+003;4.3770512695e+003;
2.5937500000e+000;4.4165385742e+003;4.4256411133e+003;4.4048715820e+003;4.3914101563e+003;4.4119228516e+003;4.3878203125e+003;4.3948715820e+003;4.3838461914e+003;4.3862822266e+003;4.3984614258e+003;4.3997436523e+003;4.4064101563e+003;4.4064101563e+003;4.4076923828e+003;
2.6015625000e+000;4.4643588867e+003;4.4723076172e+003;4.4516665039e+003;4.4380771484e+003;4.4634614258e+003;4.4323076172e+003;4.4380771484e+003;4.4323076172e+003;4.4352563477e+003;4.4475639648e+003;4.4478203125e+003;4.4517949219e+003;4.4514101563e+003;4.4546152344e+003;
2.6093750000e+000;4.4571796875e+003;4.4596152344e+003;4.4469228516e+003;4.4269228516e+003;4.4493588867e+003;4.4252563477e+003;4.4274360352e+003;4.4270512695e+003;4.4283334961e+003;4.4384614258e+003;4.4393588867e+003;4.4435898438e+003;4.4389741211e+003;4.4466665039e+003;
2.6171875000e+000;4.5088461914e+003;4.5197436523e+003;4.4979487305e+003;4.4814101563e+003;4.5035898438e+003;4.4747436523e+003;4.4816665039e+003;4.4897436523e+003;4.4962822266e+003;4.5056411133e+003;4.4966665039e+003;4.4979487305e+003;4.5014101563e+003;4.4973076172e+003;
2.6250000000e+000;4.4862822266e+003;4.4984614258e+003;4.4788461914e+003;4.4658974609e+003;4.4832050781e+003;4.4606411133e+003;4.4650000000e+003;4.4758974609e+003;4.4834614258e+003;4.4898715820e+003;4.4774360352e+003;4.4793588867e+003;4.4792309570e+003;4.4767949219e+003;
2.6328125000e+000;4.5029487305e+003;4.5138461914e+003;4.4946152344e+003;4.4776923828e+003;4.5039741211e+003;4.4812822266e+003;4.4876923828e+003;4.4979487305e+003;4.5053847656e+003;4.5107690430e+003;4.4942309570e+003;4.4928203125e+003;4.4941025391e+003;4.4901284180e+003;
2.6406250000e+000;4.5188461914e+003;4.5310258789e+003;4.5092309570e+003;4.4891025391e+003;4.5232050781e+003;4.4966665039e+003;4.5046152344e+003;4.5161538086e+003;4.5223076172e+003;4.5283334961e+003;4.5110258789e+003;4.5070512695e+003;4.5119228516e+003;4.5062822266e+003;
2.6484375000e+000;4.4548715820e+003;4.4706411133e+003;4.4491025391e+003;4.4328203125e+003;4.4482050781e+003;4.4467949219e+003;4.4493588867e+003;4.4552563477e+003;4.4571796875e+003;4.4605126953e+003;4.4474360352e+003;4.4382050781e+003;4.4491025391e+003;4.4471796875e+003;
2.6562500000e+000;4.4801284180e+003;4.4938461914e+003;4.4737177734e+003;4.4561538086e+003;4.4676923828e+003;4.4708974609e+003;4.4729487305e+003;4.4758974609e+003;4.4791025391e+003;4.4861538086e+003;4.4714101563e+003;4.4598715820e+003;4.4730771484e+003;4.4705126953e+003;
2.6640625000e+000;4.4994873047e+003;4.5123076172e+003;4.4916665039e+003;4.4739741211e+003;4.4989741211e+003;4.4905126953e+003;4.4920512695e+003;4.4941025391e+003;4.5008974609e+003;4.5139741211e+003;4.4947436523e+003;4.4833334961e+003;4.4973076172e+003;4.4910258789e+003;
2.6718750000e+000;4.4615385742e+003;4.4765385742e+003;4.4543588867e+003;4.4410258789e+003;4.4753847656e+003;4.4579487305e+003;4.4588461914e+003;4.4584614258e+003;4.4661538086e+003;4.4761538086e+003;4.4600000000e+003;4.4498715820e+003;4.4629487305e+003;4.4569228516e+003;
2.6796875000e+000;4.4324360352e+003;4.4494873047e+003;4.4256411133e+003;4.4164101563e+003;4.4573076172e+003;4.4324360352e+003;4.4334614258e+003;4.4305126953e+003;4.4385898438e+003;4.4434614258e+003;4.4333334961e+003;4.4228203125e+003;4.4357690430e+003;4.4319228516e+003;
2.6875000000e+000;4.4321796875e+003;4.4498715820e+003;4.4255126953e+003;4.4173076172e+003;4.4589741211e+003;4.4308974609e+003;4.4325639648e+003;4.4303847656e+003;4.4379487305e+003;4.4403847656e+003;4.4352563477e+003;4.4230771484e+003;4.4357690430e+003;4.4346152344e+003;
2.6953125000e+000;4.4250000000e+003;4.4364101563e+003;4.4265385742e+003;4.4058974609e+003;4.4253847656e+003;4.4194873047e+003;4.4235898438e+003;4.4155126953e+003;4.4139741211e+003;4.4262822266e+003;4.4285898438e+003;4.4261538086e+003;4.4267949219e+003;4.4302563477e+003;
2.7031250000e+000;4.4642309570e+003;4.4720512695e+003;4.4650000000e+003;4.4401284180e+003;4.4642309570e+003;4.4507690430e+003;4.4570512695e+003;4.4535898438e+003;4.4516665039e+003;4.4652563477e+003;4.4660258789e+003;4.4643588867e+003;4.4639741211e+003;4.4700000000e+003;
2.7109375000e+000;4.4216665039e+003;4.4243588867e+003;4.4212822266e+003;4.3973076172e+003;4.4155126953e+003;4.4014101563e+003;4.4084614258e+003;4.4124360352e+003;4.4074360352e+003;4.4223076172e+003;4.4226923828e+003;4.4223076172e+003;4.4157690430e+003;4.4270512695e+003;
2.7187500000e+000;4.4187177734e+003;4.4244873047e+003;4.4203847656e+003;4.4042309570e+003;4.4143588867e+003;4.3973076172e+003;4.4038461914e+003;4.4138461914e+003;4.4094873047e+003;4.4174360352e+003;4.4214101563e+003;4.4148715820e+003;4.4143588867e+003;4.4165385742e+003;
2.7265625000e+000;4.3846152344e+003;4.3878203125e+003;4.3906411133e+003;4.3732050781e+003;4.3812822266e+003;4.3700000000e+003;4.3739741211e+003;4.3876923828e+003;4.3811538086e+003;4.3865385742e+003;4.3865385742e+003;4.3805126953e+003;4.3792309570e+003;4.3823076172e+003;
2.7343750000e+000;4.3355126953e+003;4.3421796875e+003;4.3443588867e+003;4.3250000000e+003;4.3280771484e+003;4.3341025391e+003;4.3383334961e+003;4.3450000000e+003;4.3383334961e+003;4.3367949219e+003;4.3365385742e+003;4.3261538086e+003;4.3298715820e+003;4.3311538086e+003;
2.7421875000e+000;4.3419228516e+003;4.3538461914e+003;4.3501284180e+003;4.3311538086e+003;4.3324360352e+003;4.3432050781e+003;4.3485898438e+003;4.3528203125e+003;4.3494873047e+003;4.3455126953e+003;4.3462822266e+003;4.3344873047e+003;4.3397436523e+003;4.3391025391e+003;
2.7500000000e+000;4.2939741211e+003;4.3051284180e+003;4.3039741211e+003;4.2915385742e+003;4.3085898438e+003;4.3014101563e+003;4.3042309570e+003;4.3048715820e+003;4.3066665039e+003;4.2996152344e+003;4.3046152344e+003;4.2989741211e+003;4.2953847656e+003;4.2987177734e+003;
2.7578125000e+000;4.3182050781e+003;4.3264101563e+003;4.3248715820e+003;4.3132050781e+003;4.3424360352e+003;4.3220512695e+003;4.3244873047e+003;4.3242309570e+003;4.3246152344e+003;4.3205126953e+003;4.3264101563e+003;4.3171796875e+003;4.3165385742e+003;4.3194873047e+003;
2.7656250000e+000;4.3637177734e+003;4.3751284180e+003;4.3646152344e+003;4.3528203125e+003;4.3838461914e+003;4.3638461914e+003;4.3629487305e+003;4.3688461914e+003;4.3670512695e+003;4.3707690430e+003;4.3737177734e+003;4.3552563477e+003;4.3629487305e+003;4.3620512695e+003;
2.7734375000e+000;4.3237177734e+003;4.3392309570e+003;4.3255126953e+003;4.3171796875e+003;4.3366665039e+003;4.3287177734e+003;4.3260258789e+003;4.3312822266e+003;4.3300000000e+003;4.3333334961e+003;4.3361538086e+003;4.3185898438e+003;4.3267949219e+003;4.3250000000e+003;
2.7812500000e+000;4.2770512695e+003;4.2892309570e+003;4.2758974609e+003;4.2734614258e+003;4.2851284180e+003;4.2788461914e+003;4.2788461914e+003;4.2726923828e+003;4.2769228516e+003;4.2779487305e+003;4.2838461914e+003;4.2779487305e+003;4.2839741211e+003;4.2821796875e+003;
2.7890625000e+000;4.2889741211e+003;4.2955126953e+003;4.2874360352e+003;4.2801284180e+003;4.2938461914e+003;4.2883334961e+003;4.2870512695e+003;4.2834614258e+003;4.2874360352e+003;4.2910258789e+003;4.2952563477e+003;4.2911538086e+003;4.2938461914e+003;4.2950000000e+003;
2.7968750000e+000;4.2714101563e+003;4.2750000000e+003;4.2716665039e+003;4.2607690430e+003;4.2732050781e+003;4.2739741211e+003;4.2703847656e+003;4.2679487305e+003;4.2710258789e+003;4.2757690430e+003;4.2791025391e+003;4.2752563477e+003;4.2739741211e+003;4.2785898438e+003;
2.8046875000e+000;4.1729487305e+003;4.1758974609e+003;4.1766665039e+003;4.1750000000e+003;4.1471796875e+003;4.1761538086e+003;4.1716665039e+003;4.1738461914e+003;4.1711538086e+003;4.1696152344e+003;4.1741025391e+003;4.1769228516e+003;4.1687177734e+003;4.1839741211e+003;
2.8125000000e+000;4.1723076172e+003;4.1724360352e+003;4.1776923828e+003;4.1748715820e+003;4.1455126953e+003;4.1776923828e+003;4.1738461914e+003;4.1715385742e+003;4.1696152344e+003;4.1646152344e+003;4.1685898438e+003;4.1701284180e+003;4.1650000000e+003;4.1815385742e+003;
2.8203125000e+000;4.3262822266e+003;4.3397436523e+003;4.3203847656e+003;4.3258974609e+003;4.3439741211e+003;4.3273076172e+003;4.3302563477e+003;4.3310258789e+003;4.3317949219e+003;4.3250000000e+003;4.3262822266e+003;4.3133334961e+003;4.3274360352e+003;4.3312822266e+003;
2.8281250000e+000;4.2898715820e+003;4.2955126953e+003;4.2857690430e+003;4.2870512695e+003;4.2958974609e+003;4.2921796875e+003;4.2941025391e+003;4.2946152344e+003;4.2923076172e+003;4.2833334961e+003;4.2889741211e+003;4.2807690430e+003;4.2871796875e+003;4.2916665039e+003;
2.8359375000e+000;4.3255126953e+003;4.3297436523e+003;4.3234614258e+003;4.3171796875e+003;4.3252563477e+003;4.3239741211e+003;4.3267949219e+003;4.3297436523e+003;4.3283334961e+003;4.3201284180e+003;4.3252563477e+003;4.3143588867e+003;4.3208974609e+003;4.3271796875e+003;
2.8437500000e+000;4.2948715820e+003;4.3074360352e+003;4.2932050781e+003;4.2898715820e+003;4.2997436523e+003;4.2987177734e+003;4.3007690430e+003;4.3060258789e+003;4.3080771484e+003;4.2988461914e+003;4.2998715820e+003;4.2873076172e+003;4.2982050781e+003;4.3052563477e+003;
2.8515625000e+000;4.2900000000e+003;4.3019228516e+003;4.2862822266e+003;4.2851284180e+003;4.2917949219e+003;4.2946152344e+003;4.2957690430e+003;4.2943588867e+003;4.2967949219e+003;4.2893588867e+003;4.2917949219e+003;4.2812822266e+003;4.2932050781e+003;4.2985898438e+003;
2.8593750000e+000;4.3500000000e+003;4.3533334961e+003;4.3467949219e+003;4.3374360352e+003;4.3403847656e+003;4.3461538086e+003;4.3433334961e+003;4.3412822266e+003;4.3446152344e+003;4.3471796875e+003;4.3500000000e+003;4.3432050781e+003;4.3482050781e+003;4.3541025391e+003;
2.8671875000e+000;4.3383334961e+003;4.3384614258e+003;4.3384614258e+003;4.3265385742e+003;4.3307690430e+003;4.3333334961e+003;4.3276923828e+003;4.3289741211e+003;4.3326923828e+003;4.3366665039e+003;4.3412822266e+003;4.3352563477e+003;4.3348715820e+003;4.3438461914e+003;
2.8750000000e+000;4.2748715820e+003;4.2719228516e+003;4.2729487305e+003;4.2694873047e+003;4.2725639648e+003;4.2602563477e+003;4.2591025391e+003;4.2610258789e+003;4.2635898438e+003;4.2628203125e+003;4.2766665039e+003;4.2651284180e+003;4.2724360352e+003;4.2828203125e+003;
2.8828125000e+000;4.2805126953e+003;4.2756411133e+003;4.2766665039e+003;4.2712822266e+003;4.2639741211e+003;4.2610258789e+003;4.2617949219e+003;4.2661538086e+003;4.2674360352e+003;4.2689741211e+003;4.2797436523e+003;4.2693588867e+003;4.2774360352e+003;4.2870512695e+003;
2.8906250000e+000;4.2384614258e+003;4.2343588867e+003;4.2356411133e+003;4.2258974609e+003;4.2025639648e+003;4.2264101563e+003;4.2248715820e+003;4.2275639648e+003;4.2244873047e+003;4.2266665039e+003;4.2338461914e+003;4.2308974609e+003;4.2301284180e+003;4.2411538086e+003;
2.8984375000e+000;4.2301284180e+003;4.2294873047e+003;4.2266665039e+003;4.2196152344e+003;4.2030771484e+003;4.2234614258e+003;4.2219228516e+003;4.2206411133e+003;4.2153847656e+003;4.2161538086e+003;4.2248715820e+003;4.2223076172e+003;4.2203847656e+003;4.2312822266e+003;
2.9062500000e+000;4.2033334961e+003;4.2039741211e+003;4.2007690430e+003;4.2062822266e+003;4.2166665039e+003;4.2034614258e+003;4.2034614258e+003;4.2052563477e+003;4.1939741211e+003;4.1941025391e+003;4.1991025391e+003;4.1988461914e+003;4.1965385742e+003;4.2080771484e+003;
2.9140625000e+000;4.1543588867e+003;4.1525639648e+003;4.1555126953e+003;4.1596152344e+003;4.1637177734e+003;4.1596152344e+003;4.1587177734e+003;4.1575639648e+003;4.1457690430e+003;4.1420512695e+003;4.1480771484e+003;4.1516665039e+003;4.1466665039e+003;4.1584614258e+003;
2.9218750000e+000;4.1402563477e+003;4.1371796875e+003;4.1430771484e+003;4.1417949219e+003;4.1405126953e+003;4.1475639648e+003;4.1474360352e+003;4.1411538086e+003;4.1302563477e+003;4.1220512695e+003;4.1317949219e+003;4.1362822266e+003;4.1314101563e+003;4.1414101563e+003;
2.9296875000e+000;4.1719228516e+003;4.1693588867e+003;4.1739741211e+003;4.1661538086e+003;4.1655126953e+003;4.1778203125e+003;4.1794873047e+003;4.1707690430e+003;4.1614101563e+003;4.1508974609e+003;4.1638461914e+003;4.1660258789e+003;4.1639741211e+003;4.1714101563e+003;
2.9375000000e+000;4.1353847656e+003;4.1385898438e+003;4.1398715820e+003;4.1500000000e+003;4.1430771484e+003;4.1537177734e+003;4.1519228516e+003;4.1448715820e+003;4.1352563477e+003;4.1232050781e+003;4.1384614258e+003;4.1376923828e+003;4.1358974609e+003;4.1525639648e+003;
2.9453125000e+000;4.1271796875e+003;4.1341025391e+003;4.1325639648e+003;4.1360258789e+003;4.1332050781e+003;4.1408974609e+003;4.1334614258e+003;4.1279487305e+003;4.1280771484e+003;4.1202563477e+003;4.1339741211e+003;4.1332050781e+003;4.1284614258e+003;4.1387177734e+003;
2.9531250000e+000;4.1408974609e+003;4.1476923828e+003;4.1455126953e+003;4.1491025391e+003;4.1510258789e+003;4.1550000000e+003;4.1484614258e+003;4.1379487305e+003;4.1367949219e+003;4.1320512695e+003;4.1466665039e+003;4.1460258789e+003;4.1412822266e+003;4.1511538086e+003;
2.9609375000e+000;4.2469228516e+003;4.2523076172e+003;4.2447436523e+003;4.2529487305e+003;4.2414101563e+003;4.2450000000e+003;4.2419228516e+003;4.2350000000e+003;4.2334614258e+003;4.2335898438e+003;4.2474360352e+003;4.2471796875e+003;4.2428203125e+003;4.2523076172e+003;
2.9687500000e+000;4.2430771484e+003;4.2462822266e+003;4.2435898438e+003;4.2357690430e+003;4.2352563477e+003;4.2387177734e+003;4.2392309570e+003;4.2346152344e+003;4.2325639648e+003;4.2305126953e+003;4.2412822266e+003;4.2391025391e+003;4.2394873047e+003;4.2426923828e+003;
2.9765625000e+000;4.2717949219e+003;4.2756411133e+003;4.2707690430e+003;4.2643588867e+003;4.2776923828e+003;4.2660258789e+003;4.2692309570e+003;4.2653847656e+003;4.2606411133e+003;4.2614101563e+003;4.2703847656e+003;4.2676923828e+003;4.2682050781e+003;4.2716665039e+003;
2.9843750000e+000;4.2494873047e+003;4.2526923828e+003;4.2511538086e+003;4.2521796875e+003;4.2610258789e+003;4.2446152344e+003;4.2478203125e+003;4.2475639648e+003;4.2373076172e+003;4.2378203125e+003;4.2465385742e+003;4.2483334961e+003;4.2410258789e+003;4.2502563477e+003;
2.9921875000e+000;4.2374360352e+003;4.2410258789e+003;4.2411538086e+003;4.2416665039e+003;4.2433334961e+003;4.2335898438e+003;4.2375639648e+003;4.2346152344e+003;4.2233334961e+003;4.2217949219e+003;4.2325639648e+003;4.2338461914e+003;4.2261538086e+003;4.2356411133e+003;
3.0000000000e+000;4.3173076172e+003;4.3203847656e+003;4.3205126953e+003;4.3124360352e+003;4.3188461914e+003;4.3158974609e+003;4.3183334961e+003;4.3203847656e+003;4.3067949219e+003;4.3089741211e+003;4.3169228516e+003;4.3105126953e+003;4.3060258789e+003;4.3087177734e+003;
3.0078125000e+000;4.2912822266e+003;4.2924360352e+003;4.2946152344e+003;4.2897436523e+003;4.2941025391e+003;4.2964101563e+003;4.2958974609e+003;4.2987177734e+003;4.2838461914e+003;4.2844873047e+003;4.2937177734e+003;4.2894873047e+003;4.2798715820e+003;4.2844873047e+003;
3.0156250000e+000;4.2569228516e+003;4.2583334961e+003;4.2592309570e+003;4.2600000000e+003;4.2614101563e+003;4.2669228516e+003;4.2673076172e+003;4.2647436523e+003;4.2521796875e+003;4.2465385742e+003;4.2615385742e+003;4.2580771484e+003;4.2455126953e+003;4.2535898438e+003;
3.0234375000e+000;4.2700000000e+003;4.2741025391e+003;4.2725639648e+003;4.2715385742e+003;4.2773076172e+003;4.2776923828e+003;4.2798715820e+003;4.2787177734e+003;4.2674360352e+003;4.2626923828e+003;4.2766665039e+003;4.2705126953e+003;4.2610258789e+003;4.2689741211e+003;
3.0312500000e+000;4.2147436523e+003;4.2226923828e+003;4.2189741211e+003;4.2252563477e+003;4.2276923828e+003;4.2248715820e+003;4.2230771484e+003;4.2260258789e+003;4.2116665039e+003;4.2139741211e+003;4.2226923828e+003;4.2158974609e+003;4.2061538086e+003;4.2173076172e+003;
3.0390625000e+000;4.2224360352e+003;4.2279487305e+003;4.2230771484e+003;4.2343588867e+003;4.2324360352e+003;4.2276923828e+003;4.2256411133e+003;4.2275639648e+003;4.2150000000e+003;4.2183334961e+003;4.2282050781e+003;4.2207690430e+003;4.2100000000e+003;4.2217949219e+003;
3.0468750000e+000;4.2437177734e+003;4.2466665039e+003;4.2421796875e+003;4.2533334961e+003;4.2497436523e+003;4.2425639648e+003;4.2410258789e+003;4.2442309570e+003;4.2353847656e+003;4.2393588867e+003;4.2491025391e+003;4.2412822266e+003;4.2292309570e+003;4.2407690430e+003;
3.0546875000e+000;4.2425639648e+003;4.2447436523e+003;4.2423076172e+003;4.2493588867e+003;4.2441025391e+003;4.2394873047e+003;4.2383334961e+003;4.2425639648e+003;4.2373076172e+003;4.2415385742e+003;4.2493588867e+003;4.2428203125e+003;4.2292309570e+003;4.2401284180e+003;
3.0625000000e+000;4.3233334961e+003;4.3341025391e+003;4.3235898438e+003;4.3219228516e+003;4.3075639648e+003;4.3158974609e+003;4.3202563477e+003;4.3146152344e+003;4.3123076172e+003;4.3242309570e+003;4.3288461914e+003;4.3197436523e+003;4.3203847656e+003;4.3198715820e+003;
3.0703125000e+000;4.3142309570e+003;4.3217949219e+003;4.3110258789e+003;4.3138461914e+003;4.3351284180e+003;4.3060258789e+003;4.3071796875e+003;4.3073076172e+003;4.3055126953e+003;4.3111538086e+003;4.3183334961e+003;4.3034614258e+003;4.3093588867e+003;4.3071796875e+003;
3.0781250000e+000;4.3280771484e+003;4.3374360352e+003;4.3233334961e+003;4.3248715820e+003;4.3435898438e+003;4.3180771484e+003;4.3205126953e+003;4.3197436523e+003;4.3191025391e+003;4.3223076172e+003;4.3297436523e+003;4.3148715820e+003;4.3235898438e+003;4.3210258789e+003;
3.0859375000e+000;4.2969228516e+003;4.3044873047e+003;4.2952563477e+003;4.2942309570e+003;4.2938461914e+003;4.2897436523e+003;4.2921796875e+003;4.2941025391e+003;4.2917949219e+003;4.2955126953e+003;4.2989741211e+003;4.2862822266e+003;4.2912822266e+003;4.2925639648e+003;
3.0937500000e+000;4.2533334961e+003;4.2597436523e+003;4.2537177734e+003;4.2551284180e+003;4.2498715820e+003;4.2516665039e+003;4.2547436523e+003;4.2529487305e+003;4.2483334961e+003;4.2528203125e+003;4.2565385742e+003;4.2441025391e+003;4.2470512695e+003;4.2487177734e+003;
3.1015625000e+000;4.2628203125e+003;4.2700000000e+003;4.2591025391e+003;4.2605126953e+003;4.2687177734e+003;4.2675639648e+003;4.2728203125e+003;4.2738461914e+003;4.2641025391e+003;4.2696152344e+003;4.2717949219e+003;4.2626923828e+003;4.2628203125e+003;4.2614101563e+003;
3.1093750000e+000;4.0834614258e+003;4.0776923828e+003;4.0932050781e+003;4.0924357910e+003;4.0861538086e+003;4.1158974609e+003;4.1182050781e+003;4.1220512695e+003;4.1182050781e+003;4.1024360352e+003;4.1025639648e+003;4.0976923828e+003;4.0856411133e+003;4.0911538086e+003;
3.1171875000e+000;4.0480769043e+003;4.0415385742e+003;4.0602563477e+003;4.0644870605e+003;4.0564101563e+003;4.0851281738e+003;4.0867949219e+003;4.0871794434e+003;4.0874357910e+003;4.0673076172e+003;4.0685898438e+003;4.0626923828e+003;4.0498718262e+003;4.0560256348e+003;
3.1250000000e+000;3.9750000000e+003;3.9721794434e+003;3.9852563477e+003;4.0005129395e+003;3.9643588867e+003;4.0098718262e+003;4.0002563477e+003;3.9958974609e+003;3.9946154785e+003;3.9770512695e+003;3.9846154785e+003;3.9844870605e+003;3.9721794434e+003;3.9817949219e+003;
3.1328125000e+000;3.9770512695e+003;3.9738461914e+003;3.9862819824e+003;3.9988461914e+003;3.9553845215e+003;4.0055129395e+003;3.9982050781e+003;3.9898718262e+003;3.9871794434e+003;3.9721794434e+003;3.9820512695e+003;3.9816667480e+003;3.9726923828e+003;3.9815385742e+003;
3.1406250000e+000;4.0048718262e+003;4.0030769043e+003;4.0141025391e+003;4.0250000000e+003;3.9916667480e+003;4.0239743652e+003;4.0258974609e+003;4.0171794434e+003;4.0161538086e+003;4.0057692871e+003;4.0112819824e+003;4.0107692871e+003;4.0041025391e+003;4.0111538086e+003;
3.1484375000e+000;3.9905129395e+003;3.9903845215e+003;3.9997436523e+003;4.0141025391e+003;3.9924357910e+003;4.0123076172e+003;4.0139743652e+003;4.0056411133e+003;4.0052563477e+003;3.9944870605e+003;3.9976923828e+003;4.0001281738e+003;3.9905129395e+003;3.9996154785e+003;
3.1562500000e+000;4.0832050781e+003;4.0810256348e+003;4.0841025391e+003;4.0938461914e+003;4.0906411133e+003;4.0944870605e+003;4.0924357910e+003;4.0789743652e+003;4.0741025391e+003;4.0692307129e+003;4.0732050781e+003;4.0746154785e+003;4.0684614258e+003;4.0796154785e+003;
3.1640625000e+000;4.1317949219e+003;4.1291025391e+003;4.1339741211e+003;4.1391025391e+003;4.1310258789e+003;4.1365385742e+003;4.1360258789e+003;4.1258974609e+003;4.1200000000e+003;4.1193588867e+003;4.1203847656e+003;4.1191025391e+003;4.1152563477e+003;4.1246152344e+003;
3.1718750000e+000;4.1310258789e+003;4.1302563477e+003;4.1379487305e+003;4.1424360352e+003;4.1285898438e+003;4.1369228516e+003;4.1374360352e+003;4.1294873047e+003;4.1232050781e+003;4.1234614258e+003;4.1221796875e+003;4.1205126953e+003;4.1161538086e+003;4.1242309570e+003;
3.1796875000e+000;4.1058974609e+003;4.1084614258e+003;4.1167949219e+003;4.1252563477e+003;4.1096152344e+003;4.1175639648e+003;4.1192309570e+003;4.1096152344e+003;4.1030771484e+003;4.1005126953e+003;4.1003847656e+003;4.0998715820e+003;4.0935898438e+003;4.1015385742e+003;
3.1875000000e+000;4.1739741211e+003;4.1766665039e+003;4.1774360352e+003;4.1917949219e+003;4.1812822266e+003;4.1832050781e+003;4.1815385742e+003;4.1817949219e+003;4.1708974609e+003;4.1738461914e+003;4.1805126953e+003;4.1742309570e+003;4.1661538086e+003;4.1773076172e+003;
3.1953125000e+000;4.1410258789e+003;4.1421796875e+003;4.1451284180e+003;4.1561538086e+003;4.1435898438e+003;4.1521796875e+003;4.1485898438e+003;4.1473076172e+003;4.1362822266e+003;4.1400000000e+003;4.1462822266e+003;4.1415385742e+003;4.1315385742e+003;4.1432050781e+003;
3.2031250000e+000;4.1914101563e+003;4.1821796875e+003;4.1866665039e+003;4.1853847656e+003;4.1782050781e+003;4.1826923828e+003;4.1835898438e+003;4.1823076172e+003;4.1719228516e+003;4.1770512695e+003;4.1825639648e+003;4.1856411133e+003;4.1765385742e+003;4.1850000000e+003;
3.2109375000e+000;4.1367949219e+003;4.1238461914e+003;4.1346152344e+003;4.1412822266e+003;4.1256411133e+003;4.1273076172e+003;4.1230771484e+003;4.1217949219e+003;4.1196152344e+003;4.1233334961e+003;4.1330771484e+003;4.1387177734e+003;4.1262822266e+003;4.1380771484e+003;
3.2187500000e+000;4.0505129395e+003;4.0485898438e+003;4.0533332520e+003;4.0644870605e+003;4.0205129395e+003;4.0560256348e+003;4.0437180176e+003;4.0493588867e+003;4.0501281738e+003;4.0556411133e+003;4.0589743652e+003;4.0600000000e+003;4.0460256348e+003;4.0608974609e+003;
3.2265625000e+000;4.0102563477e+003;4.0079487305e+003;4.0125642090e+003;4.0253845215e+003;3.9815385742e+003;4.0178205566e+003;4.0060256348e+003;4.0062819824e+003;4.0084614258e+003;4.0100000000e+003;4.0197436523e+003;4.0183332520e+003;4.0074357910e+003;4.0224357910e+003;
3.2343750000e+000;4.0294870605e+003;4.0252563477e+003;4.0280769043e+003;4.0376923828e+003;4.0261538086e+003;4.0311538086e+003;4.0223076172e+003;4.0182050781e+003;4.0212819824e+003;4.0188461914e+003;4.0362819824e+003;4.0325642090e+003;4.0269230957e+003;4.0414101563e+003;
3.2421875000e+000;4.0247436523e+003;4.0200000000e+003;4.0251281738e+003;4.0320512695e+003;4.0325642090e+003;4.0287180176e+003;4.0188461914e+003;4.0171794434e+003;4.0167949219e+003;4.0156411133e+003;4.0307692871e+003;4.0300000000e+003;4.0219230957e+003;4.0375642090e+003;
3.2500000000e+000;3.9910256348e+003;3.9869230957e+003;3.9946154785e+003;4.0032050781e+003;4.0025642090e+003;4.0024357910e+003;3.9910256348e+003;3.9902563477e+003;3.9850000000e+003;3.9848718262e+003;3.9970512695e+003;3.9997436523e+003;3.9880769043e+003;4.0048718262e+003;
3.2578125000e+000;3.9616667480e+003;3.9621794434e+003;3.9643588867e+003;3.9871794434e+003;3.9644870605e+003;3.9835898438e+003;3.9728205566e+003;3.9702563477e+003;3.9610256348e+003;3.9603845215e+003;3.9697436523e+003;3.9716667480e+003;3.9608974609e+003;3.9762819824e+003;
3.2656250000e+000;3.9461538086e+003;3.9408974609e+003;3.9508974609e+003;3.9700000000e+003;3.9453845215e+003;3.9647436523e+003;3.9578205566e+003;3.9541025391e+003;3.9485898438e+003;3.9397436523e+003;3.9505129395e+003;3.9535898438e+003;3.9407692871e+003;3.9598718262e+003;
3.2734375000e+000;3.9376923828e+003;3.9273076172e+003;3.9466667480e+003;3.9592307129e+003;3.9371794434e+003;3.9530769043e+003;3.9474357910e+003;3.9383332520e+003;3.9321794434e+003;3.9216667480e+003;3.9358974609e+003;3.9410256348e+003;3.9261538086e+003;3.9475642090e+003;
3.2812500000e+000;3.9689743652e+003;3.9542307129e+003;3.9800000000e+003;3.9865385742e+003;3.9648718262e+003;3.9775642090e+003;3.9733332520e+003;3.9612819824e+003;3.9544870605e+003;3.9457692871e+003;3.9616667480e+003;3.9674357910e+003;3.9517949219e+003;3.9747436523e+003;
3.2890625000e+000;4.0312819824e+003;4.0117949219e+003;4.0419230957e+003;4.0411538086e+003;4.0153845215e+003;4.0300000000e+003;4.0247436523e+003;4.0196154785e+003;4.0130769043e+003;4.0101281738e+003;4.0235898438e+003;4.0296154785e+003;4.0097436523e+003;4.0366667480e+003;
3.2968750000e+000;4.0039743652e+003;3.9853845215e+003;4.0142307129e+003;4.0139743652e+003;3.9870512695e+003;4.0060256348e+003;3.9980769043e+003;3.9953845215e+003;3.9894870605e+003;3.9850000000e+003;3.9991025391e+003;4.0064101563e+003;3.9829487305e+003;4.0114101563e+003;
3.3046875000e+000;3.9701281738e+003;3.9546154785e+003;3.9791025391e+003;3.9815385742e+003;3.9556411133e+003;3.9758974609e+003;3.9665385742e+003;3.9629487305e+003;3.9575642090e+003;3.9496154785e+003;3.9669230957e+003;3.9748718262e+003;3.9505129395e+003;3.9773076172e+003;
3.3125000000e+000;3.9520512695e+003;3.9276923828e+003;3.9550000000e+003;3.9682050781e+003;3.9387180176e+003;3.9524357910e+003;3.9419230957e+003;3.9378205566e+003;3.9326923828e+003;3.9215385742e+003;3.9419230957e+003;3.9543588867e+003;3.9358974609e+003;3.9483332520e+003;
3.3203125000e+000;3.9575642090e+003;3.9344870605e+003;3.9570512695e+003;3.9698718262e+003;3.9434614258e+003;3.9597436523e+003;3.9500000000e+003;3.9428205566e+003;3.9366667480e+003;3.9258974609e+003;3.9457692871e+003;3.9570512695e+003;3.9393588867e+003;3.9503845215e+003;
3.3281250000e+000;3.9320512695e+003;3.9151281738e+003;3.9305129395e+003;3.9426923828e+003;3.9034614258e+003;3.9414101563e+003;3.9284614258e+003;3.9253845215e+003;3.9203845215e+003;3.9119230957e+003;3.9234614258e+003;3.9387180176e+003;3.9129487305e+003;3.9287180176e+003;
3.3359375000e+000;3.9791025391e+003;3.9661538086e+003;3.9866667480e+003;3.9947436523e+003;3.9834614258e+003;3.9857692871e+003;3.9753845215e+003;3.9665385742e+003;3.9629487305e+003;3.9482050781e+003;3.9642307129e+003;3.9826923828e+003;3.9635898438e+003;3.9787180176e+003;
3.3437500000e+000;4.0080769043e+003;3.9998718262e+003;4.0137180176e+003;4.0237180176e+003;4.0224357910e+003;4.0129487305e+003;4.0025642090e+003;3.9988461914e+003;3.9935898438e+003;3.9794870605e+003;3.9964101563e+003;4.0135898438e+003;3.9948718262e+003;4.0070512695e+003;
3.3515625000e+000;3.9487180176e+003;3.9434614258e+003;3.9458974609e+003;3.9707692871e+003;3.9452563477e+003;3.9585898438e+003;3.9453845215e+003;3.9369230957e+003;3.9306411133e+003;3.9201281738e+003;3.9401281738e+003;3.9550000000e+003;3.9330769043e+003;3.9514101563e+003;
3.3593750000e+000;3.9670512695e+003;3.9519230957e+003;3.9706411133e+003;3.9803845215e+003;3.9574357910e+003;3.9679487305e+003;3.9576923828e+003;3.9530769043e+003;3.9489743652e+003;3.9419230957e+003;3.9630769043e+003;3.9734614258e+003;3.9544870605e+003;3.9732050781e+003;
3.3671875000e+000;3.9425642090e+003;3.9253845215e+003;3.9457692871e+003;3.9547436523e+003;3.9343588867e+003;3.9469230957e+003;3.9358974609e+003;3.9310256348e+003;3.9253845215e+003;3.9150000000e+003;3.9394870605e+003;3.9503845215e+003;3.9307692871e+003;3.9451281738e+003;
3.3750000000e+000;3.9467949219e+003;3.9289743652e+003;3.9467949219e+003;3.9587180176e+003;3.9376923828e+003;3.9523076172e+003;3.9405129395e+003;3.9348718262e+003;3.9296154785e+003;3.9164101563e+003;3.9434614258e+003;3.9538461914e+003;3.9346154785e+003;3.9458974609e+003;
3.3828125000e+000;4.0066667480e+003;3.9932050781e+003;4.0039743652e+003;4.0216667480e+003;3.9908974609e+003;4.0061538086e+003;3.9932050781e+003;3.9924357910e+003;3.9921794434e+003;3.9800000000e+003;4.0035898438e+003;4.0129487305e+003;3.9914101563e+003;4.0087180176e+003;
3.3906250000e+000;4.0683332520e+003;4.0650000000e+003;4.0667949219e+003;4.0766667480e+003;4.0467949219e+003;4.0616667480e+003;4.0610256348e+003;4.0479487305e+003;4.0483332520e+003;4.0441025391e+003;4.0619230957e+003;4.0671794434e+003;4.0555129395e+003;4.0708974609e+003;
3.3984375000e+000;4.1488461914e+003;4.1425639648e+003;4.1412822266e+003;4.1471796875e+003;4.1279487305e+003;4.1333334961e+003;4.1358974609e+003;4.1247436523e+003;4.1251284180e+003;4.1244873047e+003;4.1416665039e+003;4.1423076172e+003;4.1379487305e+003;4.1467949219e+003;
3.4062500000e+000;4.2102563477e+003;4.2003847656e+003;4.1984614258e+003;4.2034614258e+003;4.1900000000e+003;4.1879487305e+003;4.1892309570e+003;4.1856411133e+003;4.1864101563e+003;4.1879487305e+003;4.2038461914e+003;4.2016665039e+003;4.2008974609e+003;4.2064101563e+003;
3.4140625000e+000;4.2052563477e+003;4.1996152344e+003;4.1982050781e+003;4.2070512695e+003;4.1812822266e+003;4.1848715820e+003;4.1825639648e+003;4.1833334961e+003;4.1841025391e+003;4.1841025391e+003;4.1991025391e+003;4.1984614258e+003;4.1971796875e+003;4.2033334961e+003;
3.4218750000e+000;4.2164101563e+003;4.2173076172e+003;4.2133334961e+003;4.2197436523e+003;4.1906411133e+003;4.1960258789e+003;4.1973076172e+003;4.1935898438e+003;4.1942309570e+003;4.1939741211e+003;4.2096152344e+003;4.2085898438e+003;4.2097436523e+003;4.2143588867e+003;
3.4296875000e+000;4.2667949219e+003;4.2711538086e+003;4.2648715820e+003;4.2650000000e+003;4.2429487305e+003;4.2420512695e+003;4.2474360352e+003;4.2434614258e+003;4.2437177734e+003;4.2455126953e+003;4.2606411133e+003;4.2573076172e+003;4.2616665039e+003;4.2638461914e+003;
