Time (s);AF3;F7;F3;FC5;T7;P7;O1;O2;P8;T8;FC6;F4;F8;AF4;Sampling Rate
0.0000000000e+000;4.3201284180e+003;4.3150000000e+003;4.3378203125e+003;4.3401284180e+003;4.2980771484e+003;4.3151284180e+003;4.3161538086e+003;4.3283334961e+003;4.3200000000e+003;4.2782050781e+003;4.3047436523e+003;4.2996152344e+003;4.3034614258e+003;4.3324360352e+003;128
7.8125000000e-003;4.3325639648e+003;4.3285898438e+003;4.3494873047e+003;4.3526923828e+003;4.3112822266e+003;4.3307690430e+003;4.3308974609e+003;4.3392309570e+003;4.3362822266e+003;4.2933334961e+003;4.3179487305e+003;4.3096152344e+003;4.3146152344e+003;4.3452563477e+003;
1.5625000000e-002;4.2325639648e+003;4.2289741211e+003;4.2501284180e+003;4.2556411133e+003;4.2103847656e+003;4.2430771484e+003;4.2303847656e+003;4.2350000000e+003;4.2369228516e+003;4.1878203125e+003;4.2128203125e+003;4.2075639648e+003;4.2143588867e+003;4.2433334961e+003;
2.3437500000e-002;4.2044873047e+003;4.1903847656e+003;4.2119228516e+003;4.2246152344e+003;4.1842309570e+003;4.2180771484e+003;4.1992309570e+003;4.2053847656e+003;4.2038461914e+003;4.1456411133e+003;4.1708974609e+003;4.1658974609e+003;4.1735898438e+003;4.2002563477e+003;
3.1250000000e-002;4.1924360352e+003;4.1738461914e+003;4.2000000000e+003;4.2128203125e+003;4.1721796875e+003;4.2116665039e+003;4.1925639648e+003;4.1985898438e+003;4.1969228516e+003;4.1382050781e+003;4.1594873047e+003;4.1533334961e+003;4.1589741211e+003;4.1878203125e+003;
3.9062500000e-002;4.1814101563e+003;4.1593588867e+003;4.1888461914e+003;4.2001284180e+003;4.1606411133e+003;4.2060258789e+003;4.1880771484e+003;4.1915385742e+003;4.1900000000e+003;4.1310258789e+003;4.1494873047e+003;4.1425639648e+003;4.1479487305e+003;4.1775639648e+003;
4.6875000000e-002;4.2153847656e+003;4.1919228516e+003;4.2216665039e+003;4.2282050781e+003;4.1962822266e+003;4.2412822266e+003;4.2302563477e+003;4.2315385742e+003;4.2300000000e+003;4.1716665039e+003;4.1884614258e+003;4.1797436523e+003;4.1885898438e+003;4.2162822266e+003;
5.4687500000e-002;4.2166665039e+003;4.1846152344e+003;4.2214101563e+003;4.2325639648e+003;4.1908974609e+003;4.2291025391e+003;4.2238461914e+003;4.2288461914e+003;4.2160258789e+003;4.1671796875e+003;4.1858974609e+003;4.1835898438e+003;4.1875639648e+003;4.2210258789e+003;
6.2500000000e-002;4.2297436523e+003;4.1960258789e+003;4.2310258789e+003;4.2442309570e+003;4.1991025391e+003;4.2339741211e+003;4.2288461914e+003;4.2320512695e+003;4.2165385742e+003;4.1735898438e+003;4.1964101563e+003;4.1935898438e+003;4.2006411133e+003;4.2330771484e+003;
7.0312500000e-002;4.2612822266e+003;4.2282050781e+003;4.2588461914e+003;4.2720512695e+003;4.2257690430e+003;4.2566665039e+003;4.2512822266e+003;4.2557690430e+003;4.2396152344e+003;4.2026923828e+003;4.2298715820e+003;4.2239741211e+003;4.2352563477e+003;4.2656411133e+003;
7.8125000000e-002;4.2782050781e+003;4.2470512695e+003;4.2737177734e+003;4.2834614258e+003;4.2339741211e+003;4.2615385742e+003;4.2567949219e+003;4.2688461914e+003;4.2542309570e+003;4.2234614258e+003;4.2557690430e+003;4.2466665039e+003;4.2571796875e+003;4.2885898438e+003;
8.5937500000e-002;4.2634614258e+003;4.2301284180e+003;4.2582050781e+003;4.2665385742e+003;4.2151284180e+003;4.2401284180e+003;4.2380771484e+003;4.2503847656e+003;4.2367949219e+003;4.2058974609e+003;4.2403847656e+003;4.2325639648e+003;4.2387177734e+003;4.2739741211e+003;
9.3750000000e-002;4.2651284180e+003;4.2284614258e+003;4.2579487305e+003;4.2646152344e+003;4.2129487305e+003;4.2317949219e+003;4.2325639648e+003;4.2447436523e+003;4.2320512695e+003;4.2014101563e+003;4.2384614258e+003;4.2319228516e+003;4.2347436523e+003;4.2733334961e+003;
1.0156250000e-001;4.1825639648e+003;4.1470512695e+003;4.1794873047e+003;4.1830771484e+003;4.1230771484e+003;4.1450000000e+003;4.1417949219e+003;4.1591025391e+003;4.1556411133e+003;4.1157690430e+003;4.1508974609e+003;4.1470512695e+003;4.1525639648e+003;4.1880771484e+003;
1.0937500000e-001;4.1860258789e+003;4.1515385742e+003;4.1801284180e+003;4.1870512695e+003;4.1285898438e+003;4.1501284180e+003;4.1505126953e+003;4.1650000000e+003;4.1628203125e+003;4.1215385742e+003;4.1524360352e+003;4.1476923828e+003;4.1547436523e+003;4.1884614258e+003;
1.1718750000e-001;4.1464101563e+003;4.1042309570e+003;4.1364101563e+003;4.1480771484e+003;4.0953845215e+003;4.1264101563e+003;4.1219228516e+003;4.1366665039e+003;4.1333334961e+003;4.0929487305e+003;4.1112822266e+003;4.1080771484e+003;4.1161538086e+003;4.1432050781e+003;
1.2500000000e-001;4.1187177734e+003;4.0738461914e+003;4.1002563477e+003;4.1220512695e+003;4.0753845215e+003;4.1165385742e+003;4.1062822266e+003;4.1165385742e+003;4.1130771484e+003;4.0639743652e+003;4.0824357910e+003;4.0770512695e+003;4.0902563477e+003;4.1129487305e+003;
1.3281250000e-001;4.1052563477e+003;4.0593588867e+003;4.0844870605e+003;4.1080771484e+003;4.0601281738e+003;4.1061538086e+003;4.0942307129e+003;4.1041025391e+003;4.0994873047e+003;4.0484614258e+003;4.0670512695e+003;4.0616667480e+003;4.0725642090e+003;4.0980771484e+003;
1.4062500000e-001;4.1074360352e+003;4.0508974609e+003;4.0792307129e+003;4.1037177734e+003;4.0573076172e+003;4.1024360352e+003;4.0916667480e+003;4.0957692871e+003;4.0873076172e+003;4.0397436523e+003;4.0612819824e+003;4.0492307129e+003;4.0612819824e+003;4.0861538086e+003;
1.4843750000e-001;4.1385898438e+003;4.0807692871e+003;4.1100000000e+003;4.1317949219e+003;4.0862819824e+003;4.1301284180e+003;4.1196152344e+003;4.1247436523e+003;4.1139741211e+003;4.0734614258e+003;4.0917949219e+003;4.0855129395e+003;4.0943588867e+003;4.1162822266e+003;
1.5625000000e-001;4.1528203125e+003;4.0955129395e+003;4.1225639648e+003;4.1446152344e+003;4.0982050781e+003;4.1426923828e+003;4.1332050781e+003;4.1346152344e+003;4.1197436523e+003;4.0810256348e+003;4.1032050781e+003;4.0974360352e+003;4.1060258789e+003;4.1289741211e+003;
1.6406250000e-001;4.2438461914e+003;4.1882050781e+003;4.2174360352e+003;4.2317949219e+003;4.1876923828e+003;4.2217949219e+003;4.2133334961e+003;4.2197436523e+003;4.1935898438e+003;4.1707690430e+003;4.1992309570e+003;4.1906411133e+003;4.1952563477e+003;4.2253847656e+003;
1.7187500000e-001;4.2157690430e+003;4.1589741211e+003;4.1930771484e+003;4.2051284180e+003;4.1576923828e+003;4.1939741211e+003;4.1837177734e+003;4.1919228516e+003;4.1643588867e+003;4.1435898438e+003;4.1728203125e+003;4.1674360352e+003;4.1670512695e+003;4.1989741211e+003;
1.7968750000e-001;4.1647436523e+003;4.1046152344e+003;4.1426923828e+003;4.1535898438e+003;4.1015385742e+003;4.1373076172e+003;4.1296152344e+003;4.1353847656e+003;4.1089741211e+003;4.0855129395e+003;4.1156411133e+003;4.1155126953e+003;4.1105126953e+003;4.1415385742e+003;
1.8750000000e-001;4.1615385742e+003;4.1003847656e+003;4.1384614258e+003;4.1494873047e+003;4.0974360352e+003;4.1276923828e+003;4.1224360352e+003;4.1293588867e+003;4.1042309570e+003;4.0791025391e+003;4.1087177734e+003;4.1092309570e+003;4.1033334961e+003;4.1347436523e+003;
1.9531250000e-001;4.1388461914e+003;4.0733332520e+003;4.1165385742e+003;4.1258974609e+003;4.0725642090e+003;4.0946154785e+003;4.0894870605e+003;4.0979487305e+003;4.0787180176e+003;4.0487180176e+003;4.0860256348e+003;4.0865385742e+003;4.0758974609e+003;4.1146152344e+003;
2.0312500000e-001;4.1673076172e+003;4.1019228516e+003;4.1444873047e+003;4.1510258789e+003;4.0996152344e+003;4.1201284180e+003;4.1156411133e+003;4.1242309570e+003;4.1089741211e+003;4.0791025391e+003;4.1180771484e+003;4.1166665039e+003;4.1078203125e+003;4.1462822266e+003;
2.1093750000e-001;4.1961538086e+003;4.1314101563e+003;4.1728203125e+003;4.1767949219e+003;4.1271796875e+003;4.1465385742e+003;4.1423076172e+003;4.1546152344e+003;4.1428203125e+003;4.1141025391e+003;4.1506411133e+003;4.1478203125e+003;4.1405126953e+003;4.1783334961e+003;
2.1875000000e-001;4.1891025391e+003;4.1238461914e+003;4.1652563477e+003;4.1689741211e+003;4.1184614258e+003;4.1397436523e+003;4.1343588867e+003;4.1519228516e+003;4.1412822266e+003;4.1132050781e+003;4.1453847656e+003;4.1424360352e+003;4.1347436523e+003;4.1728203125e+003;
2.2656250000e-001;4.1289741211e+003;4.0591025391e+003;4.0934614258e+003;4.1097436523e+003;4.0574357910e+003;4.0889743652e+003;4.0843588867e+003;4.0961538086e+003;4.0824357910e+003;4.0519230957e+003;4.0837180176e+003;4.0769230957e+003;4.0708974609e+003;4.1026923828e+003;
2.3437500000e-001;4.1570512695e+003;4.0884614258e+003;4.1215385742e+003;4.1383334961e+003;4.0887180176e+003;4.1198715820e+003;4.1147436523e+003;4.1273076172e+003;4.1147436523e+003;4.0851281738e+003;4.1167949219e+003;4.1082050781e+003;4.1025639648e+003;4.1320512695e+003;
2.4218750000e-001;4.1088461914e+003;4.0379487305e+003;4.0744870605e+003;4.0953845215e+003;4.0497436523e+003;4.0837180176e+003;4.0708974609e+003;4.0816667480e+003;4.0721794434e+003;4.0355129395e+003;4.0615385742e+003;4.0578205566e+003;4.0493588867e+003;4.0812819824e+003;
2.5000000000e-001;4.0238461914e+003;3.9461538086e+003;3.9814101563e+003;4.0062819824e+003;3.9642307129e+003;4.0033332520e+003;3.9914101563e+003;4.0005129395e+003;3.9853845215e+003;3.9421794434e+003;3.9694870605e+003;3.9660256348e+003;3.9576923828e+003;3.9882050781e+003;
2.5781250000e-001;4.0110256348e+003;3.9312819824e+003;3.9646154785e+003;3.9932050781e+003;3.9502563477e+003;3.9912819824e+003;3.9802563477e+003;3.9852563477e+003;3.9694870605e+003;3.9239743652e+003;3.9547436523e+003;3.9480769043e+003;3.9429487305e+003;3.9714101563e+003;
2.6562500000e-001;4.0517949219e+003;3.9696154785e+003;3.9966667480e+003;4.0317949219e+003;3.9855129395e+003;4.0243588867e+003;4.0144870605e+003;4.0194870605e+003;4.0032050781e+003;3.9620512695e+003;3.9892307129e+003;3.9829487305e+003;3.9819230957e+003;4.0051281738e+003;
2.7343750000e-001;4.0100000000e+003;3.9125642090e+003;3.9538461914e+003;3.9805129395e+003;3.9316667480e+003;3.9706411133e+003;3.9676923828e+003;3.9726923828e+003;3.9466667480e+003;3.9064101563e+003;3.9421794434e+003;3.9401281738e+003;3.9282050781e+003;3.9575642090e+003;
2.8125000000e-001;4.0316667480e+003;3.9330769043e+003;3.9735898438e+003;3.9970512695e+003;3.9483332520e+003;3.9848718262e+003;3.9828205566e+003;3.9901281738e+003;3.9639743652e+003;3.9250000000e+003;3.9633332520e+003;3.9566667480e+003;3.9482050781e+003;3.9771794434e+003;
2.8906250000e-001;4.0014101563e+003;3.9052563477e+003;3.9434614258e+003;3.9688461914e+003;3.9096154785e+003;3.9423076172e+003;3.9393588867e+003;3.9430769043e+003;3.9255129395e+003;3.8892307129e+003;3.9224357910e+003;3.9180769043e+003;3.9171794434e+003;3.9385898438e+003;
2.9687500000e-001;4.0089743652e+003;3.9141025391e+003;3.9505129395e+003;3.9761538086e+003;3.9179487305e+003;3.9455129395e+003;3.9430769043e+003;3.9432050781e+003;3.9270512695e+003;3.8912819824e+003;3.9256411133e+003;3.9221794434e+003;3.9217949219e+003;3.9414101563e+003;
3.0468750000e-001;4.0465385742e+003;3.9533332520e+003;3.9861538086e+003;4.0089743652e+003;3.9543588867e+003;3.9784614258e+003;3.9710256348e+003;3.9752563477e+003;3.9580769043e+003;3.9266667480e+003;3.9648718262e+003;3.9594870605e+003;3.9553845215e+003;3.9788461914e+003;
3.1250000000e-001;4.0325642090e+003;3.9367949219e+003;3.9702563477e+003;3.9935898438e+003;3.9364101563e+003;3.9651281738e+003;3.9541025391e+003;3.9592307129e+003;3.9420512695e+003;3.9129487305e+003;3.9524357910e+003;3.9464101563e+003;3.9400000000e+003;3.9673076172e+003;
3.2031250000e-001;4.0148718262e+003;3.9147436523e+003;3.9498718262e+003;3.9747436523e+003;3.9147436523e+003;3.9462819824e+003;3.9343588867e+003;3.9364101563e+003;3.9212819824e+003;3.8935898438e+003;3.9338461914e+003;3.9271794434e+003;3.9214101563e+003;3.9503845215e+003;
3.2812500000e-001;4.0457692871e+003;3.9397436523e+003;3.9752563477e+003;4.0017949219e+003;3.9441025391e+003;3.9674357910e+003;3.9594870605e+003;3.9580769043e+003;3.9506411133e+003;3.9235898438e+003;3.9608974609e+003;3.9542307129e+003;3.9539743652e+003;3.9801281738e+003;
3.3593750000e-001;4.0535898438e+003;3.9476923828e+003;3.9820512695e+003;4.0089743652e+003;3.9524357910e+003;3.9738461914e+003;3.9655129395e+003;3.9682050781e+003;3.9626923828e+003;3.9347436523e+003;3.9675642090e+003;3.9643588867e+003;3.9630769043e+003;3.9883332520e+003;
3.4375000000e-001;4.0255129395e+003;3.9197436523e+003;3.9529487305e+003;3.9815385742e+003;3.9232050781e+003;3.9487180176e+003;3.9379487305e+003;3.9444870605e+003;3.9379487305e+003;3.9079487305e+003;3.9371794434e+003;3.9384614258e+003;3.9339743652e+003;3.9592307129e+003;
3.5156250000e-001;4.0423076172e+003;3.9262819824e+003;3.9625642090e+003;3.9842307129e+003;3.9375642090e+003;3.9733332520e+003;3.9665385742e+003;3.9796154785e+003;3.9637180176e+003;3.9274357910e+003;3.9523076172e+003;3.9438461914e+003;3.9441025391e+003;3.9680769043e+003;
3.5937500000e-001;4.0343588867e+003;3.9206411133e+003;3.9558974609e+003;3.9778205566e+003;3.9334614258e+003;3.9700000000e+003;3.9635898438e+003;3.9757692871e+003;3.9602563477e+003;3.9225642090e+003;3.9452563477e+003;3.9388461914e+003;3.9375642090e+003;3.9617949219e+003;
3.6718750000e-001;4.0680769043e+003;3.9578205566e+003;3.9864101563e+003;4.0135898438e+003;3.9678205566e+003;4.0021794434e+003;3.9960256348e+003;4.0047436523e+003;3.9934614258e+003;3.9570512695e+003;3.9729487305e+003;3.9714101563e+003;3.9671794434e+003;3.9903845215e+003;
3.7500000000e-001;4.0710256348e+003;3.9567949219e+003;3.9896154785e+003;4.0152563477e+003;3.9666667480e+003;4.0029487305e+003;3.9967949219e+003;4.0061538086e+003;3.9946154785e+003;3.9598718262e+003;3.9746154785e+003;3.9735898438e+003;3.9679487305e+003;3.9939743652e+003;
3.8281250000e-001;4.0683332520e+003;3.9503845215e+003;3.9884614258e+003;4.0083332520e+003;3.9614101563e+003;3.9969230957e+003;3.9944870605e+003;3.9997436523e+003;3.9875642090e+003;3.9543588867e+003;3.9737180176e+003;3.9698718262e+003;3.9678205566e+003;3.9953845215e+003;
3.9062500000e-001;4.0465385742e+003;3.9287180176e+003;3.9702563477e+003;3.9851281738e+003;3.9362819824e+003;3.9747436523e+003;3.9626923828e+003;3.9633332520e+003;3.9583332520e+003;3.9274357910e+003;3.9542307129e+003;3.9539743652e+003;3.9484614258e+003;3.9719230957e+003;
3.9843750000e-001;4.0570512695e+003;3.9350000000e+003;3.9776923828e+003;3.9932050781e+003;3.9414101563e+003;3.9816667480e+003;3.9687180176e+003;3.9661538086e+003;3.9597436523e+003;3.9305129395e+003;3.9601281738e+003;3.9598718262e+003;3.9533332520e+003;3.9783332520e+003;
4.0625000000e-001;4.1676923828e+003;4.0461538086e+003;4.0832050781e+003;4.0952563477e+003;4.0491025391e+003;4.0801281738e+003;4.0750000000e+003;4.0755129395e+003;4.0666667480e+003;4.0480769043e+003;4.0735898438e+003;4.0680769043e+003;4.0664101563e+003;4.0885898438e+003;
4.1406250000e-001;4.1943588867e+003;4.0764101563e+003;4.1134614258e+003;4.1229487305e+003;4.0797436523e+003;4.1080771484e+003;4.1058974609e+003;4.1103847656e+003;4.1020512695e+003;4.0871794434e+003;4.1078203125e+003;4.1000000000e+003;4.1011538086e+003;4.1208974609e+003;
4.2187500000e-001;4.1780771484e+003;4.0720512695e+003;4.1076923828e+003;4.1207690430e+003;4.0823076172e+003;4.1096152344e+003;4.1080771484e+003;4.1160258789e+003;4.1074360352e+003;4.0910256348e+003;4.1078203125e+003;4.0950000000e+003;4.1024360352e+003;4.1212822266e+003;
4.2968750000e-001;4.1866665039e+003;4.0844870605e+003;4.1150000000e+003;4.1308974609e+003;4.0948718262e+003;4.1192309570e+003;4.1182050781e+003;4.1298715820e+003;4.1189741211e+003;4.1030771484e+003;4.1183334961e+003;4.1056411133e+003;4.1126923828e+003;4.1305126953e+003;
4.3750000000e-001;4.1510258789e+003;4.0489743652e+003;4.0779487305e+003;4.0951281738e+003;4.0606411133e+003;4.0852563477e+003;4.0852563477e+003;4.1015385742e+003;4.0851281738e+003;4.0662819824e+003;4.0787180176e+003;4.0707692871e+003;4.0730769043e+003;4.0862819824e+003;
4.4531250000e-001;4.1323076172e+003;4.0287180176e+003;4.0592307129e+003;4.0761538086e+003;4.0429487305e+003;4.0682050781e+003;4.0688461914e+003;4.0825642090e+003;4.0650000000e+003;4.0429487305e+003;4.0560256348e+003;4.0492307129e+003;4.0511538086e+003;4.0625642090e+003;
4.5312500000e-001;4.1315385742e+003;4.0355129395e+003;4.0591025391e+003;4.0841025391e+003;4.0533332520e+003;4.0798718262e+003;4.0778205566e+003;4.0810256348e+003;4.0688461914e+003;4.0447436523e+003;4.0571794434e+003;4.0494870605e+003;4.0558974609e+003;4.0702563477e+003;
4.6093750000e-001;4.0982050781e+003;4.0030769043e+003;4.0238461914e+003;4.0530769043e+003;4.0202563477e+003;4.0512819824e+003;4.0474357910e+003;4.0455129395e+003;4.0338461914e+003;4.0102563477e+003;4.0211538086e+003;4.0157692871e+003;4.0228205566e+003;4.0371794434e+003;
4.6875000000e-001;4.0702563477e+003;3.9741025391e+003;3.9917949219e+003;4.0233332520e+003;3.9901281738e+003;4.0235898438e+003;4.0189743652e+003;4.0126923828e+003;3.9994870605e+003;3.9760256348e+003;3.9864101563e+003;3.9828205566e+003;3.9910256348e+003;4.0037180176e+003;
4.7656250000e-001;4.0676923828e+003;3.9702563477e+003;3.9848718262e+003;4.0160256348e+003;3.9846154785e+003;4.0162819824e+003;4.0114101563e+003;4.0042307129e+003;3.9891025391e+003;3.9661538086e+003;3.9767949219e+003;3.9730769043e+003;3.9824357910e+003;3.9938461914e+003;
4.8437500000e-001;4.0289743652e+003;3.9283332520e+003;3.9480769043e+003;3.9764101563e+003;3.9380769043e+003;3.9697436523e+003;3.9569230957e+003;3.9470512695e+003;3.9376923828e+003;3.9175642090e+003;3.9348718262e+003;3.9373076172e+003;3.9362819824e+003;3.9557692871e+003;
4.9218750000e-001;3.9970512695e+003;3.8843588867e+003;3.9147436523e+003;3.9458974609e+003;3.9007692871e+003;3.9353845215e+003;3.9232050781e+003;3.9048718262e+003;3.8987180176e+003;3.8820512695e+003;3.9062819824e+003;3.9056411133e+003;3.9044870605e+003;3.9237180176e+003;
5.0000000000e-001;3.9714101563e+003;3.8550000000e+003;3.8862819824e+003;3.9178205566e+003;3.8714101563e+003;3.9078205566e+003;3.8953845215e+003;3.8752563477e+003;3.8693588867e+003;3.8507692871e+003;3.8779487305e+003;3.8783332520e+003;3.8750000000e+003;3.8956411133e+003;
5.0781250000e-001;3.9765385742e+003;3.8546154785e+003;3.8819230957e+003;3.9110256348e+003;3.8669230957e+003;3.9041025391e+003;3.8908974609e+003;3.8734614258e+003;3.8691025391e+003;3.8492307129e+003;3.8793588867e+003;3.8841025391e+003;3.8782050781e+003;3.8969230957e+003;
5.1562500000e-001;3.9739743652e+003;3.8501281738e+003;3.8784614258e+003;3.9056411133e+003;3.8610256348e+003;3.8996154785e+003;3.8860256348e+003;3.8742307129e+003;3.8685898438e+003;3.8496154785e+003;3.8792307129e+003;3.8847436523e+003;3.8785898438e+003;3.8960256348e+003;
5.2343750000e-001;3.9529487305e+003;3.8270512695e+003;3.8574357910e+003;3.8885898438e+003;3.8415385742e+003;3.8741025391e+003;3.8678205566e+003;3.8593588867e+003;3.8517949219e+003;3.8334614258e+003;3.8629487305e+003;3.8574357910e+003;3.8621794434e+003;3.8744870605e+003;
5.3125000000e-001;3.9843588867e+003;3.8584614258e+003;3.8878205566e+003;3.9166667480e+003;3.8735898438e+003;3.9080769043e+003;3.8994870605e+003;3.8946154785e+003;3.8888461914e+003;3.8723076172e+003;3.8915385742e+003;3.8896154785e+003;3.8916667480e+003;3.9035898438e+003;
5.3906250000e-001;3.9826923828e+003;3.8587180176e+003;3.8867949219e+003;3.9165385742e+003;3.8742307129e+003;3.9108974609e+003;3.9011538086e+003;3.8962819824e+003;3.8876923828e+003;3.8711538086e+003;3.8882050781e+003;3.8875642090e+003;3.8883332520e+003;3.9006411133e+003;
5.4687500000e-001;4.0574357910e+003;3.9448718262e+003;3.9576923828e+003;3.9942307129e+003;3.9593588867e+003;3.9851281738e+003;3.9783332520e+003;3.9797436523e+003;3.9698718262e+003;3.9492307129e+003;3.9628205566e+003;3.9551281738e+003;3.9611538086e+003;3.9698718262e+003;
5.5468750000e-001;4.0473076172e+003;3.9358974609e+003;3.9475642090e+003;3.9852563477e+003;3.9498718262e+003;3.9770512695e+003;3.9705129395e+003;3.9715385742e+003;3.9612819824e+003;3.9379487305e+003;3.9524357910e+003;3.9460256348e+003;3.9496154785e+003;3.9588461914e+003;
5.6250000000e-001;4.0526923828e+003;3.9438461914e+003;3.9564101563e+003;3.9916667480e+003;3.9600000000e+003;3.9884614258e+003;3.9837180176e+003;3.9765385742e+003;3.9620512695e+003;3.9414101563e+003;3.9582050781e+003;3.9532050781e+003;3.9560256348e+003;3.9670512695e+003;
5.7031250000e-001;4.0887180176e+003;3.9830769043e+003;3.9957692871e+003;4.0269230957e+003;4.0001281738e+003;4.0252563477e+003;4.0201281738e+003;4.0133332520e+003;3.9962819824e+003;3.9821794434e+003;3.9970512695e+003;3.9906411133e+003;3.9962819824e+003;4.0078205566e+003;
5.7812500000e-001;4.0548718262e+003;3.9471794434e+003;3.9637180176e+003;3.9908974609e+003;3.9647436523e+003;3.9897436523e+003;3.9778205566e+003;3.9750000000e+003;3.9589743652e+003;3.9500000000e+003;3.9634614258e+003;3.9587180176e+003;3.9664101563e+003;3.9796154785e+003;
5.8593750000e-001;4.0341025391e+003;3.9219230957e+003;3.9397436523e+003;3.9684614258e+003;3.9408974609e+003;3.9661538086e+003;3.9550000000e+003;3.9478205566e+003;3.9347436523e+003;3.9232050781e+003;3.9398718262e+003;3.9353845215e+003;3.9434614258e+003;3.9555129395e+003;
5.9375000000e-001;4.0398718262e+003;3.9246154785e+003;3.9432050781e+003;3.9726923828e+003;3.9443588867e+003;3.9680769043e+003;3.9582050781e+003;3.9485898438e+003;3.9382050781e+003;3.9265385742e+003;3.9447436523e+003;3.9400000000e+003;3.9479487305e+003;3.9594870605e+003;
6.0156250000e-001;4.1066665039e+003;3.9924357910e+003;4.0097436523e+003;4.0351281738e+003;4.0039743652e+003;4.0192307129e+003;4.0053845215e+003;3.9941025391e+003;3.9946154785e+003;3.9932050781e+003;4.0094870605e+003;4.0102563477e+003;4.0128205566e+003;4.0248718262e+003;
6.0937500000e-001;4.1115385742e+003;3.9998718262e+003;4.0151281738e+003;4.0416667480e+003;4.0098718262e+003;4.0234614258e+003;4.0101281738e+003;4.0030769043e+003;4.0023076172e+003;4.0024357910e+003;4.0174357910e+003;4.0171794434e+003;4.0214101563e+003;4.0300000000e+003;
6.1718750000e-001;4.0466667480e+003;3.9339743652e+003;3.9521794434e+003;3.9802563477e+003;3.9369230957e+003;3.9578205566e+003;3.9506411133e+003;3.9416667480e+003;3.9310256348e+003;3.9248718262e+003;3.9457692871e+003;3.9466667480e+003;3.9432050781e+003;3.9612819824e+003;
6.2500000000e-001;4.0879487305e+003;3.9673076172e+003;3.9903845215e+003;4.0110256348e+003;3.9755129395e+003;3.9908974609e+003;3.9932050781e+003;3.9874357910e+003;3.9728205566e+003;3.9669230957e+003;3.9855129395e+003;3.9841025391e+003;3.9817949219e+003;3.9985898438e+003;
6.3281250000e-001;4.0667949219e+003;3.9467949219e+003;3.9688461914e+003;3.9932050781e+003;3.9576923828e+003;3.9757692871e+003;3.9773076172e+003;3.9734614258e+003;3.9587180176e+003;3.9520512695e+003;3.9674357910e+003;3.9660256348e+003;3.9648718262e+003;3.9787180176e+003;
6.4062500000e-001;4.1180771484e+003;4.0087180176e+003;4.0164101563e+003;4.0464101563e+003;4.0138461914e+003;4.0328205566e+003;4.0288461914e+003;4.0312819824e+003;4.0226923828e+003;4.0115385742e+003;4.0196154785e+003;4.0166667480e+003;4.0162819824e+003;4.0287180176e+003;
6.4843750000e-001;4.1162822266e+003;4.0074357910e+003;4.0162819824e+003;4.0425642090e+003;4.0130769043e+003;4.0328205566e+003;4.0267949219e+003;4.0297436523e+003;4.0228205566e+003;4.0108974609e+003;4.0189743652e+003;4.0155129395e+003;4.0141025391e+003;4.0278205566e+003;
6.5625000000e-001;4.0757692871e+003;3.9660256348e+003;3.9769230957e+003;4.0002563477e+003;3.9778205566e+003;3.9993588867e+003;3.9943588867e+003;3.9879487305e+003;3.9821794434e+003;3.9702563477e+003;3.9837180176e+003;3.9747436523e+003;3.9770512695e+003;3.9889743652e+003;
6.6406250000e-001;4.0887180176e+003;3.9808974609e+003;3.9879487305e+003;4.0132050781e+003;3.9932050781e+003;4.0126923828e+003;4.0093588867e+003;4.0002563477e+003;3.9958974609e+003;3.9858974609e+003;3.9998718262e+003;3.9871794434e+003;3.9928205566e+003;4.0028205566e+003;
6.7187500000e-001;4.0853845215e+003;3.9748718262e+003;3.9807692871e+003;4.0093588867e+003;3.9820512695e+003;4.0034614258e+003;3.9900000000e+003;3.9847436523e+003;3.9873076172e+003;3.9819230957e+003;3.9910256348e+003;3.9812819824e+003;3.9865385742e+003;3.9966667480e+003;
6.7968750000e-001;4.0585898438e+003;3.9425642090e+003;3.9516667480e+003;3.9791025391e+003;3.9501281738e+003;3.9729487305e+003;3.9558974609e+003;3.9470512695e+003;3.9511538086e+003;3.9458974609e+003;3.9573076172e+003;3.9492307129e+003;3.9550000000e+003;3.9647436523e+003;
6.8750000000e-001;4.0343588867e+003;3.9142307129e+003;3.9251281738e+003;3.9514101563e+003;3.9215385742e+003;3.9451281738e+003;3.9262819824e+003;3.9129487305e+003;3.9182050781e+003;3.9138461914e+003;3.9297436523e+003;3.9220512695e+003;3.9262819824e+003;3.9374357910e+003;
6.9531250000e-001;4.0039743652e+003;3.8848718262e+003;3.8964101563e+003;3.9252563477e+003;3.8910256348e+003;3.9182050781e+003;3.8993588867e+003;3.8852563477e+003;3.8896154785e+003;3.8844870605e+003;3.9011538086e+003;3.8956411133e+003;3.8946154785e+003;3.9092307129e+003;
7.0312500000e-001;3.9205129395e+003;3.7962819824e+003;3.8128205566e+003;3.8450000000e+003;3.8030769043e+003;3.8344870605e+003;3.8155129395e+003;3.7962819824e+003;3.7985898438e+003;3.7851281738e+003;3.8080769043e+003;3.8092307129e+003;3.8000000000e+003;3.8235898438e+003;
7.1093750000e-001;3.9234614258e+003;3.7957692871e+003;3.8141025391e+003;3.8438461914e+003;3.8030769043e+003;3.8325642090e+003;3.8132050781e+003;3.7964101563e+003;3.7989743652e+003;3.7852563477e+003;3.8075642090e+003;3.8094870605e+003;3.7997436523e+003;3.8243588867e+003;
7.1875000000e-001;3.9117949219e+003;3.7806411133e+003;3.8011538086e+003;3.8308974609e+003;3.7880769043e+003;3.8184614258e+003;3.7997436523e+003;3.7853845215e+003;3.7870512695e+003;3.7737180176e+003;3.7934614258e+003;3.7967949219e+003;3.7851281738e+003;3.8105129395e+003;
7.2656250000e-001;3.8891025391e+003;3.7542307129e+003;3.7762819824e+003;3.8094870605e+003;3.7615385742e+003;3.7944870605e+003;3.7791025391e+003;3.7648718262e+003;3.7634614258e+003;3.7497436523e+003;3.7669230957e+003;3.7717949219e+003;3.7583332520e+003;3.7838461914e+003;
7.3437500000e-001;3.9647436523e+003;3.8280769043e+003;3.8375642090e+003;3.8769230957e+003;3.8332050781e+003;3.8601281738e+003;3.8573076172e+003;3.8474357910e+003;3.8342307129e+003;3.8216667480e+003;3.8333332520e+003;3.8347436523e+003;3.8271794434e+003;3.8492307129e+003;
7.4218750000e-001;3.9698718262e+003;3.8361538086e+003;3.8442307129e+003;3.8812819824e+003;3.8412819824e+003;3.8696154785e+003;3.8655129395e+003;3.8582050781e+003;3.8460256348e+003;3.8325642090e+003;3.8437180176e+003;3.8428205566e+003;3.8364101563e+003;3.8556411133e+003;
7.5000000000e-001;4.0614101563e+003;3.9374357910e+003;3.9421794434e+003;3.9724357910e+003;3.9410256348e+003;3.9576923828e+003;3.9601281738e+003;3.9628205566e+003;3.9534614258e+003;3.9365385742e+003;3.9451281738e+003;3.9361538086e+003;3.9371794434e+003;3.9482050781e+003;
7.5781250000e-001;4.0358974609e+003;3.9144870605e+003;3.9191025391e+003;3.9494870605e+003;3.9179487305e+003;3.9382050781e+003;3.9392307129e+003;3.9402563477e+003;3.9278205566e+003;3.9139743652e+003;3.9187180176e+003;3.9132050781e+003;3.9073076172e+003;3.9285898438e+003;
7.6562500000e-001;4.0435898438e+003;3.9258974609e+003;3.9266667480e+003;3.9591025391e+003;3.9311538086e+003;3.9501281738e+003;3.9498718262e+003;3.9448718262e+003;3.9348718262e+003;3.9241025391e+003;3.9279487305e+003;3.9217949219e+003;3.9169230957e+003;3.9376923828e+003;
7.7343750000e-001;4.0869230957e+003;3.9758974609e+003;3.9726923828e+003;4.0056411133e+003;3.9852563477e+003;4.0003845215e+003;3.9934614258e+003;3.9852563477e+003;3.9796154785e+003;3.9776923828e+003;3.9778205566e+003;3.9703845215e+003;3.9693588867e+003;3.9832050781e+003;
7.8125000000e-001;4.0997436523e+003;3.9864101563e+003;3.9839743652e+003;4.0129487305e+003;3.9985898438e+003;4.0144870605e+003;4.0094870605e+003;4.0000000000e+003;3.9934614258e+003;3.9941025391e+003;3.9942307129e+003;3.9832050781e+003;3.9826923828e+003;3.9944870605e+003;
7.8906250000e-001;4.0911538086e+003;3.9765385742e+003;3.9787180176e+003;4.0051281738e+003;3.9910256348e+003;4.0083332520e+003;4.0034614258e+003;3.9961538086e+003;3.9926923828e+003;3.9939743652e+003;3.9898718262e+003;3.9816667480e+003;3.9766667480e+003;3.9908974609e+003;
7.9687500000e-001;4.0255129395e+003;3.9037180176e+003;3.9216667480e+003;3.9434614258e+003;3.9198718262e+003;3.9444870605e+003;3.9403845215e+003;3.9279487305e+003;3.9243588867e+003;3.9224357910e+003;3.9223076172e+003;3.9267949219e+003;3.9108974609e+003;3.9315385742e+003;
8.0468750000e-001;4.0410256348e+003;3.9180769043e+003;3.9362819824e+003;3.9570512695e+003;3.9314101563e+003;3.9537180176e+003;3.9524357910e+003;3.9423076172e+003;3.9329487305e+003;3.9344870605e+003;3.9374357910e+003;3.9412819824e+003;3.9258974609e+003;3.9439743652e+003;
8.1250000000e-001;4.0171794434e+003;3.8915385742e+003;3.9123076172e+003;3.9328205566e+003;3.8989743652e+003;3.9224357910e+003;3.9238461914e+003;3.9214101563e+003;3.9044870605e+003;3.9096154785e+003;3.9151281738e+003;3.9170512695e+003;3.9010256348e+003;3.9173076172e+003;
8.2031250000e-001;3.9879487305e+003;3.8608974609e+003;3.8830769043e+003;3.9043588867e+003;3.8671794434e+003;3.8916667480e+003;3.8938461914e+003;3.8896154785e+003;3.8747436523e+003;3.8760256348e+003;3.8837180176e+003;3.8865385742e+003;3.8705129395e+003;3.8882050781e+003;
8.2812500000e-001;4.0374357910e+003;3.9153845215e+003;3.9326923828e+003;3.9533332520e+003;3.9178205566e+003;3.9326923828e+003;3.9385898438e+003;3.9358974609e+003;3.9257692871e+003;3.9196154785e+003;3.9308974609e+003;3.9332050781e+003;3.9225642090e+003;3.9398718262e+003;
8.3593750000e-001;4.0347436523e+003;3.9138461914e+003;3.9298718262e+003;3.9521794434e+003;3.9148718262e+003;3.9311538086e+003;3.9360256348e+003;3.9371794434e+003;3.9229487305e+003;3.9189743652e+003;3.9278205566e+003;3.9297436523e+003;3.9187180176e+003;3.9357692871e+003;
8.4375000000e-001;4.0185898438e+003;3.8970512695e+003;3.9112819824e+003;3.9366667480e+003;3.8983332520e+003;3.9173076172e+003;3.9203845215e+003;3.9217949219e+003;3.9046154785e+003;3.9021794434e+003;3.9080769043e+003;3.9103845215e+003;3.8991025391e+003;3.9161538086e+003;
8.5156250000e-001;4.0178205566e+003;3.8960256348e+003;3.9065385742e+003;3.9343588867e+003;3.8982050781e+003;3.9178205566e+003;3.9192307129e+003;3.9184614258e+003;3.9020512695e+003;3.8997436523e+003;3.9025642090e+003;3.9057692871e+003;3.8955129395e+003;3.9121794434e+003;
8.5937500000e-001;4.0365385742e+003;3.9165385742e+003;3.9253845215e+003;3.9492307129e+003;3.9185898438e+003;3.9348718262e+003;3.9325642090e+003;3.9380769043e+003;3.9306411133e+003;3.9262819824e+003;3.9196154785e+003;3.9251281738e+003;3.9183332520e+003;3.9289743652e+003;
8.6718750000e-001;4.0171794434e+003;3.8951281738e+003;3.9044870605e+003;3.9296154785e+003;3.8992307129e+003;3.9155129395e+003;3.9137180176e+003;3.9185898438e+003;3.9123076172e+003;3.9053845215e+003;3.8991025391e+003;3.9008974609e+003;3.8973076172e+003;3.9065385742e+003;
8.7500000000e-001;3.9444870605e+003;3.8228205566e+003;3.8258974609e+003;3.8600000000e+003;3.8312819824e+003;3.8564101563e+003;3.8462819824e+003;3.8437180176e+003;3.8462819824e+003;3.8344870605e+003;3.8264101563e+003;3.8274357910e+003;3.8226923828e+003;3.8397436523e+003;
8.8281250000e-001;3.9397436523e+003;3.8082050781e+003;3.8123076172e+003;3.8455129395e+003;3.8161538086e+003;3.8439743652e+003;3.8356411133e+003;3.8225642090e+003;3.8276923828e+003;3.8146154785e+003;3.8123076172e+003;3.8120512695e+003;3.8061538086e+003;3.8178205566e+003;
8.9062500000e-001;3.9535898438e+003;3.8205129395e+003;3.8253845215e+003;3.8578205566e+003;3.8280769043e+003;3.8553845215e+003;3.8446154785e+003;3.8364101563e+003;3.8402563477e+003;3.8267949219e+003;3.8251281738e+003;3.8233332520e+003;3.8188461914e+003;3.8279487305e+003;
8.9843750000e-001;3.8712819824e+003;3.7370512695e+003;3.7479487305e+003;3.7814101563e+003;3.7487180176e+003;3.7784614258e+003;3.7639743652e+003;3.7510256348e+003;3.7476923828e+003;3.7333332520e+003;3.7332050781e+003;3.7412819824e+003;3.7369230957e+003;3.7507692871e+003;
9.0625000000e-001;3.9234614258e+003;3.7843588867e+003;3.7941025391e+003;3.8247436523e+003;3.7958974609e+003;3.8157692871e+003;3.8074357910e+003;3.7903845215e+003;3.7833332520e+003;3.7800000000e+003;3.7744870605e+003;3.7857692871e+003;3.7792307129e+003;3.7938461914e+003;
9.1406250000e-001;3.9115385742e+003;3.7730769043e+003;3.7819230957e+003;3.8147436523e+003;3.7830769043e+003;3.8047436523e+003;3.7953845215e+003;3.7792307129e+003;3.7691025391e+003;3.7679487305e+003;3.7624357910e+003;3.7742307129e+003;3.7644870605e+003;3.7782050781e+003;
9.2187500000e-001;3.9148718262e+003;3.7808974609e+003;3.7824357910e+003;3.8203845215e+003;3.7857692871e+003;3.8062819824e+003;3.7978205566e+003;3.7848718262e+003;3.7719230957e+003;3.7733332520e+003;3.7717949219e+003;3.7802563477e+003;3.7693588867e+003;3.7821794434e+003;
9.2968750000e-001;3.9028205566e+003;3.7661538086e+003;3.7696154785e+003;3.8082050781e+003;3.7712819824e+003;3.7925642090e+003;3.7832050781e+003;3.7742307129e+003;3.7638461914e+003;3.7623076172e+003;3.7617949219e+003;3.7694870605e+003;3.7596154785e+003;3.7720512695e+003;
9.3750000000e-001;3.8791025391e+003;3.7371794434e+003;3.7415385742e+003;3.7829487305e+003;3.7423076172e+003;3.7639743652e+003;3.7547436523e+003;3.7487180176e+003;3.7444870605e+003;3.7357692871e+003;3.7367949219e+003;3.7437180176e+003;3.7394870605e+003;3.7453845215e+003;
9.4531250000e-001;3.9010256348e+003;3.7602563477e+003;3.7607692871e+003;3.8020512695e+003;3.7638461914e+003;3.7810256348e+003;3.7750000000e+003;3.7711538086e+003;3.7691025391e+003;3.7602563477e+003;3.7591025391e+003;3.7651281738e+003;3.7639743652e+003;3.7658974609e+003;
9.5312500000e-001;3.8692307129e+003;3.7296154785e+003;3.7317949219e+003;3.7755129395e+003;3.7335898438e+003;3.7483332520e+003;3.7458974609e+003;3.7560256348e+003;3.7553845215e+003;3.7385898438e+003;3.7310256348e+003;3.7384614258e+003;3.7315385742e+003;3.7398718262e+003;
9.6093750000e-001;3.8367949219e+003;3.6943588867e+003;3.7003845215e+003;3.7471794434e+003;3.7002563477e+003;3.7170512695e+003;3.7130769043e+003;3.7230769043e+003;3.7226923828e+003;3.6997436523e+003;3.6961538086e+003;3.7020512695e+003;3.6948718262e+003;3.7060256348e+003;
9.6875000000e-001;3.8323076172e+003;3.6874357910e+003;3.6956411133e+003;3.7432050781e+003;3.6948718262e+003;3.7108974609e+003;3.7065385742e+003;3.7155129395e+003;3.7156411133e+003;3.6892307129e+003;3.6894870605e+003;3.6926923828e+003;3.6888461914e+003;3.6987180176e+003;
9.7656250000e-001;3.8403845215e+003;3.6941025391e+003;3.7035898438e+003;3.7493588867e+003;3.7026923828e+003;3.7176923828e+003;3.7133332520e+003;3.7220512695e+003;3.7228205566e+003;3.6956411133e+003;3.6970512695e+003;3.6992307129e+003;3.6993588867e+003;3.7048718262e+003;
9.8437500000e-001;3.8161538086e+003;3.6670512695e+003;3.6765385742e+003;3.7256411133e+003;3.6839743652e+003;3.7157692871e+003;3.7064101563e+003;3.6978205566e+003;3.6971794434e+003;3.6667949219e+003;3.6685898438e+003;3.6761538086e+003;3.6784614258e+003;3.6793588867e+003;
9.9218750000e-001;3.8450000000e+003;3.6976923828e+003;3.7061538086e+003;3.7547436523e+003;3.7164101563e+003;3.7453845215e+003;3.7361538086e+003;3.7255129395e+003;3.7232050781e+003;3.6962819824e+003;3.6984614258e+003;3.7046154785e+003;3.7057692871e+003;3.7091025391e+003;
1.0000000000e+000;3.8501281738e+003;3.7015385742e+003;3.7162819824e+003;3.7582050781e+003;3.7216667480e+003;3.7441025391e+003;3.7392307129e+003;3.7160256348e+003;3.7121794434e+003;3.6998718262e+003;3.7025642090e+003;3.7125642090e+003;3.7100000000e+003;3.7126923828e+003;
1.0078125000e+000;3.9569230957e+003;3.8138461914e+003;3.8185898438e+003;3.8617949219e+003;3.8257692871e+003;3.8428205566e+003;3.8356411133e+003;3.8157692871e+003;3.8053845215e+003;3.8055129395e+003;3.8106411133e+003;3.8211538086e+003;3.8219230957e+003;3.8182050781e+003;
1.0156250000e+000;3.9647436523e+003;3.8215385742e+003;3.8273076172e+003;3.8671794434e+003;3.8319230957e+003;3.8496154785e+003;3.8414101563e+003;3.8226923828e+003;3.8112819824e+003;3.8132050781e+003;3.8188461914e+003;3.8303845215e+003;3.8283332520e+003;3.8251281738e+003;
1.0234375000e+000;4.0051281738e+003;3.8628205566e+003;3.8729487305e+003;3.9007692871e+003;3.8723076172e+003;3.8766667480e+003;3.8764101563e+003;3.8615385742e+003;3.8566667480e+003;3.8569230957e+003;3.8660256348e+003;3.8764101563e+003;3.8755129395e+003;3.8691025391e+003;
1.0312500000e+000;4.0061538086e+003;3.8697436523e+003;3.8770512695e+003;3.9050000000e+003;3.8733332520e+003;3.8703845215e+003;3.8715385742e+003;3.8706411133e+003;3.8689743652e+003;3.8684614258e+003;3.8792307129e+003;3.8924357910e+003;3.8839743652e+003;3.8850000000e+003;
1.0390625000e+000;4.0257692871e+003;3.8910256348e+003;3.8964101563e+003;3.9221794434e+003;3.8948718262e+003;3.8857692871e+003;3.8892307129e+003;3.8903845215e+003;3.8902563477e+003;3.8888461914e+003;3.9002563477e+003;3.9117949219e+003;3.9041025391e+003;3.9038461914e+003;
1.0468750000e+000;4.0532050781e+003;3.9212819824e+003;3.9250000000e+003;3.9485898438e+003;3.9242307129e+003;3.9089743652e+003;3.9153845215e+003;3.9215385742e+003;3.9230769043e+003;3.9206411133e+003;3.9301281738e+003;3.9402563477e+003;3.9351281738e+003;3.9315385742e+003;
1.0546875000e+000;4.0374357910e+003;3.9121794434e+003;3.9155129395e+003;3.9403845215e+003;3.9079487305e+003;3.8944870605e+003;3.9051281738e+003;3.9242307129e+003;3.9248718262e+003;3.9194870605e+003;3.9205129395e+003;3.9329487305e+003;3.9308974609e+003;3.9234614258e+003;
1.0625000000e+000;4.0287180176e+003;3.9074357910e+003;3.9066667480e+003;3.9307692871e+003;3.9028205566e+003;3.8923076172e+003;3.9062819824e+003;3.9366667480e+003;3.9312819824e+003;3.9228205566e+003;3.9164101563e+003;3.9271794434e+003;3.9265385742e+003;3.9184614258e+003;
1.0703125000e+000;4.0255129395e+003;3.9042307129e+003;3.9046154785e+003;3.9258974609e+003;3.9023076172e+003;3.8925642090e+003;3.9056411133e+003;3.9385898438e+003;3.9332050781e+003;3.9229487305e+003;3.9150000000e+003;3.9253845215e+003;3.9248718262e+003;3.9153845215e+003;
1.0781250000e+000;3.9905129395e+003;3.8691025391e+003;3.8726923828e+003;3.8938461914e+003;3.8701281738e+003;3.8648718262e+003;3.8769230957e+003;3.9076923828e+003;3.9023076172e+003;3.8889743652e+003;3.8810256348e+003;3.8921794434e+003;3.8916667480e+003;3.8808974609e+003;
1.0859375000e+000;3.9471794434e+003;3.8265385742e+003;3.8319230957e+003;3.8565385742e+003;3.8301281738e+003;3.8311538086e+003;3.8429487305e+003;3.8669230957e+003;3.8607692871e+003;3.8446154785e+003;3.8380769043e+003;3.8492307129e+003;3.8496154785e+003;3.8378205566e+003;
1.0937500000e+000;3.9193588867e+003;3.8053845215e+003;3.8052563477e+003;3.8357692871e+003;3.8174357910e+003;3.8342307129e+003;3.8353845215e+003;3.8350000000e+003;3.8251281738e+003;3.8144870605e+003;3.8085898438e+003;3.8134614258e+003;3.8179487305e+003;3.8008974609e+003;
1.1015625000e+000;3.9287180176e+003;3.8153845215e+003;3.8137180176e+003;3.8447436523e+003;3.8274357910e+003;3.8434614258e+003;3.8429487305e+003;3.8383332520e+003;3.8291025391e+003;3.8187180176e+003;3.8153845215e+003;3.8197436523e+003;3.8256411133e+003;3.8085898438e+003;
1.1093750000e+000;3.9687180176e+003;3.8575642090e+003;3.8530769043e+003;3.8865385742e+003;3.8692307129e+003;3.8815385742e+003;3.8796154785e+003;3.8729487305e+003;3.8644870605e+003;3.8583332520e+003;3.8557692871e+003;3.8601281738e+003;3.8646154785e+003;3.8555129395e+003;
1.1171875000e+000;3.9582050781e+003;3.8460256348e+003;3.8435898438e+003;3.8775642090e+003;3.8589743652e+003;3.8717949219e+003;3.8698718262e+003;3.8611538086e+003;3.8508974609e+003;3.8471794434e+003;3.8452563477e+003;3.8519230957e+003;3.8530769043e+003;3.8497436523e+003;
1.1250000000e+000;3.9734614258e+003;3.8594870605e+003;3.8547436523e+003;3.8873076172e+003;3.8715385742e+003;3.8788461914e+003;3.8744870605e+003;3.8573076172e+003;3.8437180176e+003;3.8491025391e+003;3.8565385742e+003;3.8696154785e+003;3.8671794434e+003;3.8651281738e+003;
1.1328125000e+000;3.9934614258e+003;3.8826923828e+003;3.8769230957e+003;3.9071794434e+003;3.8879487305e+003;3.8928205566e+003;3.8838461914e+003;3.8735898438e+003;3.8638461914e+003;3.8725642090e+003;3.8803845215e+003;3.8960256348e+003;3.8879487305e+003;3.8855129395e+003;
1.1406250000e+000;3.9829487305e+003;3.8726923828e+003;3.8689743652e+003;3.8979487305e+003;3.8762819824e+003;3.8797436523e+003;3.8728205566e+003;3.8616667480e+003;3.8541025391e+003;3.8619230957e+003;3.8696154785e+003;3.8860256348e+003;3.8769230957e+003;3.8748718262e+003;
1.1484375000e+000;4.0512819824e+003;3.9415385742e+003;3.9396154785e+003;3.9610256348e+003;3.9433332520e+003;3.9305129395e+003;3.9310256348e+003;3.9285898438e+003;3.9308974609e+003;3.9393588867e+003;3.9425642090e+003;3.9537180176e+003;3.9539743652e+003;3.9462819824e+003;
1.1562500000e+000;4.0453845215e+003;3.9356411133e+003;3.9351281738e+003;3.9555129395e+003;3.9357692871e+003;3.9235898438e+003;3.9216667480e+003;3.9289743652e+003;3.9335898438e+003;3.9397436523e+003;3.9406411133e+003;3.9517949219e+003;3.9508974609e+003;3.9443588867e+003;
1.1640625000e+000;4.0191025391e+003;3.9098718262e+003;3.9093588867e+003;3.9306411133e+003;3.9076923828e+003;3.8980769043e+003;3.8952563477e+003;3.9097436523e+003;3.9146154785e+003;3.9158974609e+003;3.9161538086e+003;3.9276923828e+003;3.9246154785e+003;3.9202563477e+003;
1.1718750000e+000;4.0056411133e+003;3.8982050781e+003;3.8950000000e+003;3.9180769043e+003;3.8942307129e+003;3.8841025391e+003;3.8838461914e+003;3.9025642090e+003;3.9062819824e+003;3.9023076172e+003;3.9028205566e+003;3.9134614258e+003;3.9103845215e+003;3.9064101563e+003;
1.1796875000e+000;4.0155129395e+003;3.9152563477e+003;3.9094870605e+003;3.9380769043e+003;3.9170512695e+003;3.9006411133e+003;3.9098718262e+003;3.9369230957e+003;3.9373076172e+003;3.9288461914e+003;3.9189743652e+003;3.9271794434e+003;3.9294870605e+003;3.9171794434e+003;
1.1875000000e+000;4.0034614258e+003;3.9043588867e+003;3.8988461914e+003;3.9270512695e+003;3.9067949219e+003;3.8952563477e+003;3.9042307129e+003;3.9255129395e+003;3.9261538086e+003;3.9151281738e+003;3.9053845215e+003;3.9144870605e+003;3.9185898438e+003;3.9053845215e+003;
1.1953125000e+000;3.9871794434e+003;3.8952563477e+003;3.8883332520e+003;3.9129487305e+003;3.8992307129e+003;3.9043588867e+003;3.9101281738e+003;3.9206411133e+003;3.9147436523e+003;3.9012819824e+003;3.8946154785e+003;3.9051281738e+003;3.9038461914e+003;3.8960256348e+003;
1.2031250000e+000;3.9393588867e+003;3.8500000000e+003;3.8397436523e+003;3.8707692871e+003;3.8616667480e+003;3.8706411133e+003;3.8708974609e+003;3.8616667480e+003;3.8601281738e+003;3.8455129395e+003;3.8417949219e+003;3.8533332520e+003;3.8492307129e+003;3.8432050781e+003;
1.2109375000e+000;3.9550000000e+003;3.8685898438e+003;3.8562819824e+003;3.8864101563e+003;3.8808974609e+003;3.8879487305e+003;3.8860256348e+003;3.8742307129e+003;3.8737180176e+003;3.8593588867e+003;3.8570512695e+003;3.8675642090e+003;3.8653845215e+003;3.8597436523e+003;
1.2187500000e+000;3.9353845215e+003;3.8500000000e+003;3.8428205566e+003;3.8715385742e+003;3.8614101563e+003;3.8760256348e+003;3.8642307129e+003;3.8461538086e+003;3.8369230957e+003;3.8306411133e+003;3.8338461914e+003;3.8498718262e+003;3.8411538086e+003;3.8437180176e+003;
1.2265625000e+000;3.9642307129e+003;3.8741025391e+003;3.8705129395e+003;3.8978205566e+003;3.8825642090e+003;3.8862819824e+003;3.8762819824e+003;3.8511538086e+003;3.8451281738e+003;3.8532050781e+003;3.8555129395e+003;3.8734614258e+003;3.8616667480e+003;3.8661538086e+003;
1.2343750000e+000;3.9429487305e+003;3.8544870605e+003;3.8496154785e+003;3.8765385742e+003;3.8616667480e+003;3.8650000000e+003;3.8538461914e+003;3.8252563477e+003;3.8207692871e+003;3.8300000000e+003;3.8360256348e+003;3.8528205566e+003;3.8408974609e+003;3.8443588867e+003;
1.2421875000e+000;3.9356411133e+003;3.8501281738e+003;3.8420512695e+003;3.8687180176e+003;3.8557692871e+003;3.8588461914e+003;3.8452563477e+003;3.8143588867e+003;3.8115385742e+003;3.8208974609e+003;3.8308974609e+003;3.8464101563e+003;3.8355129395e+003;3.8375642090e+003;
1.2500000000e+000;3.9811538086e+003;3.8984614258e+003;3.8873076172e+003;3.9114101563e+003;3.8993588867e+003;3.8997436523e+003;3.8803845215e+003;3.8585898438e+003;3.8624357910e+003;3.8741025391e+003;3.8810256348e+003;3.8969230957e+003;3.8880769043e+003;3.8897436523e+003;
1.2578125000e+000;3.9830769043e+003;3.8983332520e+003;3.8905129395e+003;3.9138461914e+003;3.8971794434e+003;3.8980769043e+003;3.8765385742e+003;3.8628205566e+003;3.8707692871e+003;3.8828205566e+003;3.8855129395e+003;3.9020512695e+003;3.8928205566e+003;3.8964101563e+003;
1.2656250000e+000;3.9641025391e+003;3.8750000000e+003;3.8710256348e+003;3.8934614258e+003;3.8706411133e+003;3.8701281738e+003;3.8525642090e+003;3.8461538086e+003;3.8583332520e+003;3.8653845215e+003;3.8683332520e+003;3.8802563477e+003;3.8729487305e+003;3.8789743652e+003;
1.2734375000e+000;4.0001281738e+003;3.9116667480e+003;3.9050000000e+003;3.9243588867e+003;3.9051281738e+003;3.8989743652e+003;3.8862819824e+003;3.8842307129e+003;3.8964101563e+003;3.9015385742e+003;3.9051281738e+003;3.9124357910e+003;3.9078205566e+003;3.9126923828e+003;
1.2812500000e+000;4.1000000000e+003;4.0173076172e+003;4.0112819824e+003;4.0191025391e+003;4.0026923828e+003;3.9898718262e+003;3.9887180176e+003;4.0129487305e+003;4.0164101563e+003;4.0214101563e+003;4.0129487305e+003;4.0179487305e+003;4.0134614258e+003;4.0115385742e+003;
1.2890625000e+000;4.0934614258e+003;4.0129487305e+003;4.0078205566e+003;4.0167949219e+003;3.9984614258e+003;3.9864101563e+003;3.9900000000e+003;4.0160256348e+003;4.0162819824e+003;4.0194870605e+003;4.0087180176e+003;4.0146154785e+003;4.0098718262e+003;4.0057692871e+003;
1.2968750000e+000;4.0934614258e+003;4.0162819824e+003;4.0091025391e+003;4.0205129395e+003;4.0034614258e+003;3.9901281738e+003;3.9985898438e+003;4.0235898438e+003;4.0225642090e+003;4.0242307129e+003;4.0121794434e+003;4.0174357910e+003;4.0133332520e+003;4.0080769043e+003;
1.3046875000e+000;4.0479487305e+003;3.9747436523e+003;3.9732050781e+003;3.9829487305e+003;3.9738461914e+003;3.9774357910e+003;3.9861538086e+003;3.9905129395e+003;3.9893588867e+003;3.9829487305e+003;3.9717949219e+003;3.9792307129e+003;3.9760256348e+003;3.9711538086e+003;
1.3125000000e+000;4.0884614258e+003;4.0148718262e+003;4.0106411133e+003;4.0205129395e+003;4.0176923828e+003;4.0164101563e+003;4.0270512695e+003;4.0297436523e+003;4.0293588867e+003;4.0235898438e+003;4.0129487305e+003;4.0187180176e+003;4.0182050781e+003;4.0093588867e+003;
1.3203125000e+000;4.0215385742e+003;3.9569230957e+003;3.9435898438e+003;3.9600000000e+003;3.9616667480e+003;3.9689743652e+003;3.9693588867e+003;3.9646154785e+003;3.9683332520e+003;3.9657692871e+003;3.9588461914e+003;3.9589743652e+003;3.9587180176e+003;3.9501281738e+003;
1.3281250000e+000;4.0106411133e+003;3.9443588867e+003;3.9369230957e+003;3.9494870605e+003;3.9471794434e+003;3.9571794434e+003;3.9498718262e+003;3.9289743652e+003;3.9300000000e+003;3.9346154785e+003;3.9388461914e+003;3.9439743652e+003;3.9429487305e+003;3.9374357910e+003;
1.3359375000e+000;4.0023076172e+003;3.9337180176e+003;3.9291025391e+003;3.9397436523e+003;3.9369230957e+003;3.9450000000e+003;3.9360256348e+003;3.9144870605e+003;3.9150000000e+003;3.9207692871e+003;3.9252563477e+003;3.9360256348e+003;3.9301281738e+003;3.9282050781e+003;
1.3437500000e+000;3.9801281738e+003;3.9125642090e+003;3.9069230957e+003;3.9176923828e+003;3.9119230957e+003;3.9188461914e+003;3.9064101563e+003;3.8820512695e+003;3.8835898438e+003;3.8976923828e+003;3.9024357910e+003;3.9147436523e+003;3.9066667480e+003;3.9093588867e+003;
1.3515625000e+000;3.9861538086e+003;3.9189743652e+003;3.9146154785e+003;3.9246154785e+003;3.9160256348e+003;3.9235898438e+003;3.9105129395e+003;3.8880769043e+003;3.8884614258e+003;3.9065385742e+003;3.9124357910e+003;3.9232050781e+003;3.9155129395e+003;3.9189743652e+003;
1.3593750000e+000;3.9941025391e+003;3.9237180176e+003;3.9225642090e+003;3.9320512695e+003;3.9202563477e+003;3.9260256348e+003;3.9125642090e+003;3.8950000000e+003;3.8947436523e+003;3.9137180176e+003;3.9201281738e+003;3.9312819824e+003;3.9217949219e+003;3.9262819824e+003;
1.3671875000e+000;4.0229487305e+003;3.9533332520e+003;3.9484614258e+003;3.9589743652e+003;3.9494870605e+003;3.9496154785e+003;3.9365385742e+003;3.9256411133e+003;3.9271794434e+003;3.9447436523e+003;3.9478205566e+003;3.9571794434e+003;3.9501281738e+003;3.9517949219e+003;
1.3750000000e+000;4.0389743652e+003;3.9802563477e+003;3.9669230957e+003;3.9794870605e+003;3.9719230957e+003;3.9620512695e+003;3.9515385742e+003;3.9721794434e+003;3.9764101563e+003;3.9906411133e+003;3.9766667480e+003;3.9783332520e+003;3.9820512695e+003;3.9688461914e+003;
1.3828125000e+000;4.0024357910e+003;3.9439743652e+003;3.9333332520e+003;3.9456411133e+003;3.9362819824e+003;3.9283332520e+003;3.9215385742e+003;3.9429487305e+003;3.9471794434e+003;3.9570512695e+003;3.9425642090e+003;3.9434614258e+003;3.9478205566e+003;3.9334614258e+003;
1.3906250000e+000;4.0269230957e+003;3.9703845215e+003;3.9579487305e+003;3.9674357910e+003;3.9639743652e+003;3.9525642090e+003;3.9562819824e+003;3.9770512695e+003;3.9810256348e+003;3.9826923828e+003;3.9696154785e+003;3.9676923828e+003;3.9716667480e+003;3.9603845215e+003;
1.3984375000e+000;4.0629487305e+003;4.0097436523e+003;3.9938461914e+003;4.0023076172e+003;4.0028205566e+003;3.9888461914e+003;3.9950000000e+003;4.0211538086e+003;4.0235898438e+003;4.0237180176e+003;4.0087180176e+003;4.0052563477e+003;4.0084614258e+003;3.9988461914e+003;
1.4062500000e+000;4.0355129395e+003;3.9837180176e+003;3.9682050781e+003;3.9821794434e+003;3.9816667480e+003;3.9715385742e+003;3.9734614258e+003;4.0000000000e+003;3.9992307129e+003;3.9978205566e+003;3.9751281738e+003;3.9712819824e+003;3.9787180176e+003;3.9665385742e+003;
1.4140625000e+000;4.0317949219e+003;3.9789743652e+003;3.9656411133e+003;3.9789743652e+003;3.9803845215e+003;3.9719230957e+003;3.9717949219e+003;3.9919230957e+003;3.9912819824e+003;3.9910256348e+003;3.9669230957e+003;3.9646154785e+003;3.9732050781e+003;3.9607692871e+003;
1.4218750000e+000;4.0382050781e+003;3.9847436523e+003;3.9746154785e+003;3.9852563477e+003;3.9889743652e+003;3.9837180176e+003;3.9825642090e+003;3.9970512695e+003;3.9950000000e+003;3.9969230957e+003;3.9720512695e+003;3.9724357910e+003;3.9792307129e+003;3.9687180176e+003;
1.4296875000e+000;4.2085898438e+003;4.1626923828e+003;4.1469228516e+003;4.1519228516e+003;4.1661538086e+003;4.1592309570e+003;4.1643588867e+003;4.1587177734e+003;4.1546152344e+003;4.1743588867e+003;4.1553847656e+003;4.1512822266e+003;4.1569228516e+003;4.1485898438e+003;
1.4375000000e+000;4.2042309570e+003;4.1610258789e+003;4.1488461914e+003;4.1498715820e+003;4.1639741211e+003;4.1578203125e+003;4.1582050781e+003;4.1511538086e+003;4.1483334961e+003;4.1716665039e+003;4.1517949219e+003;4.1510258789e+003;4.1538461914e+003;4.1471796875e+003;
1.4453125000e+000;4.2051284180e+003;4.1611538086e+003;4.1547436523e+003;4.1438461914e+003;4.1587177734e+003;4.1544873047e+003;4.1535898438e+003;4.1326923828e+003;4.1271796875e+003;4.1544873047e+003;4.1452563477e+003;4.1555126953e+003;4.1525639648e+003;4.1515385742e+003;
1.4531250000e+000;4.2383334961e+003;4.1962822266e+003;4.1880771484e+003;4.1756411133e+003;4.1901284180e+003;4.1839741211e+003;4.1861538086e+003;4.1662822266e+003;4.1598715820e+003;4.1902563477e+003;4.1816665039e+003;4.1915385742e+003;4.1873076172e+003;4.1885898438e+003;
1.4609375000e+000;4.2437177734e+003;4.2084614258e+003;4.2003847656e+003;4.1898715820e+003;4.2007690430e+003;4.1933334961e+003;4.1957690430e+003;4.1801284180e+003;4.1716665039e+003;4.2060258789e+003;4.1979487305e+003;4.2048715820e+003;4.1985898438e+003;4.2023076172e+003;
1.4687500000e+000;4.3215385742e+003;4.2973076172e+003;4.2858974609e+003;4.2770512695e+003;4.2900000000e+003;4.2610258789e+003;4.2596152344e+003;4.2634614258e+003;4.2616665039e+003;4.3003847656e+003;4.2873076172e+003;4.2946152344e+003;4.2902563477e+003;4.2853847656e+003;
1.4765625000e+000;4.2828203125e+003;4.2611538086e+003;4.2511538086e+003;4.2435898438e+003;4.2520512695e+003;4.2257690430e+003;4.2234614258e+003;4.2326923828e+003;4.2338461914e+003;4.2711538086e+003;4.2535898438e+003;4.2630771484e+003;4.2555126953e+003;4.2521796875e+003;
1.4843750000e+000;4.2415385742e+003;4.2279487305e+003;4.2123076172e+003;4.2089741211e+003;4.2171796875e+003;4.1900000000e+003;4.1910258789e+003;4.2055126953e+003;4.2120512695e+003;4.2442309570e+003;4.2230771484e+003;4.2279487305e+003;4.2239741211e+003;4.2198715820e+003;
1.4921875000e+000;4.2538461914e+003;4.2443588867e+003;4.2243588867e+003;4.2220512695e+003;4.2323076172e+003;4.2020512695e+003;4.2056411133e+003;4.2235898438e+003;4.2321796875e+003;4.2624360352e+003;4.2403847656e+003;4.2411538086e+003;4.2416665039e+003;4.2351284180e+003;
1.5000000000e+000;4.1988461914e+003;4.1924360352e+003;4.1737177734e+003;4.1730771484e+003;4.1796152344e+003;4.1553847656e+003;4.1582050781e+003;4.1784614258e+003;4.1834614258e+003;4.2101284180e+003;4.1864101563e+003;4.1847436523e+003;4.1850000000e+003;4.1817949219e+003;
1.5078125000e+000;4.1916665039e+003;4.1860258789e+003;4.1661538086e+003;4.1673076172e+003;4.1757690430e+003;4.1506411133e+003;4.1544873047e+003;4.1739741211e+003;4.1764101563e+003;4.2028203125e+003;4.1774360352e+003;4.1747436523e+003;4.1752563477e+003;4.1737177734e+003;
1.5156250000e+000;4.1891025391e+003;4.1861538086e+003;4.1616665039e+003;4.1669228516e+003;4.1800000000e+003;4.1555126953e+003;4.1616665039e+003;4.1802563477e+003;4.1843588867e+003;4.2074360352e+003;4.1783334961e+003;4.1738461914e+003;4.1760258789e+003;4.1720512695e+003;
1.5234375000e+000;4.1651284180e+003;4.1624360352e+003;4.1376923828e+003;4.1452563477e+003;4.1575639648e+003;4.1398715820e+003;4.1448715820e+003;4.1596152344e+003;4.1664101563e+003;4.1858974609e+003;4.1566665039e+003;4.1524360352e+003;4.1553847656e+003;4.1485898438e+003;
1.5312500000e+000;4.1296152344e+003;4.1228203125e+003;4.1051284180e+003;4.1133334961e+003;4.1298715820e+003;4.1276923828e+003;4.1260258789e+003;4.1310258789e+003;4.1394873047e+003;4.1534614258e+003;4.1216665039e+003;4.1191025391e+003;4.1226923828e+003;4.1165385742e+003;
1.5390625000e+000;4.1137177734e+003;4.1032050781e+003;4.0898718262e+003;4.0971796875e+003;4.1147436523e+003;4.1151284180e+003;4.1124360352e+003;4.1160258789e+003;4.1243588867e+003;4.1369228516e+003;4.1034614258e+003;4.1046152344e+003;4.1025639648e+003;4.1030771484e+003;
1.5468750000e+000;4.0887180176e+003;4.0734614258e+003;4.0638461914e+003;4.0711538086e+003;4.0865385742e+003;4.0894870605e+003;4.0875642090e+003;4.0856411133e+003;4.0944870605e+003;4.1061538086e+003;4.0737180176e+003;4.0789743652e+003;4.0707692871e+003;4.0784614258e+003;
1.5546875000e+000;4.0802563477e+003;4.0605129395e+003;4.0526923828e+003;4.0603845215e+003;4.0719230957e+003;4.0756411133e+003;4.0756411133e+003;4.0652563477e+003;4.0744870605e+003;4.0874357910e+003;4.0597436523e+003;4.0660256348e+003;4.0553845215e+003;4.0674357910e+003;
1.5625000000e+000;4.1592309570e+003;4.1347436523e+003;4.1334614258e+003;4.1343588867e+003;4.1391025391e+003;4.1341025391e+003;4.1323076172e+003;4.1151284180e+003;4.1080771484e+003;4.1408974609e+003;4.1328203125e+003;4.1380771484e+003;4.1307690430e+003;4.1370512695e+003;
1.5703125000e+000;4.1553847656e+003;4.1317949219e+003;4.1301284180e+003;4.1305126953e+003;4.1350000000e+003;4.1288461914e+003;4.1278203125e+003;4.1074360352e+003;4.0983334961e+003;4.1308974609e+003;4.1246152344e+003;4.1330771484e+003;4.1256411133e+003;4.1308974609e+003;
1.5781250000e+000;4.2071796875e+003;4.1925639648e+003;4.1791025391e+003;4.1788461914e+003;4.1832050781e+003;4.1674360352e+003;4.1700000000e+003;4.1564101563e+003;4.1534614258e+003;4.1879487305e+003;4.1819228516e+003;4.1832050781e+003;4.1816665039e+003;4.1876923828e+003;
1.5859375000e+000;4.1555126953e+003;4.1423076172e+003;4.1347436523e+003;4.1320512695e+003;4.1344873047e+003;4.1135898438e+003;4.1210258789e+003;4.1196152344e+003;4.1155126953e+003;4.1466665039e+003;4.1417949219e+003;4.1435898438e+003;4.1400000000e+003;4.1406411133e+003;
1.5937500000e+000;4.1905126953e+003;4.1776923828e+003;4.1724360352e+003;4.1662822266e+003;4.1712822266e+003;4.1448715820e+003;4.1555126953e+003;4.1571796875e+003;4.1555126953e+003;4.1860258789e+003;4.1779487305e+003;4.1793588867e+003;4.1779487305e+003;4.1751284180e+003;
1.6015625000e+000;4.2252563477e+003;4.2133334961e+003;4.2153847656e+003;4.2071796875e+003;4.2073076172e+003;4.1833334961e+003;4.1911538086e+003;4.2046152344e+003;4.2120512695e+003;4.2364101563e+003;4.2201284180e+003;4.2166665039e+003;4.2166665039e+003;4.2170512695e+003;
1.6093750000e+000;4.1879487305e+003;4.1910258789e+003;4.1751284180e+003;4.1805126953e+003;4.1871796875e+003;4.1667949219e+003;4.1703847656e+003;4.1823076172e+003;4.1930771484e+003;4.2134614258e+003;4.1915385742e+003;4.1851284180e+003;4.1858974609e+003;4.1867949219e+003;
1.6171875000e+000;4.1547436523e+003;4.1594873047e+003;4.1412822266e+003;4.1506411133e+003;4.1579487305e+003;4.1417949219e+003;4.1444873047e+003;4.1516665039e+003;4.1637177734e+003;4.1810258789e+003;4.1579487305e+003;4.1519228516e+003;4.1515385742e+003;4.1538461914e+003;
1.6250000000e+000;4.1284614258e+003;4.1315385742e+003;4.1135898438e+003;4.1256411133e+003;4.1317949219e+003;4.1203847656e+003;4.1228203125e+003;4.1247436523e+003;4.1367949219e+003;4.1503847656e+003;4.1278203125e+003;4.1214101563e+003;4.1202563477e+003;4.1244873047e+003;
1.6328125000e+000;4.1273076172e+003;4.1279487305e+003;4.1108974609e+003;4.1238461914e+003;4.1291025391e+003;4.1201284180e+003;4.1226923828e+003;4.1229487305e+003;4.1329487305e+003;4.1446152344e+003;4.1224360352e+003;4.1148715820e+003;4.1141025391e+003;4.1198715820e+003;
1.6406250000e+000;4.0751281738e+003;4.0734614258e+003;4.0615385742e+003;4.0738461914e+003;4.0755129395e+003;4.0767949219e+003;4.0755129395e+003;4.0743588867e+003;4.0748718262e+003;4.0891025391e+003;4.0667949219e+003;4.0619230957e+003;4.0666667480e+003;4.0726923828e+003;
1.6484375000e+000;4.0819230957e+003;4.0814101563e+003;4.0662819824e+003;4.0791025391e+003;4.0841025391e+003;4.0839743652e+003;4.0830769043e+003;4.0730769043e+003;4.0765385742e+003;4.0879487305e+003;4.0707692871e+003;4.0657692871e+003;4.0710256348e+003;4.0788461914e+003;
1.6562500000e+000;4.1458974609e+003;4.1517949219e+003;4.1353847656e+003;4.1411538086e+003;4.1514101563e+003;4.1465385742e+003;4.1394873047e+003;4.1328203125e+003;4.1360258789e+003;4.1532050781e+003;4.1360258789e+003;4.1326923828e+003;4.1333334961e+003;4.1462822266e+003;
1.6640625000e+000;4.0917949219e+003;4.0903845215e+003;4.0746154785e+003;4.0810256348e+003;4.0908974609e+003;4.0873076172e+003;4.0806411133e+003;4.0621794434e+003;4.0603845215e+003;4.0839743652e+003;4.0730769043e+003;4.0696154785e+003;4.0756411133e+003;4.0816667480e+003;
1.6718750000e+000;4.1130771484e+003;4.1091025391e+003;4.0939743652e+003;4.0982050781e+003;4.1083334961e+003;4.1025639648e+003;4.0962822266e+003;4.0766667480e+003;4.0743588867e+003;4.1008974609e+003;4.0934614258e+003;4.0898718262e+003;4.0950000000e+003;4.1026923828e+003;
1.6796875000e+000;4.1806411133e+003;4.1730771484e+003;4.1669228516e+003;4.1615385742e+003;4.1671796875e+003;4.1491025391e+003;4.1465385742e+003;4.1389741211e+003;4.1312822266e+003;4.1689741211e+003;4.1646152344e+003;4.1625639648e+003;4.1629487305e+003;4.1747436523e+003;
1.6875000000e+000;4.2223076172e+003;4.2170512695e+003;4.2080771484e+003;4.2011538086e+003;4.2097436523e+003;4.1830771484e+003;4.1848715820e+003;4.1832050781e+003;4.1764101563e+003;4.2153847656e+003;4.2093588867e+003;4.2062822266e+003;4.2085898438e+003;4.2178203125e+003;
1.6953125000e+000;4.2106411133e+003;4.2144873047e+003;4.1974360352e+003;4.1914101563e+003;4.2043588867e+003;4.1784614258e+003;4.1853847656e+003;4.1973076172e+003;4.1934614258e+003;4.2228203125e+003;4.2130771484e+003;4.2128203125e+003;4.2051284180e+003;4.2178203125e+003;
1.7031250000e+000;4.1996152344e+003;4.2062822266e+003;4.1878203125e+003;4.1826923828e+003;4.1985898438e+003;4.1743588867e+003;4.1817949219e+003;4.1942309570e+003;4.1912822266e+003;4.2173076172e+003;4.2061538086e+003;4.2050000000e+003;4.1974360352e+003;4.2094873047e+003;
1.7109375000e+000;4.2366665039e+003;4.2483334961e+003;4.2264101563e+003;4.2228203125e+003;4.2466665039e+003;4.2182050781e+003;4.2289741211e+003;4.2450000000e+003;4.2455126953e+003;4.2698715820e+003;4.2494873047e+003;4.2442309570e+003;4.2446152344e+003;4.2484614258e+003;
1.7187500000e+000;4.2350000000e+003;4.2471796875e+003;4.2256411133e+003;4.2234614258e+003;4.2476923828e+003;4.2211538086e+003;4.2314101563e+003;4.2494873047e+003;4.2503847656e+003;4.2729487305e+003;4.2488461914e+003;4.2433334961e+003;4.2447436523e+003;4.2464101563e+003;
1.7265625000e+000;4.2607690430e+003;4.2744873047e+003;4.2505126953e+003;4.2489741211e+003;4.2811538086e+003;4.2630771484e+003;4.2682050781e+003;4.2821796875e+003;4.2812822266e+003;4.2925639648e+003;4.2738461914e+003;4.2644873047e+003;4.2648715820e+003;4.2633334961e+003;
1.7343750000e+000;4.3078203125e+003;4.3250000000e+003;4.2994873047e+003;4.2952563477e+003;4.3347436523e+003;4.3143588867e+003;4.3188461914e+003;4.3314101563e+003;4.3321796875e+003;4.3433334961e+003;4.3243588867e+003;4.3134614258e+003;4.3143588867e+003;4.3094873047e+003;
1.7421875000e+000;4.3406411133e+003;4.3676923828e+003;4.3421796875e+003;4.3376923828e+003;4.3841025391e+003;4.3633334961e+003;4.3660258789e+003;4.3697436523e+003;4.3734614258e+003;4.3894873047e+003;4.3639741211e+003;4.3552563477e+003;4.3573076172e+003;4.3465385742e+003;
1.7500000000e+000;4.3550000000e+003;4.3873076172e+003;4.3602563477e+003;4.3567949219e+003;4.4051284180e+003;4.3839741211e+003;4.3873076172e+003;4.3846152344e+003;4.3883334961e+003;4.4078203125e+003;4.3801284180e+003;4.3712822266e+003;4.3757690430e+003;4.3623076172e+003;
1.7578125000e+000;4.3921796875e+003;4.4283334961e+003;4.3989741211e+003;4.3938461914e+003;4.4457690430e+003;4.4221796875e+003;4.4269228516e+003;4.4215385742e+003;4.4244873047e+003;4.4478203125e+003;4.4192309570e+003;4.4083334961e+003;4.4153847656e+003;4.3996152344e+003;
1.7656250000e+000;4.4321796875e+003;4.4700000000e+003;4.4398715820e+003;4.4300000000e+003;4.4867949219e+003;4.4596152344e+003;4.4653847656e+003;4.4611538086e+003;4.4635898438e+003;4.4894873047e+003;4.4614101563e+003;4.4485898438e+003;4.4561538086e+003;4.4396152344e+003;
1.7734375000e+000;4.4685898438e+003;4.5165385742e+003;4.4855126953e+003;4.4703847656e+003;4.5353847656e+003;4.4976923828e+003;4.5012822266e+003;4.4819228516e+003;4.4837177734e+003;4.5178203125e+003;4.5014101563e+003;4.4932050781e+003;4.4925639648e+003;4.4879487305e+003;
1.7812500000e+000;4.4591025391e+003;4.5248715820e+003;4.4920512695e+003;4.4692309570e+003;4.5280771484e+003;4.4900000000e+003;4.4885898438e+003;4.4864101563e+003;4.4739741211e+003;4.5192309570e+003;4.5015385742e+003;4.5003847656e+003;4.4973076172e+003;4.4914101563e+003;
1.7890625000e+000;4.4428203125e+003;4.5083334961e+003;4.4735898438e+003;4.4510258789e+003;4.5106411133e+003;4.4696152344e+003;4.4703847656e+003;4.4682050781e+003;4.4535898438e+003;4.4973076172e+003;4.4829487305e+003;4.4826923828e+003;4.4800000000e+003;4.4743588867e+003;
1.7968750000e+000;4.4396152344e+003;4.5107690430e+003;4.4735898438e+003;4.4530771484e+003;4.5060258789e+003;4.4644873047e+003;4.4670512695e+003;4.4712822266e+003;4.4567949219e+003;4.4976923828e+003;4.4834614258e+003;4.4847436523e+003;4.4793588867e+003;4.4765385742e+003;
1.8046875000e+000;4.4239741211e+003;4.4982050781e+003;4.4665385742e+003;4.4394873047e+003;4.4923076172e+003;4.4544873047e+003;4.4566665039e+003;4.4730771484e+003;4.4700000000e+003;4.4993588867e+003;4.4762822266e+003;4.4703847656e+003;4.4702563477e+003;4.4633334961e+003;
1.8125000000e+000;4.4110258789e+003;4.4832050781e+003;4.4517949219e+003;4.4251284180e+003;4.4791025391e+003;4.4408974609e+003;4.4410258789e+003;4.4600000000e+003;4.4620512695e+003;4.4884614258e+003;4.4633334961e+003;4.4561538086e+003;4.4569228516e+003;4.4496152344e+003;
1.8203125000e+000;4.3966665039e+003;4.4678203125e+003;4.4320512695e+003;4.4142309570e+003;4.4628203125e+003;4.4334614258e+003;4.4350000000e+003;4.4466665039e+003;4.4493588867e+003;4.4667949219e+003;4.4419228516e+003;4.4356411133e+003;4.4373076172e+003;4.4298715820e+003;
1.8281250000e+000;4.4310258789e+003;4.5032050781e+003;4.4666665039e+003;4.4473076172e+003;4.4998715820e+003;4.4707690430e+003;4.4728203125e+003;4.4861538086e+003;4.4848715820e+003;4.5038461914e+003;4.4773076172e+003;4.4712822266e+003;4.4739741211e+003;4.4655126953e+003;
1.8359375000e+000;4.4069228516e+003;4.4778203125e+003;4.4480771484e+003;4.4237177734e+003;4.4807690430e+003;4.4582050781e+003;4.4560258789e+003;4.4710258789e+003;4.4669228516e+003;4.4892309570e+003;4.4601284180e+003;4.4575639648e+003;4.4551284180e+003;4.4478203125e+003;
1.8437500000e+000;4.3667949219e+003;4.4361538086e+003;4.4102563477e+003;4.3852563477e+003;4.4414101563e+003;4.4232050781e+003;4.4201284180e+003;4.4289741211e+003;4.4287177734e+003;4.4480771484e+003;4.4212822266e+003;4.4196152344e+003;4.4135898438e+003;4.4082050781e+003;
1.8515625000e+000;4.3884614258e+003;4.4626923828e+003;4.4361538086e+003;4.4117949219e+003;4.4710258789e+003;4.4558974609e+003;4.4505126953e+003;4.4523076172e+003;4.4585898438e+003;4.4703847656e+003;4.4457690430e+003;4.4420512695e+003;4.4316665039e+003;4.4319228516e+003;
1.8593750000e+000;4.3955126953e+003;4.4707690430e+003;4.4450000000e+003;4.4219228516e+003;4.4815385742e+003;4.4689741211e+003;4.4619228516e+003;4.4634614258e+003;4.4667949219e+003;4.4803847656e+003;4.4548715820e+003;4.4511538086e+003;4.4416665039e+003;4.4419228516e+003;
1.8671875000e+000;4.4374360352e+003;4.5100000000e+003;4.4867949219e+003;4.4638461914e+003;4.5261538086e+003;4.5093588867e+003;4.5060258789e+003;4.5011538086e+003;4.5005126953e+003;4.5197436523e+003;4.4979487305e+003;4.4929487305e+003;4.4902563477e+003;4.4860258789e+003;
1.8750000000e+000;4.4814101563e+003;4.5538461914e+003;4.5314101563e+003;4.5053847656e+003;4.5702563477e+003;4.5475639648e+003;4.5476923828e+003;4.5433334961e+003;4.5410258789e+003;4.5641025391e+003;4.5437177734e+003;4.5384614258e+003;4.5370512695e+003;4.5317949219e+003;
1.8828125000e+000;4.5047436523e+003;4.5784614258e+003;4.5578203125e+003;4.5276923828e+003;4.5933334961e+003;4.5684614258e+003;4.5700000000e+003;4.5696152344e+003;4.5637177734e+003;4.5901284180e+003;4.5694873047e+003;4.5656411133e+003;4.5619228516e+003;4.5580771484e+003;
1.8906250000e+000;4.4900000000e+003;4.5651284180e+003;4.5474360352e+003;4.5142309570e+003;4.5787177734e+003;4.5566665039e+003;4.5570512695e+003;4.5601284180e+003;4.5485898438e+003;4.5770512695e+003;4.5562822266e+003;4.5546152344e+003;4.5470512695e+003;4.5453847656e+003;
1.8984375000e+000;4.4471796875e+003;4.5224360352e+003;4.5041025391e+003;4.4721796875e+003;4.5297436523e+003;4.5097436523e+003;4.5058974609e+003;4.5042309570e+003;4.4871796875e+003;4.5239741211e+003;4.5125639648e+003;4.5078203125e+003;4.5048715820e+003;4.5039741211e+003;
1.9062500000e+000;4.4496152344e+003;4.5271796875e+003;4.5105126953e+003;4.4783334961e+003;4.5266665039e+003;4.5079487305e+003;4.5111538086e+003;4.5151284180e+003;4.4942309570e+003;4.5285898438e+003;4.5171796875e+003;4.5179487305e+003;4.5088461914e+003;4.5161538086e+003;
1.9140625000e+000;4.4625639648e+003;4.5400000000e+003;4.5241025391e+003;4.4928203125e+003;4.5412822266e+003;4.5219228516e+003;4.5221796875e+003;4.5337177734e+003;4.5151284180e+003;4.5471796875e+003;4.5343588867e+003;4.5319228516e+003;4.5239741211e+003;4.5306411133e+003;
1.9218750000e+000;4.4280771484e+003;4.5019228516e+003;4.4892309570e+003;4.4620512695e+003;4.5048715820e+003;4.4905126953e+003;4.4864101563e+003;4.5055126953e+003;4.4944873047e+003;4.5214101563e+003;4.5079487305e+003;4.5017949219e+003;4.4932050781e+003;4.4998715820e+003;
1.9296875000e+000;4.4198715820e+003;4.4935898438e+003;4.4810258789e+003;4.4534614258e+003;4.4956411133e+003;4.4826923828e+003;4.4802563477e+003;4.4978203125e+003;4.4900000000e+003;4.5153847656e+003;4.5016665039e+003;4.4958974609e+003;4.4876923828e+003;4.4939741211e+003;
1.9375000000e+000;4.4178203125e+003;4.4974360352e+003;4.4905126953e+003;4.4560258789e+003;4.5003847656e+003;4.4889741211e+003;4.4879487305e+003;4.5043588867e+003;4.5042309570e+003;4.5247436523e+003;4.5023076172e+003;4.5010258789e+003;4.5002563477e+003;4.5014101563e+003;
1.9453125000e+000;4.3942309570e+003;4.4746152344e+003;4.4702563477e+003;4.4373076172e+003;4.4788461914e+003;4.4693588867e+003;4.4660258789e+003;4.4819228516e+003;4.4834614258e+003;4.5008974609e+003;4.4776923828e+003;4.4755126953e+003;4.4776923828e+003;4.4766665039e+003;
1.9531250000e+000;4.4053847656e+003;4.4892309570e+003;4.4764101563e+003;4.4485898438e+003;4.4915385742e+003;4.4838461914e+003;4.4789741211e+003;4.4944873047e+003;4.4984614258e+003;4.5150000000e+003;4.4961538086e+003;4.4829487305e+003;4.4874360352e+003;4.4873076172e+003;
1.9609375000e+000;4.3875639648e+003;4.4694873047e+003;4.4575639648e+003;4.4285898438e+003;4.4739741211e+003;4.4706411133e+003;4.4651284180e+003;4.4773076172e+003;4.4814101563e+003;4.4979487305e+003;4.4806411133e+003;4.4669228516e+003;4.4696152344e+003;4.4714101563e+003;
1.9687500000e+000;4.3728203125e+003;4.4493588867e+003;4.4402563477e+003;4.4098715820e+003;4.4606411133e+003;4.4620512695e+003;4.4557690430e+003;4.4533334961e+003;4.4566665039e+003;4.4742309570e+003;4.4587177734e+003;4.4464101563e+003;4.4516665039e+003;4.4503847656e+003;
1.9765625000e+000;4.4166665039e+003;4.4938461914e+003;4.4828203125e+003;4.4524360352e+003;4.5066665039e+003;4.5043588867e+003;4.4982050781e+003;4.4930771484e+003;4.4956411133e+003;4.5165385742e+003;4.4997436523e+003;4.4862822266e+003;4.4950000000e+003;4.4903847656e+003;
1.9843750000e+000;4.4658974609e+003;4.5458974609e+003;4.5334614258e+003;4.5029487305e+003;4.5585898438e+003;4.5517949219e+003;4.5453847656e+003;4.5426923828e+003;4.5443588867e+003;4.5692309570e+003;4.5503847656e+003;4.5355126953e+003;4.5452563477e+003;4.5397436523e+003;
1.9921875000e+000;4.5323076172e+003;4.6257690430e+003;4.6092309570e+003;4.5726923828e+003;4.6329487305e+003;4.6115385742e+003;4.6132050781e+003;4.6017949219e+003;4.5975639648e+003;4.6311538086e+003;4.6203847656e+003;4.6115385742e+003;4.6114101563e+003;4.6174360352e+003;
2.0000000000e+000;4.5142309570e+003;4.6106411133e+003;4.5939741211e+003;4.5575639648e+003;4.6183334961e+003;4.5979487305e+003;4.5974360352e+003;4.5898715820e+003;4.5823076172e+003;4.6162822266e+003;4.6065385742e+003;4.5988461914e+003;4.5976923828e+003;4.6032050781e+003;
2.0078125000e+000;4.4337177734e+003;4.5332050781e+003;4.5250000000e+003;4.4856411133e+003;4.5408974609e+003;4.5266665039e+003;4.5226923828e+003;4.5220512695e+003;4.5042309570e+003;4.5324360352e+003;4.5303847656e+003;4.5235898438e+003;4.5251284180e+003;4.5302563477e+003;
2.0156250000e+000;4.4046152344e+003;4.4994873047e+003;4.4957690430e+003;4.4556411133e+003;4.5053847656e+003;4.4884614258e+003;4.4908974609e+003;4.4952563477e+003;4.4814101563e+003;4.5067949219e+003;4.5028203125e+003;4.4950000000e+003;4.4997436523e+003;4.5046152344e+003;
2.0234375000e+000;4.3814101563e+003;4.4769228516e+003;4.4712822266e+003;4.4348715820e+003;4.4844873047e+003;4.4680771484e+003;4.4703847656e+003;4.4748715820e+003;4.4650000000e+003;4.4852563477e+003;4.4825639648e+003;4.4733334961e+003;4.4796152344e+003;4.4826923828e+003;
2.0312500000e+000;4.3707690430e+003;4.4710258789e+003;4.4591025391e+003;4.4291025391e+003;4.4773076172e+003;4.4647436523e+003;4.4615385742e+003;4.4848715820e+003;4.4806411133e+003;4.4926923828e+003;4.4789741211e+003;4.4697436523e+003;4.4729487305e+003;4.4743588867e+003;
2.0390625000e+000;4.3489741211e+003;4.4384614258e+003;4.4264101563e+003;4.4025639648e+003;4.4485898438e+003;4.4414101563e+003;4.4400000000e+003;4.4564101563e+003;4.4573076172e+003;4.4634614258e+003;4.4484614258e+003;4.4303847656e+003;4.4393588867e+003;4.4387177734e+003;
2.0468750000e+000;4.3821796875e+003;4.4725639648e+003;4.4582050781e+003;4.4342309570e+003;4.4833334961e+003;4.4724360352e+003;4.4719228516e+003;4.4866665039e+003;4.4917949219e+003;4.4976923828e+003;4.4830771484e+003;4.4632050781e+003;4.4733334961e+003;4.4712822266e+003;
2.0546875000e+000;4.4021796875e+003;4.4953847656e+003;4.4792309570e+003;4.4542309570e+003;4.5041025391e+003;4.4919228516e+003;4.4894873047e+003;4.5053847656e+003;4.5132050781e+003;4.5203847656e+003;4.5037177734e+003;4.4861538086e+003;4.4935898438e+003;4.4923076172e+003;
2.0625000000e+000;4.4179487305e+003;4.5139741211e+003;4.4933334961e+003;4.4664101563e+003;4.5167949219e+003;4.5056411133e+003;4.4973076172e+003;4.5120512695e+003;4.5220512695e+003;4.5310258789e+003;4.5110258789e+003;4.4983334961e+003;4.5006411133e+003;4.5047436523e+003;
2.0703125000e+000;4.4552563477e+003;4.5506411133e+003;4.5274360352e+003;4.4980771484e+003;4.5528203125e+003;4.5392309570e+003;4.5311538086e+003;4.5442309570e+003;4.5551284180e+003;4.5641025391e+003;4.5443588867e+003;4.5301284180e+003;4.5348715820e+003;4.5398715820e+003;
2.0781250000e+000;4.4847436523e+003;4.5756411133e+003;4.5641025391e+003;4.5225639648e+003;4.5843588867e+003;4.5708974609e+003;4.5703847656e+003;4.5793588867e+003;4.5917949219e+003;4.6014101563e+003;4.5771796875e+003;4.5647436523e+003;4.5721796875e+003;4.5744873047e+003;
2.0859375000e+000;4.4434614258e+003;4.5338461914e+003;4.5267949219e+003;4.4844873047e+003;4.5434614258e+003;4.5338461914e+003;4.5342309570e+003;4.5378203125e+003;4.5498715820e+003;4.5600000000e+003;4.5343588867e+003;4.5243588867e+003;4.5296152344e+003;4.5323076172e+003;
2.0937500000e+000;4.4176923828e+003;4.5108974609e+003;4.5006411133e+003;4.4605126953e+003;4.5173076172e+003;4.5091025391e+003;4.5083334961e+003;4.5053847656e+003;4.5165385742e+003;4.5262822266e+003;4.5037177734e+003;4.4925639648e+003;4.4971796875e+003;4.5003847656e+003;
2.1015625000e+000;4.4129487305e+003;4.5055126953e+003;4.4939741211e+003;4.4551284180e+003;4.5106411133e+003;4.5044873047e+003;4.5023076172e+003;4.4992309570e+003;4.5082050781e+003;4.5169228516e+003;4.4976923828e+003;4.4856411133e+003;4.4898715820e+003;4.4941025391e+003;
2.1093750000e+000;4.3946152344e+003;4.4829487305e+003;4.4735898438e+003;4.4362822266e+003;4.4892309570e+003;4.4871796875e+003;4.4846152344e+003;4.4802563477e+003;4.4850000000e+003;4.4929487305e+003;4.4775639648e+003;4.4661538086e+003;4.4694873047e+003;4.4751284180e+003;
2.1171875000e+000;4.3469228516e+003;4.4212822266e+003;4.4180771484e+003;4.3798715820e+003;4.4275639648e+003;4.4215385742e+003;4.4205126953e+003;4.4225639648e+003;4.4174360352e+003;4.4301284180e+003;4.4238461914e+003;4.4201284180e+003;4.4164101563e+003;4.4220512695e+003;
2.1250000000e+000;4.3103847656e+003;4.3844873047e+003;4.3805126953e+003;4.3432050781e+003;4.3875639648e+003;4.3839741211e+003;4.3810258789e+003;4.3830771484e+003;4.3791025391e+003;4.3883334961e+003;4.3847436523e+003;4.3794873047e+003;4.3774360352e+003;4.3830771484e+003;
2.1328125000e+000;4.2907690430e+003;4.3552563477e+003;4.3511538086e+003;4.3194873047e+003;4.3626923828e+003;4.3567949219e+003;4.3512822266e+003;4.3553847656e+003;4.3589741211e+003;4.3607690430e+003;4.3569228516e+003;4.3403847656e+003;4.3512822266e+003;4.3525639648e+003;
2.1406250000e+000;4.2400000000e+003;4.2956411133e+003;4.2939741211e+003;4.2669228516e+003;4.3067949219e+003;4.3050000000e+003;4.2984614258e+003;4.3014101563e+003;4.3157690430e+003;4.3066665039e+003;4.3065385742e+003;4.2944873047e+003;4.2992309570e+003;4.3038461914e+003;
2.1484375000e+000;4.2691025391e+003;4.3262822266e+003;4.3210258789e+003;4.2937177734e+003;4.3351284180e+003;4.3303847656e+003;4.3247436523e+003;4.3312822266e+003;4.3475639648e+003;4.3375639648e+003;4.3375639648e+003;4.3241025391e+003;4.3314101563e+003;4.3350000000e+003;
2.1562500000e+000;4.2447436523e+003;4.2951284180e+003;4.2993588867e+003;4.2719228516e+003;4.3066665039e+003;4.3074360352e+003;4.2953847656e+003;4.3114101563e+003;4.3288461914e+003;4.3179487305e+003;4.3141025391e+003;4.3002563477e+003;4.3058974609e+003;4.3085898438e+003;
2.1640625000e+000;4.2285898438e+003;4.2725639648e+003;4.2814101563e+003;4.2539741211e+003;4.2867949219e+003;4.2896152344e+003;4.2782050781e+003;4.2893588867e+003;4.3078203125e+003;4.2957690430e+003;4.2923076172e+003;4.2796152344e+003;4.2838461914e+003;4.2873076172e+003;
2.1718750000e+000;4.2405126953e+003;4.2765385742e+003;4.2861538086e+003;4.2582050781e+003;4.2905126953e+003;4.2953847656e+003;4.2875639648e+003;4.2919228516e+003;4.3096152344e+003;4.3001284180e+003;4.2946152344e+003;4.2837177734e+003;4.2883334961e+003;4.2937177734e+003;
2.1796875000e+000;4.2257690430e+003;4.2600000000e+003;4.2682050781e+003;4.2425639648e+003;4.2733334961e+003;4.2824360352e+003;4.2746152344e+003;4.2767949219e+003;4.2914101563e+003;4.2830771484e+003;4.2767949219e+003;4.2675639648e+003;4.2723076172e+003;4.2787177734e+003;
2.1875000000e+000;4.1970512695e+003;4.2314101563e+003;4.2323076172e+003;4.2196152344e+003;4.2500000000e+003;4.2626923828e+003;4.2526923828e+003;4.2494873047e+003;4.2574360352e+003;4.2467949219e+003;4.2457690430e+003;4.2315385742e+003;4.2408974609e+003;4.2455126953e+003;
2.1953125000e+000;4.2046152344e+003;4.2401284180e+003;4.2406411133e+003;4.2282050781e+003;4.2584614258e+003;4.2697436523e+003;4.2600000000e+003;4.2588461914e+003;4.2666665039e+003;4.2552563477e+003;4.2546152344e+003;4.2373076172e+003;4.2474360352e+003;4.2525639648e+003;
2.2031250000e+000;4.1905126953e+003;4.2262822266e+003;4.2229487305e+003;4.2079487305e+003;4.2379487305e+003;4.2520512695e+003;4.2441025391e+003;4.2350000000e+003;4.2326923828e+003;4.2214101563e+003;4.2282050781e+003;4.2147436523e+003;4.2216665039e+003;4.2316665039e+003;
2.2109375000e+000;4.2156411133e+003;4.2517949219e+003;4.2442309570e+003;4.2303847656e+003;4.2625639648e+003;4.2742309570e+003;4.2652563477e+003;4.2541025391e+003;4.2465385742e+003;4.2406411133e+003;4.2503847656e+003;4.2389741211e+003;4.2455126953e+003;4.2547436523e+003;
2.2187500000e+000;4.2171796875e+003;4.2493588867e+003;4.2442309570e+003;4.2320512695e+003;4.2616665039e+003;4.2714101563e+003;4.2587177734e+003;4.2505126953e+003;4.2353847656e+003;4.2393588867e+003;4.2524360352e+003;4.2455126953e+003;4.2469228516e+003;4.2569228516e+003;
2.2265625000e+000;4.1851284180e+003;4.2128203125e+003;4.2137177734e+003;4.2001284180e+003;4.2267949219e+003;4.2374360352e+003;4.2250000000e+003;4.2162822266e+003;4.2008974609e+003;4.2044873047e+003;4.2188461914e+003;4.2146152344e+003;4.2124360352e+003;4.2241025391e+003;
2.2343750000e+000;4.1666665039e+003;4.1906411133e+003;4.1965385742e+003;4.1801284180e+003;4.2060258789e+003;4.2162822266e+003;4.2060258789e+003;4.1958974609e+003;4.1824360352e+003;4.1833334961e+003;4.1984614258e+003;4.1956411133e+003;4.1914101563e+003;4.2041025391e+003;
2.2421875000e+000;4.0938461914e+003;4.1037177734e+003;4.1166665039e+003;4.1056411133e+003;4.1247436523e+003;4.1428203125e+003;4.1285898438e+003;4.1229487305e+003;4.1230771484e+003;4.1102563477e+003;4.1239741211e+003;4.1256411133e+003;4.1179487305e+003;4.1306411133e+003;
2.2500000000e+000;4.0983334961e+003;4.1056411133e+003;4.1174360352e+003;4.1062822266e+003;4.1260258789e+003;4.1419228516e+003;4.1283334961e+003;4.1229487305e+003;4.1250000000e+003;4.1125639648e+003;4.1266665039e+003;4.1278203125e+003;4.1223076172e+003;4.1350000000e+003;
2.2578125000e+000;4.0919230957e+003;4.0994873047e+003;4.1101284180e+003;4.1016665039e+003;4.1089741211e+003;4.1250000000e+003;4.1170512695e+003;4.1201284180e+003;4.1312822266e+003;4.1162822266e+003;4.1261538086e+003;4.1251284180e+003;4.1211538086e+003;4.1329487305e+003;
2.2656250000e+000;4.1032050781e+003;4.1084614258e+003;4.1200000000e+003;4.1103847656e+003;4.1146152344e+003;4.1315385742e+003;4.1226923828e+003;4.1301284180e+003;4.1403847656e+003;4.1239741211e+003;4.1294873047e+003;4.1252563477e+003;4.1255126953e+003;4.1369228516e+003;
2.2734375000e+000;4.0920512695e+003;4.0955129395e+003;4.1082050781e+003;4.0970512695e+003;4.1038461914e+003;4.1239741211e+003;4.1119228516e+003;4.1206411133e+003;4.1284614258e+003;4.1148715820e+003;4.1152563477e+003;4.1137177734e+003;4.1111538086e+003;4.1275639648e+003;
2.2812500000e+000;4.0533332520e+003;4.0530769043e+003;4.0603845215e+003;4.0567949219e+003;4.0665385742e+003;4.0916667480e+003;4.0778205566e+003;4.0785898438e+003;4.0887180176e+003;4.0700000000e+003;4.0683332520e+003;4.0652563477e+003;4.0674357910e+003;4.0824357910e+003;
2.2890625000e+000;4.0738461914e+003;4.0739743652e+003;4.0789743652e+003;4.0770512695e+003;4.0862819824e+003;4.1089741211e+003;4.0952563477e+003;4.0989741211e+003;4.1103847656e+003;4.0891025391e+003;4.0875642090e+003;4.0821794434e+003;4.0870512695e+003;4.0980771484e+003;
2.2968750000e+000;4.0670512695e+003;4.0687180176e+003;4.0732050781e+003;4.0724357910e+003;4.0791025391e+003;4.1032050781e+003;4.0862819824e+003;4.0926923828e+003;4.1020512695e+003;4.0817949219e+003;4.0773076172e+003;4.0753845215e+003;4.0782050781e+003;4.0862819824e+003;
2.3046875000e+000;4.0687180176e+003;4.0720512695e+003;4.0741025391e+003;4.0739743652e+003;4.0825642090e+003;4.1060258789e+003;4.0893588867e+003;4.0908974609e+003;4.0984614258e+003;4.0817949219e+003;4.0769230957e+003;4.0769230957e+003;4.0798718262e+003;4.0875642090e+003;
2.3125000000e+000;4.1671796875e+003;4.1741025391e+003;4.1706411133e+003;4.1655126953e+003;4.1806411133e+003;4.1898715820e+003;4.1803847656e+003;4.1824360352e+003;4.1829487305e+003;4.1774360352e+003;4.1762822266e+003;4.1729487305e+003;4.1796152344e+003;4.1892309570e+003;
2.3203125000e+000;4.1571796875e+003;4.1625639648e+003;4.1626923828e+003;4.1574360352e+003;4.1673076172e+003;4.1771796875e+003;4.1688461914e+003;4.1714101563e+003;4.1680771484e+003;4.1630771484e+003;4.1653847656e+003;4.1628203125e+003;4.1665385742e+003;4.1782050781e+003;
2.3281250000e+000;4.1648715820e+003;4.1734614258e+003;4.1776923828e+003;4.1719228516e+003;4.1788461914e+003;4.1858974609e+003;4.1837177734e+003;4.1724360352e+003;4.1660258789e+003;4.1657690430e+003;4.1703847656e+003;4.1769228516e+003;4.1762822266e+003;4.1866665039e+003;
2.3359375000e+000;4.1658974609e+003;4.1767949219e+003;4.1832050781e+003;4.1735898438e+003;4.1826923828e+003;4.1884614258e+003;4.1870512695e+003;4.1756411133e+003;4.1702563477e+003;4.1717949219e+003;4.1732050781e+003;4.1833334961e+003;4.1816665039e+003;4.1910258789e+003;
2.3437500000e+000;4.1132050781e+003;4.1224360352e+003;4.1302563477e+003;4.1232050781e+003;4.1278203125e+003;4.1355126953e+003;4.1342309570e+003;4.1233334961e+003;4.1202563477e+003;4.1160258789e+003;4.1183334961e+003;4.1287177734e+003;4.1258974609e+003;4.1360258789e+003;
2.3515625000e+000;4.0982050781e+003;4.1047436523e+003;4.1094873047e+003;4.1085898438e+003;4.1101284180e+003;4.1174360352e+003;4.1160258789e+003;4.1053847656e+003;4.1050000000e+003;4.0958974609e+003;4.1005126953e+003;4.1083334961e+003;4.1056411133e+003;4.1169228516e+003;
2.3593750000e+000;4.0851281738e+003;4.0889743652e+003;4.0919230957e+003;4.0957692871e+003;4.0950000000e+003;4.1030771484e+003;4.1002563477e+003;4.0915385742e+003;4.0946154785e+003;4.0811538086e+003;4.0862819824e+003;4.0937180176e+003;4.0893588867e+003;4.1023076172e+003;
2.3671875000e+000;4.0475642090e+003;4.0493588867e+003;4.0542307129e+003;4.0597436523e+003;4.0562819824e+003;4.0693588867e+003;4.0632050781e+003;4.0569230957e+003;4.0625642090e+003;4.0450000000e+003;4.0494870605e+003;4.0600000000e+003;4.0515385742e+003;4.0669230957e+003;
2.3750000000e+000;3.9582050781e+003;3.9502563477e+003;3.9569230957e+003;3.9639743652e+003;3.9514101563e+003;3.9776923828e+003;3.9717949219e+003;3.9711538086e+003;3.9765385742e+003;3.9451281738e+003;3.9528205566e+003;3.9655129395e+003;3.9594870605e+003;3.9742307129e+003;
2.3828125000e+000;3.9767949219e+003;3.9591025391e+003;3.9646154785e+003;3.9730769043e+003;3.9607692871e+003;3.9873076172e+003;3.9856411133e+003;3.9987180176e+003;3.9991025391e+003;3.9684614258e+003;3.9687180176e+003;3.9851281738e+003;3.9779487305e+003;3.9961538086e+003;
2.3906250000e+000;3.9751281738e+003;3.9535898438e+003;3.9633332520e+003;3.9680769043e+003;3.9574357910e+003;3.9839743652e+003;3.9833332520e+003;3.9935898438e+003;3.9944870605e+003;3.9650000000e+003;3.9621794434e+003;3.9773076172e+003;3.9725642090e+003;3.9885898438e+003;
2.3984375000e+000;3.9512819824e+003;3.9173076172e+003;3.9392307129e+003;3.9385898438e+003;3.9258974609e+003;3.9594870605e+003;3.9566667480e+003;3.9584614258e+003;3.9637180176e+003;3.9352563477e+003;3.9270512695e+003;3.9392307129e+003;3.9373076172e+003;3.9511538086e+003;
2.4062500000e+000;4.0071794434e+003;3.9652563477e+003;3.9891025391e+003;3.9874357910e+003;3.9785898438e+003;4.0096154785e+003;4.0050000000e+003;4.0023076172e+003;3.9967949219e+003;3.9773076172e+003;3.9766667480e+003;3.9894870605e+003;3.9929487305e+003;4.0005129395e+003;
2.4140625000e+000;3.9957692871e+003;3.9542307129e+003;3.9775642090e+003;3.9783332520e+003;3.9705129395e+003;3.9996154785e+003;3.9952563477e+003;3.9897436523e+003;3.9826923828e+003;3.9666667480e+003;3.9683332520e+003;3.9802563477e+003;3.9823076172e+003;3.9903845215e+003;
2.4218750000e+000;3.9667949219e+003;3.9279487305e+003;3.9453845215e+003;3.9521794434e+003;3.9483332520e+003;3.9748718262e+003;3.9696154785e+003;3.9516667480e+003;3.9467949219e+003;3.9347436523e+003;3.9411538086e+003;3.9498718262e+003;3.9534614258e+003;3.9588461914e+003;
2.4296875000e+000;3.9816667480e+003;3.9456411133e+003;3.9575642090e+003;3.9660256348e+003;3.9642307129e+003;3.9888461914e+003;3.9815385742e+003;3.9624357910e+003;3.9579487305e+003;3.9488461914e+003;3.9556411133e+003;3.9638461914e+003;3.9701281738e+003;3.9716667480e+003;
2.4375000000e+000;3.9600000000e+003;3.9192307129e+003;3.9329487305e+003;3.9439743652e+003;3.9307692871e+003;3.9587180176e+003;3.9414101563e+003;3.9250000000e+003;3.9210256348e+003;3.9167949219e+003;3.9278205566e+003;3.9389743652e+003;3.9428205566e+003;3.9453845215e+003;
2.4453125000e+000;3.9585898438e+003;3.9150000000e+003;3.9301281738e+003;3.9402563477e+003;3.9261538086e+003;3.9517949219e+003;3.9341025391e+003;3.9138461914e+003;3.9143588867e+003;3.9084614258e+003;3.9234614258e+003;3.9329487305e+003;3.9366667480e+003;3.9414101563e+003;
2.4531250000e+000;3.9807692871e+003;3.9370512695e+003;3.9521794434e+003;3.9592307129e+003;3.9478205566e+003;3.9687180176e+003;3.9521794434e+003;3.9297436523e+003;3.9355129395e+003;3.9288461914e+003;3.9453845215e+003;3.9526923828e+003;3.9578205566e+003;3.9619230957e+003;
2.4609375000e+000;4.0016667480e+003;3.9584614258e+003;3.9751281738e+003;3.9780769043e+003;3.9689743652e+003;3.9867949219e+003;3.9714101563e+003;3.9501281738e+003;3.9597436523e+003;3.9530769043e+003;3.9684614258e+003;3.9746154785e+003;3.9812819824e+003;3.9821794434e+003;
2.4687500000e+000;3.9460256348e+003;3.8908974609e+003;3.9178205566e+003;3.9194870605e+003;3.9057692871e+003;3.9312819824e+003;3.9161538086e+003;3.9048718262e+003;3.9187180176e+003;3.9010256348e+003;3.9142307129e+003;3.9230769043e+003;3.9285898438e+003;3.9211538086e+003;
2.4765625000e+000;3.9292307129e+003;3.8762819824e+003;3.8994870605e+003;3.9017949219e+003;3.8896154785e+003;3.9174357910e+003;3.9003845215e+003;3.8948718262e+003;3.9091025391e+003;3.8875642090e+003;3.8996154785e+003;3.9096154785e+003;3.9129487305e+003;3.9070512695e+003;
2.4843750000e+000;3.8600000000e+003;3.8023076172e+003;3.8276923828e+003;3.8337180176e+003;3.8208974609e+003;3.8528205566e+003;3.8416667480e+003;3.8416667480e+003;3.8510256348e+003;3.8164101563e+003;3.8270512695e+003;3.8358974609e+003;3.8428205566e+003;3.8346154785e+003;
2.4921875000e+000;3.8891025391e+003;3.8264101563e+003;3.8492307129e+003;3.8602563477e+003;3.8480769043e+003;3.8803845215e+003;3.8685898438e+003;3.8839743652e+003;3.8889743652e+003;3.8501281738e+003;3.8487180176e+003;3.8534614258e+003;3.8648718262e+003;3.8565385742e+003;
2.5000000000e+000;3.8538461914e+003;3.7960256348e+003;3.8133332520e+003;3.8282050781e+003;3.8130769043e+003;3.8508974609e+003;3.8355129395e+003;3.8516667480e+003;3.8538461914e+003;3.8160256348e+003;3.8101281738e+003;3.8179487305e+003;3.8283332520e+003;3.8203845215e+003;
2.5078125000e+000;3.8620512695e+003;3.8097436523e+003;3.8224357910e+003;3.8382050781e+003;3.8242307129e+003;3.8616667480e+003;3.8492307129e+003;3.8517949219e+003;3.8551281738e+003;3.8206411133e+003;3.8134614258e+003;3.8242307129e+003;3.8355129395e+003;3.8258974609e+003;
2.5156250000e+000;3.8321794434e+003;3.7648718262e+003;3.7857692871e+003;3.8007692871e+003;3.7825642090e+003;3.8251281738e+003;3.8106411133e+003;3.7964101563e+003;3.7950000000e+003;3.7680769043e+003;3.7728205566e+003;3.7902563477e+003;3.7919230957e+003;3.7919230957e+003;
2.5234375000e+000;3.8514101563e+003;3.7817949219e+003;3.7996154785e+003;3.8162819824e+003;3.7969230957e+003;3.8361538086e+003;3.8228205566e+003;3.8037180176e+003;3.7978205566e+003;3.7769230957e+003;3.7862819824e+003;3.8047436523e+003;3.8053845215e+003;3.8066667480e+003;
2.5312500000e+000;3.8802563477e+003;3.8093588867e+003;3.8257692871e+003;3.8423076172e+003;3.8225642090e+003;3.8576923828e+003;3.8458974609e+003;3.8255129395e+003;3.8158974609e+003;3.8006411133e+003;3.8129487305e+003;3.8323076172e+003;3.8314101563e+003;3.8338461914e+003;
2.5390625000e+000;3.8848718262e+003;3.8102563477e+003;3.8330769043e+003;3.8448718262e+003;3.8238461914e+003;3.8601281738e+003;3.8493588867e+003;3.8253845215e+003;3.8132050781e+003;3.8023076172e+003;3.8183332520e+003;3.8416667480e+003;3.8355129395e+003;3.8416667480e+003;
2.5468750000e+000;3.9347436523e+003;3.8610256348e+003;3.8838461914e+003;3.8894870605e+003;3.8697436523e+003;3.8976923828e+003;3.8889743652e+003;3.8580769043e+003;3.8526923828e+003;3.8492307129e+003;3.8628205566e+003;3.8862819824e+003;3.8834614258e+003;3.8887180176e+003;
2.5546875000e+000;3.9388461914e+003;3.8664101563e+003;3.8883332520e+003;3.8943588867e+003;3.8730769043e+003;3.8987180176e+003;3.8869230957e+003;3.8603845215e+003;3.8594870605e+003;3.8557692871e+003;3.8675642090e+003;3.8902563477e+003;3.8866667480e+003;3.8921794434e+003;
2.5625000000e+000;3.9173076172e+003;3.8461538086e+003;3.8669230957e+003;3.8756411133e+003;3.8529487305e+003;3.8796154785e+003;3.8634614258e+003;3.8403845215e+003;3.8439743652e+003;3.8361538086e+003;3.8484614258e+003;3.8698718262e+003;3.8646154785e+003;3.8701281738e+003;
2.5703125000e+000;3.9017949219e+003;3.8351281738e+003;3.8461538086e+003;3.8625642090e+003;3.8457692871e+003;3.8726923828e+003;3.8525642090e+003;3.8325642090e+003;3.8439743652e+003;3.8264101563e+003;3.8415385742e+003;3.8546154785e+003;3.8524357910e+003;3.8529487305e+003;
2.5781250000e+000;3.9215385742e+003;3.8562819824e+003;3.8629487305e+003;3.8806411133e+003;3.8671794434e+003;3.8928205566e+003;3.8729487305e+003;3.8579487305e+003;3.8719230957e+003;3.8525642090e+003;3.8646154785e+003;3.8739743652e+003;3.8755129395e+003;3.8725642090e+003;
2.5859375000e+000;3.9328205566e+003;3.8661538086e+003;3.8737180176e+003;3.8898718262e+003;3.8765385742e+003;3.9030769043e+003;3.8834614258e+003;3.8751281738e+003;3.8905129395e+003;3.8696154785e+003;3.8758974609e+003;3.8847436523e+003;3.8879487305e+003;3.8835898438e+003;
2.5937500000e+000;4.0007692871e+003;3.9262819824e+003;3.9393588867e+003;3.9497436523e+003;3.9471794434e+003;3.9724357910e+003;3.9684614258e+003;3.9796154785e+003;3.9830769043e+003;3.9561538086e+003;3.9446154785e+003;3.9493588867e+003;3.9538461914e+003;3.9457692871e+003;
2.6015625000e+000;3.9784614258e+003;3.9005129395e+003;3.9169230957e+003;3.9247436523e+003;3.9237180176e+003;3.9530769043e+003;3.9485898438e+003;3.9643588867e+003;3.9616667480e+003;3.9350000000e+003;3.9211538086e+003;3.9273076172e+003;3.9297436523e+003;3.9216667480e+003;
2.6093750000e+000;3.9775642090e+003;3.8944870605e+003;3.9165385742e+003;3.9203845215e+003;3.9188461914e+003;3.9521794434e+003;3.9467949219e+003;3.9592307129e+003;3.9530769043e+003;3.9214101563e+003;3.9083332520e+003;3.9157692871e+003;3.9192307129e+003;3.9155129395e+003;
2.6171875000e+000;3.9825642090e+003;3.9012819824e+003;3.9215385742e+003;3.9278205566e+003;3.9233332520e+003;3.9578205566e+003;3.9546154785e+003;3.9637180176e+003;3.9580769043e+003;3.9271794434e+003;3.9130769043e+003;3.9211538086e+003;3.9226923828e+003;3.9206411133e+003;
2.6250000000e+000;3.9416667480e+003;3.8607692871e+003;3.8780769043e+003;3.8883332520e+003;3.8807692871e+003;3.9207692871e+003;3.9182050781e+003;3.9173076172e+003;3.9085898438e+003;3.8811538086e+003;3.8684614258e+003;3.8816667480e+003;3.8767949219e+003;3.8758974609e+003;
2.6328125000e+000;3.9888461914e+003;3.9010256348e+003;3.9279487305e+003;3.9275642090e+003;3.9224357910e+003;3.9528205566e+003;3.9446154785e+003;3.9320512695e+003;3.9203845215e+003;3.9037180176e+003;3.9092307129e+003;3.9237180176e+003;3.9179487305e+003;3.9260256348e+003;
2.6406250000e+000;3.9732050781e+003;3.8842307129e+003;3.9137180176e+003;3.9150000000e+003;3.9064101563e+003;3.9357692871e+003;3.9311538086e+003;3.9105129395e+003;3.8997436523e+003;3.8837180176e+003;3.8934614258e+003;3.9093588867e+003;3.9012819824e+003;3.9102563477e+003;
2.6484375000e+000;3.9884614258e+003;3.9034614258e+003;3.9269230957e+003;3.9283332520e+003;3.9239743652e+003;3.9473076172e+003;3.9441025391e+003;3.9165385742e+003;3.9096154785e+003;3.8998718262e+003;3.9083332520e+003;3.9287180176e+003;3.9175642090e+003;3.9237180176e+003;
2.6562500000e+000;3.9973076172e+003;3.9151281738e+003;3.9347436523e+003;3.9342307129e+003;3.9324357910e+003;3.9546154785e+003;3.9469230957e+003;3.9220512695e+003;3.9169230957e+003;3.9120512695e+003;3.9171794434e+003;3.9406411133e+003;3.9279487305e+003;3.9344870605e+003;
2.6640625000e+000;4.0206411133e+003;3.9344870605e+003;3.9529487305e+003;3.9498718262e+003;3.9447436523e+003;3.9629487305e+003;3.9547436523e+003;3.9293588867e+003;3.9310256348e+003;3.9300000000e+003;3.9356411133e+003;3.9585898438e+003;3.9516667480e+003;3.9606411133e+003;
2.6718750000e+000;4.0680769043e+003;3.9807692871e+003;3.9989743652e+003;3.9937180176e+003;3.9905129395e+003;4.0028205566e+003;3.9985898438e+003;3.9782050781e+003;3.9826923828e+003;3.9817949219e+003;3.9853845215e+003;4.0053845215e+003;4.0028205566e+003;4.0088461914e+003;
2.6796875000e+000;4.0923076172e+003;4.0098718262e+003;4.0285898438e+003;4.0197436523e+003;4.0180769043e+003;4.0283332520e+003;4.0235898438e+003;4.0206411133e+003;4.0289743652e+003;4.0291025391e+003;4.0228205566e+003;4.0421794434e+003;4.0411538086e+003;4.0411538086e+003;
2.6875000000e+000;4.0684614258e+003;3.9902563477e+003;4.0087180176e+003;4.0005129395e+003;3.9964101563e+003;4.0093588867e+003;4.0035898438e+003;4.0046154785e+003;4.0146154785e+003;4.0133332520e+003;4.0041025391e+003;4.0239743652e+003;4.0225642090e+003;4.0214101563e+003;
2.6953125000e+000;4.0835898438e+003;4.0128205566e+003;4.0267949219e+003;4.0210256348e+003;4.0180769043e+003;4.0274357910e+003;4.0244870605e+003;4.0387180176e+003;4.0530769043e+003;4.0442307129e+003;4.0257692871e+003;4.0410256348e+003;4.0441025391e+003;4.0434614258e+003;
2.7031250000e+000;4.0762819824e+003;4.0065385742e+003;4.0208974609e+003;4.0155129395e+003;4.0148718262e+003;4.0264101563e+003;4.0229487305e+003;4.0424357910e+003;4.0552563477e+003;4.0425642090e+003;4.0206411133e+003;4.0361538086e+003;4.0405129395e+003;4.0382050781e+003;
2.7109375000e+000;4.0644870605e+003;3.9958974609e+003;4.0106411133e+003;4.0056411133e+003;4.0074357910e+003;4.0228205566e+003;4.0196154785e+003;4.0398718262e+003;4.0489743652e+003;4.0323076172e+003;4.0096154785e+003;4.0258974609e+003;4.0321794434e+003;4.0265385742e+003;
2.7187500000e+000;4.0341025391e+003;3.9656411133e+003;3.9817949219e+003;3.9761538086e+003;3.9816667480e+003;4.0089743652e+003;4.0087180176e+003;4.0166667480e+003;4.0171794434e+003;3.9960256348e+003;3.9785898438e+003;3.9955129395e+003;3.9919230957e+003;3.9903845215e+003;
2.7265625000e+000;4.0091025391e+003;3.9411538086e+003;3.9560256348e+003;3.9542307129e+003;3.9610256348e+003;3.9892307129e+003;3.9875642090e+003;3.9898718262e+003;3.9894870605e+003;3.9669230957e+003;3.9538461914e+003;3.9700000000e+003;3.9667949219e+003;3.9647436523e+003;
2.7343750000e+000;3.9900000000e+003;3.9307692871e+003;3.9393588867e+003;3.9455129395e+003;3.9521794434e+003;3.9773076172e+003;3.9783332520e+003;3.9666667480e+003;3.9603845215e+003;3.9420512695e+003;3.9329487305e+003;3.9521794434e+003;3.9508974609e+003;3.9430769043e+003;
2.7421875000e+000;4.0171794434e+003;3.9580769043e+003;3.9593588867e+003;3.9692307129e+003;3.9730769043e+003;3.9894870605e+003;3.9911538086e+003;3.9633332520e+003;3.9530769043e+003;3.9471794434e+003;3.9414101563e+003;3.9585898438e+003;3.9632050781e+003;3.9562819824e+003;
2.7500000000e+000;4.0724357910e+003;4.0125642090e+003;4.0132050781e+003;4.0207692871e+003;4.0258974609e+003;4.0364101563e+003;4.0366667480e+003;4.0115385742e+003;4.0002563477e+003;3.9991025391e+003;3.9951281738e+003;4.0138461914e+003;4.0173076172e+003;4.0120512695e+003;
2.7578125000e+000;4.0735898438e+003;4.0152563477e+003;4.0233332520e+003;4.0217949219e+003;4.0182050781e+003;4.0270512695e+003;4.0246154785e+003;4.0065385742e+003;3.9955129395e+003;3.9996154785e+003;4.0020512695e+003;4.0288461914e+003;4.0221794434e+003;4.0214101563e+003;
2.7656250000e+000;4.0689743652e+003;4.0119230957e+003;4.0203845215e+003;4.0153845215e+003;4.0110256348e+003;4.0157692871e+003;4.0158974609e+003;3.9998718262e+003;3.9933332520e+003;3.9989743652e+003;4.0006411133e+003;4.0251281738e+003;4.0203845215e+003;4.0185898438e+003;
2.7734375000e+000;4.0464101563e+003;3.9876923828e+003;4.0016667480e+003;3.9893588867e+003;3.9837180176e+003;3.9807692871e+003;3.9848718262e+003;3.9780769043e+003;3.9824357910e+003;3.9882050781e+003;3.9847436523e+003;4.0073076172e+003;4.0034614258e+003;4.0033332520e+003;
2.7812500000e+000;4.0153845215e+003;3.9530769043e+003;3.9716667480e+003;3.9574357910e+003;3.9493588867e+003;3.9479487305e+003;3.9508974609e+003;3.9461538086e+003;3.9534614258e+003;3.9565385742e+003;3.9529487305e+003;3.9770512695e+003;3.9711538086e+003;3.9737180176e+003;
2.7890625000e+000;4.0261538086e+003;3.9624357910e+003;3.9756411133e+003;3.9670512695e+003;3.9562819824e+003;3.9625642090e+003;3.9547436523e+003;3.9567949219e+003;3.9675642090e+003;3.9626923828e+003;3.9579487305e+003;3.9805129395e+003;3.9755129395e+003;3.9765385742e+003;
2.7968750000e+000;4.0320512695e+003;3.9710256348e+003;3.9802563477e+003;3.9766667480e+003;3.9651281738e+003;3.9738461914e+003;3.9641025391e+003;3.9708974609e+003;3.9821794434e+003;3.9751281738e+003;3.9661538086e+003;3.9874357910e+003;3.9830769043e+003;3.9821794434e+003;
2.8046875000e+000;4.0202563477e+003;3.9624357910e+003;3.9714101563e+003;3.9735898438e+003;3.9637180176e+003;3.9751281738e+003;3.9703845215e+003;3.9782050781e+003;3.9864101563e+003;3.9739743652e+003;3.9591025391e+003;3.9783332520e+003;3.9756411133e+003;3.9719230957e+003;
2.8125000000e+000;4.0350000000e+003;3.9785898438e+003;3.9893588867e+003;3.9891025391e+003;3.9853845215e+003;3.9956411133e+003;3.9948718262e+003;4.0014101563e+003;4.0064101563e+003;3.9930769043e+003;3.9770512695e+003;3.9937180176e+003;3.9933332520e+003;3.9882050781e+003;
2.8203125000e+000;4.0417949219e+003;3.9873076172e+003;4.0041025391e+003;3.9964101563e+003;4.0048718262e+003;4.0228205566e+003;4.0179487305e+003;4.0233332520e+003;4.0248718262e+003;4.0065385742e+003;3.9893588867e+003;4.0044870605e+003;3.9988461914e+003;4.0015385742e+003;
2.8281250000e+000;4.0361538086e+003;3.9806411133e+003;3.9976923828e+003;3.9924357910e+003;3.9996154785e+003;4.0192307129e+003;4.0126923828e+003;4.0156411133e+003;4.0183332520e+003;3.9969230957e+003;3.9811538086e+003;3.9976923828e+003;3.9888461914e+003;3.9950000000e+003;
2.8359375000e+000;4.0500000000e+003;3.9947436523e+003;4.0112819824e+003;4.0079487305e+003;4.0150000000e+003;4.0329487305e+003;4.0267949219e+003;4.0276923828e+003;4.0307692871e+003;4.0093588867e+003;3.9942307129e+003;4.0114101563e+003;4.0016667480e+003;4.0082050781e+003;
2.8437500000e+000;4.0673076172e+003;4.0138461914e+003;4.0305129395e+003;4.0275642090e+003;4.0361538086e+003;4.0517949219e+003;4.0465385742e+003;4.0465385742e+003;4.0479487305e+003;4.0306411133e+003;4.0146154785e+003;4.0316667480e+003;4.0232050781e+003;4.0273076172e+003;
2.8515625000e+000;4.0630769043e+003;4.0156411133e+003;4.0301281738e+003;4.0267949219e+003;4.0437180176e+003;4.0578205566e+003;4.0548718262e+003;4.0400000000e+003;4.0310256348e+003;4.0270512695e+003;4.0158974609e+003;4.0316667480e+003;4.0321794434e+003;4.0284614258e+003;
2.8593750000e+000;4.0578205566e+003;4.0087180176e+003;4.0210256348e+003;4.0133332520e+003;4.0216667480e+003;4.0300000000e+003;4.0252563477e+003;4.0029487305e+003;3.9951281738e+003;4.0064101563e+003;4.0042307129e+003;4.0241025391e+003;4.0176923828e+003;4.0164101563e+003;
2.8671875000e+000;4.0708974609e+003;4.0232050781e+003;4.0333332520e+003;4.0238461914e+003;4.0339743652e+003;4.0373076172e+003;4.0360256348e+003;4.0111538086e+003;4.0029487305e+003;4.0183332520e+003;4.0194870605e+003;4.0373076172e+003;4.0319230957e+003;4.0308974609e+003;
2.8750000000e+000;4.1141025391e+003;4.0732050781e+003;4.0797436523e+003;4.0703845215e+003;4.0761538086e+003;4.0708974609e+003;4.0705129395e+003;4.0589743652e+003;4.0501281738e+003;4.0708974609e+003;4.0735898438e+003;4.0884614258e+003;4.0850000000e+003;4.0841025391e+003;
2.8828125000e+000;4.0994873047e+003;4.0602563477e+003;4.0694870605e+003;4.0571794434e+003;4.0589743652e+003;4.0447436523e+003;4.0434614258e+003;4.0324357910e+003;4.0428205566e+003;4.0606411133e+003;4.0701281738e+003;4.0841025391e+003;4.0812819824e+003;4.0744870605e+003;
2.8906250000e+000;4.1148715820e+003;4.0753845215e+003;4.0880769043e+003;4.0694870605e+003;4.0744870605e+003;4.0589743652e+003;4.0593588867e+003;4.0535898438e+003;4.0661538086e+003;4.0848718262e+003;4.0893588867e+003;4.1026923828e+003;4.0989741211e+003;4.0929487305e+003;
2.8984375000e+000;4.0808974609e+003;4.0415385742e+003;4.0602563477e+003;4.0420512695e+003;4.0428205566e+003;4.0346154785e+003;4.0351281738e+003;4.0412819824e+003;4.0521794434e+003;4.0660256348e+003;4.0620512695e+003;4.0728205566e+003;4.0693588867e+003;4.0652563477e+003;
2.9062500000e+000;4.0719230957e+003;4.0358974609e+003;4.0506411133e+003;4.0375642090e+003;4.0379487305e+003;4.0316667480e+003;4.0314101563e+003;4.0405129395e+003;4.0515385742e+003;4.0606411133e+003;4.0557692871e+003;4.0629487305e+003;4.0629487305e+003;4.0575642090e+003;
2.9140625000e+000;4.0397436523e+003;4.0171794434e+003;4.0193588867e+003;4.0139743652e+003;4.0197436523e+003;4.0219230957e+003;4.0128205566e+003;4.0332050781e+003;4.0438461914e+003;4.0394870605e+003;4.0287180176e+003;4.0348718262e+003;4.0388461914e+003;4.0276923828e+003;
2.9218750000e+000;4.0067949219e+003;3.9838461914e+003;3.9875642090e+003;3.9838461914e+003;3.9897436523e+003;3.9994870605e+003;3.9876923828e+003;4.0057692871e+003;4.0156411133e+003;4.0067949219e+003;3.9928205566e+003;4.0001281738e+003;4.0057692871e+003;3.9923076172e+003;
2.9296875000e+000;4.0103845215e+003;3.9829487305e+003;3.9884614258e+003;3.9883332520e+003;4.0000000000e+003;4.0176923828e+003;4.0039743652e+003;4.0108974609e+003;4.0237180176e+003;4.0119230957e+003;3.9911538086e+003;3.9934614258e+003;4.0042307129e+003;3.9891025391e+003;
2.9375000000e+000;4.0180769043e+003;3.9894870605e+003;3.9958974609e+003;3.9955129395e+003;4.0103845215e+003;4.0308974609e+003;4.0156411133e+003;4.0185898438e+003;4.0329487305e+003;4.0223076172e+003;3.9989743652e+003;3.9997436523e+003;4.0080769043e+003;3.9965385742e+003;
2.9453125000e+000;3.9700000000e+003;3.9451281738e+003;3.9555129395e+003;3.9493588867e+003;3.9611538086e+003;3.9925642090e+003;3.9712819824e+003;3.9637180176e+003;3.9735898438e+003;3.9639743652e+003;3.9458974609e+003;3.9558974609e+003;3.9546154785e+003;3.9484614258e+003;
2.9531250000e+000;3.9841025391e+003;3.9603845215e+003;3.9696154785e+003;3.9642307129e+003;3.9734614258e+003;4.0029487305e+003;3.9833332520e+003;3.9739743652e+003;3.9810256348e+003;3.9729487305e+003;3.9580769043e+003;3.9692307129e+003;3.9706411133e+003;3.9619230957e+003;
2.9609375000e+000;3.9953845215e+003;3.9711538086e+003;3.9792307129e+003;3.9769230957e+003;3.9830769043e+003;4.0097436523e+003;3.9928205566e+003;3.9820512695e+003;3.9869230957e+003;3.9812819824e+003;3.9684614258e+003;3.9800000000e+003;3.9829487305e+003;3.9732050781e+003;
2.9687500000e+000;3.9852563477e+003;3.9587180176e+003;3.9664101563e+003;3.9678205566e+003;3.9712819824e+003;3.9958974609e+003;3.9814101563e+003;3.9675642090e+003;3.9714101563e+003;3.9682050781e+003;3.9569230957e+003;3.9688461914e+003;3.9706411133e+003;3.9628205566e+003;
2.9765625000e+000;3.9583332520e+003;3.9242307129e+003;3.9316667480e+003;3.9351281738e+003;3.9343588867e+003;3.9473076172e+003;3.9347436523e+003;3.9212819824e+003;3.9220512695e+003;3.9255129395e+003;3.9241025391e+003;3.9350000000e+003;3.9394870605e+003;3.9337180176e+003;
2.9843750000e+000;3.9529487305e+003;3.9097436523e+003;3.9205129395e+003;3.9255129395e+003;3.9121794434e+003;3.9142307129e+003;3.9065385742e+003;3.8907692871e+003;3.8958974609e+003;3.9069230957e+003;3.9071794434e+003;3.9279487305e+003;3.9226923828e+003;3.9202563477e+003;
2.9921875000e+000;3.9779487305e+003;3.9339743652e+003;3.9443588867e+003;3.9473076172e+003;3.9334614258e+003;3.9285898438e+003;3.9215385742e+003;3.9126923828e+003;3.9232050781e+003;3.9369230957e+003;3.9343588867e+003;3.9552563477e+003;3.9497436523e+003;3.9470512695e+003;
3.0000000000e+000;3.9582050781e+003;3.9111538086e+003;3.9261538086e+003;3.9266667480e+003;3.9050000000e+003;3.9016667480e+003;3.8952563477e+003;3.8989743652e+003;3.9137180176e+003;3.9224357910e+003;3.9212819824e+003;3.9391025391e+003;3.9391025391e+003;3.9323076172e+003;
3.0078125000e+000;4.0594870605e+003;4.0223076172e+003;4.0279487305e+003;4.0230769043e+003;4.0157692871e+003;4.0100000000e+003;4.0058974609e+003;4.0217949219e+003;4.0362819824e+003;4.0344870605e+003;4.0255129395e+003;4.0411538086e+003;4.0364101563e+003;4.0296154785e+003;
3.0156250000e+000;4.0434614258e+003;4.0084614258e+003;4.0142307129e+003;4.0111538086e+003;4.0035898438e+003;4.0005129395e+003;3.9933332520e+003;4.0102563477e+003;4.0261538086e+003;4.0228205566e+003;4.0097436523e+003;4.0261538086e+003;4.0182050781e+003;4.0142307129e+003;
3.0234375000e+000;4.0102563477e+003;3.9773076172e+003;3.9805129395e+003;3.9853845215e+003;3.9793588867e+003;3.9828205566e+003;3.9714101563e+003;3.9821794434e+003;3.9987180176e+003;3.9932050781e+003;3.9794870605e+003;3.9876923828e+003;3.9862819824e+003;3.9815385742e+003;
3.0312500000e+000;3.9974357910e+003;3.9653845215e+003;3.9664101563e+003;3.9741025391e+003;3.9710256348e+003;3.9797436523e+003;3.9658974609e+003;3.9729487305e+003;3.9888461914e+003;3.9829487305e+003;3.9697436523e+003;3.9733332520e+003;3.9767949219e+003;3.9693588867e+003;
3.0390625000e+000;3.9382050781e+003;3.9005129395e+003;3.9019230957e+003;3.9152563477e+003;3.9157692871e+003;3.9384614258e+003;3.9206411133e+003;3.9067949219e+003;3.9234614258e+003;3.9110256348e+003;3.9011538086e+003;3.9038461914e+003;3.9133332520e+003;3.9025642090e+003;
3.0468750000e+000;3.9683332520e+003;3.9293588867e+003;3.9301281738e+003;3.9437180176e+003;3.9461538086e+003;3.9660256348e+003;3.9484614258e+003;3.9308974609e+003;3.9475642090e+003;3.9366667480e+003;3.9260256348e+003;3.9285898438e+003;3.9393588867e+003;3.9296154785e+003;
3.0546875000e+000;4.0106411133e+003;3.9729487305e+003;3.9755129395e+003;3.9842307129e+003;3.9898718262e+003;4.0102563477e+003;3.9901281738e+003;3.9734614258e+003;3.9855129395e+003;3.9856411133e+003;3.9684614258e+003;3.9719230957e+003;3.9792307129e+003;3.9717949219e+003;
3.0625000000e+000;3.9955129395e+003;3.9582050781e+003;3.9628205566e+003;3.9685898438e+003;3.9747436523e+003;3.9998718262e+003;3.9793588867e+003;3.9602563477e+003;3.9687180176e+003;3.9724357910e+003;3.9543588867e+003;3.9594870605e+003;3.9642307129e+003;3.9561538086e+003;
3.0703125000e+000;4.0685898438e+003;4.0305129395e+003;4.0310256348e+003;4.0329487305e+003;4.0429487305e+003;4.0585898438e+003;4.0505129395e+003;4.0279487305e+003;4.0294870605e+003;4.0357692871e+003;4.0226923828e+003;4.0332050781e+003;4.0348718262e+003;4.0282050781e+003;
3.0781250000e+000;4.0987177734e+003;4.0598718262e+003;4.0598718262e+003;4.0628205566e+003;4.0700000000e+003;4.0802563477e+003;4.0743588867e+003;4.0560256348e+003;4.0558974609e+003;4.0655129395e+003;4.0530769043e+003;4.0666667480e+003;4.0632050781e+003;4.0616667480e+003;
3.0859375000e+000;4.1021796875e+003;4.0623076172e+003;4.0632050781e+003;4.0678205566e+003;4.0703845215e+003;4.0782050781e+003;4.0725642090e+003;4.0561538086e+003;4.0535898438e+003;4.0679487305e+003;4.0578205566e+003;4.0737180176e+003;4.0642307129e+003;4.0679487305e+003;
3.0937500000e+000;4.0991025391e+003;4.0591025391e+003;4.0603845215e+003;4.0656411133e+003;4.0655129395e+003;4.0717949219e+003;4.0660256348e+003;4.0484614258e+003;4.0433332520e+003;4.0628205566e+003;4.0562819824e+003;4.0729487305e+003;4.0597436523e+003;4.0662819824e+003;
3.1015625000e+000;4.1153847656e+003;4.0715385742e+003;4.0776923828e+003;4.0721794434e+003;4.0697436523e+003;4.0714101563e+003;4.0628205566e+003;4.0466667480e+003;4.0478205566e+003;4.0789743652e+003;4.0769230957e+003;4.0984614258e+003;4.0860256348e+003;4.0898718262e+003;
3.1093750000e+000;4.1125639648e+003;4.0643588867e+003;4.0739743652e+003;4.0670512695e+003;4.0610256348e+003;4.0607692871e+003;4.0523076172e+003;4.0376923828e+003;4.0407692871e+003;4.0711538086e+003;4.0737180176e+003;4.0950000000e+003;4.0810256348e+003;4.0851281738e+003;
3.1171875000e+000;4.1702563477e+003;4.1210258789e+003;4.1330771484e+003;4.1214101563e+003;4.1171796875e+003;4.1008974609e+003;4.0951281738e+003;4.1014101563e+003;4.1062822266e+003;4.1328203125e+003;4.1358974609e+003;4.1528203125e+003;4.1396152344e+003;4.1364101563e+003;
3.1250000000e+000;4.1238461914e+003;4.0850000000e+003;4.0950000000e+003;4.0866667480e+003;4.0871794434e+003;4.0765385742e+003;4.0658974609e+003;4.0791025391e+003;4.0885898438e+003;4.1037177734e+003;4.0933332520e+003;4.1130771484e+003;4.1007690430e+003;4.0926923828e+003;
3.1328125000e+000;4.1288461914e+003;4.0934614258e+003;4.1003847656e+003;4.0923076172e+003;4.0958974609e+003;4.0871794434e+003;4.0760256348e+003;4.0914101563e+003;4.0997436523e+003;4.1138461914e+003;4.1015385742e+003;4.1192309570e+003;4.1080771484e+003;4.0983334961e+003;
3.1406250000e+000;4.0434614258e+003;4.0083332520e+003;4.0133332520e+003;4.0158974609e+003;4.0192307129e+003;4.0248718262e+003;4.0102563477e+003;4.0197436523e+003;4.0257692871e+003;4.0255129395e+003;4.0193588867e+003;4.0365385742e+003;4.0233332520e+003;4.0150000000e+003;
3.1484375000e+000;4.0602563477e+003;4.0280769043e+003;4.0296154785e+003;4.0400000000e+003;4.0534614258e+003;4.0611538086e+003;4.0475642090e+003;4.0452563477e+003;4.0510256348e+003;4.0415385742e+003;4.0334614258e+003;4.0471794434e+003;4.0375642090e+003;4.0280769043e+003;
3.1562500000e+000;4.0471794434e+003;4.0162819824e+003;4.0179487305e+003;4.0270512695e+003;4.0414101563e+003;4.0542307129e+003;4.0400000000e+003;4.0365385742e+003;4.0392307129e+003;4.0307692871e+003;4.0200000000e+003;4.0324357910e+003;4.0228205566e+003;4.0135898438e+003;
3.1640625000e+000;4.0443588867e+003;4.0151281738e+003;4.0142307129e+003;4.0264101563e+003;4.0398718262e+003;4.0556411133e+003;4.0414101563e+003;4.0298718262e+003;4.0338461914e+003;4.0289743652e+003;4.0151281738e+003;4.0270512695e+003;4.0207692871e+003;4.0050000000e+003;
3.1718750000e+000;4.0452563477e+003;4.0144870605e+003;4.0164101563e+003;4.0301281738e+003;4.0414101563e+003;4.0552563477e+003;4.0402563477e+003;4.0294870605e+003;4.0344870605e+003;4.0302563477e+003;4.0158974609e+003;4.0296154785e+003;4.0215385742e+003;4.0047436523e+003;
3.1796875000e+000;3.9982050781e+003;3.9610256348e+003;3.9678205566e+003;3.9802563477e+003;3.9876923828e+003;4.0020512695e+003;3.9873076172e+003;3.9741025391e+003;3.9747436523e+003;3.9688461914e+003;3.9596154785e+003;3.9770512695e+003;3.9639743652e+003;3.9521794434e+003;
3.1875000000e+000;4.0015385742e+003;3.9642307129e+003;3.9662819824e+003;3.9775642090e+003;3.9857692871e+003;3.9976923828e+003;3.9864101563e+003;3.9705129395e+003;3.9679487305e+003;3.9647436523e+003;3.9585898438e+003;3.9752563477e+003;3.9639743652e+003;3.9544870605e+003;
3.1953125000e+000;4.0520512695e+003;4.0251281738e+003;4.0169230957e+003;4.0330769043e+003;4.0348718262e+003;4.0335898438e+003;4.0326923828e+003;4.0169230957e+003;4.0114101563e+003;4.0312819824e+003;4.0244870605e+003;4.0380769043e+003;4.0319230957e+003;4.0194870605e+003;
3.2031250000e+000;4.0388461914e+003;4.0110256348e+003;4.0080769043e+003;4.0239743652e+003;4.0229487305e+003;4.0193588867e+003;4.0188461914e+003;4.0003845215e+003;3.9957692871e+003;4.0191025391e+003;4.0134614258e+003;4.0285898438e+003;4.0210256348e+003;4.0065385742e+003;
3.2109375000e+000;4.0429487305e+003;4.0130769043e+003;4.0150000000e+003;4.0264101563e+003;4.0261538086e+003;4.0187180176e+003;4.0173076172e+003;3.9985898438e+003;3.9953845215e+003;4.0196154785e+003;4.0164101563e+003;4.0323076172e+003;4.0235898438e+003;4.0080769043e+003;
3.2187500000e+000;4.0682050781e+003;4.0382050781e+003;4.0423076172e+003;4.0464101563e+003;4.0485898438e+003;4.0361538086e+003;4.0332050781e+003;4.0202563477e+003;4.0193588867e+003;4.0437180176e+003;4.0420512695e+003;4.0567949219e+003;4.0476923828e+003;4.0330769043e+003;
3.2265625000e+000;4.0464101563e+003;4.0297436523e+003;4.0303845215e+003;4.0317949219e+003;4.0312819824e+003;4.0139743652e+003;4.0137180176e+003;4.0266667480e+003;4.0346154785e+003;4.0523076172e+003;4.0434614258e+003;4.0511538086e+003;4.0473076172e+003;4.0364101563e+003;
3.2343750000e+000;4.0482050781e+003;4.0300000000e+003;4.0314101563e+003;4.0334614258e+003;4.0364101563e+003;4.0176923828e+003;4.0178205566e+003;4.0317949219e+003;4.0397436523e+003;4.0562819824e+003;4.0460256348e+003;4.0533332520e+003;4.0496154785e+003;4.0391025391e+003;
3.2421875000e+000;4.0114101563e+003;3.9906411133e+003;3.9942307129e+003;3.9953845215e+003;4.0012819824e+003;3.9923076172e+003;3.9811538086e+003;3.9992307129e+003;4.0055129395e+003;4.0126923828e+003;4.0026923828e+003;4.0143588867e+003;4.0030769043e+003;4.0014101563e+003;
3.2500000000e+000;4.0816667480e+003;4.0675642090e+003;4.0635898438e+003;4.0703845215e+003;4.0826923828e+003;4.0766667480e+003;4.0733332520e+003;4.0794870605e+003;4.0857692871e+003;4.0902563477e+003;4.0696154785e+003;4.0833332520e+003;4.0756411133e+003;4.0712819824e+003;
3.2578125000e+000;4.0966665039e+003;4.0807692871e+003;4.0810256348e+003;4.0851281738e+003;4.1016665039e+003;4.0979487305e+003;4.0962822266e+003;4.0991025391e+003;4.1006411133e+003;4.1065385742e+003;4.0853845215e+003;4.1021796875e+003;4.0901281738e+003;4.0864101563e+003;
3.2656250000e+000;4.1842309570e+003;4.1811538086e+003;4.1676923828e+003;4.1734614258e+003;4.2014101563e+003;4.1953847656e+003;4.1947436523e+003;4.1850000000e+003;4.1789741211e+003;4.1882050781e+003;4.1741025391e+003;4.1839741211e+003;4.1783334961e+003;4.1719228516e+003;
3.2734375000e+000;4.3080771484e+003;4.3138461914e+003;4.2934614258e+003;4.2932050781e+003;4.3293588867e+003;4.3132050781e+003;4.3202563477e+003;4.3066665039e+003;4.3051284180e+003;4.3229487305e+003;4.3001284180e+003;4.3064101563e+003;4.3043588867e+003;4.2976923828e+003;
3.2812500000e+000;4.3306411133e+003;4.3357690430e+003;4.3169228516e+003;4.3124360352e+003;4.3498715820e+003;4.3294873047e+003;4.3401284180e+003;4.3256411133e+003;4.3217949219e+003;4.3432050781e+003;4.3211538086e+003;4.3280771484e+003;4.3265385742e+003;4.3193588867e+003;
3.2890625000e+000;4.3600000000e+003;4.3673076172e+003;4.3467949219e+003;4.3394873047e+003;4.3783334961e+003;4.3516665039e+003;4.3643588867e+003;4.3530771484e+003;4.3467949219e+003;4.3724360352e+003;4.3520512695e+003;4.3579487305e+003;4.3591025391e+003;4.3497436523e+003;
3.2968750000e+000;4.3542309570e+003;4.3696152344e+003;4.3462822266e+003;4.3380771484e+003;4.3737177734e+003;4.3430771484e+003;4.3506411133e+003;4.3512822266e+003;4.3430771484e+003;4.3769228516e+003;4.3569228516e+003;4.3630771484e+003;4.3661538086e+003;4.3538461914e+003;
3.3046875000e+000;4.3135898438e+003;4.3276923828e+003;4.3128203125e+003;4.3008974609e+003;4.3266665039e+003;4.2980771484e+003;4.3032050781e+003;4.2957690430e+003;4.2902563477e+003;4.3301284180e+003;4.3183334961e+003;4.3293588867e+003;4.3303847656e+003;4.3173076172e+003;
3.3125000000e+000;4.3358974609e+003;4.3482050781e+003;4.3351284180e+003;4.3201284180e+003;4.3448715820e+003;4.3114101563e+003;4.3200000000e+003;4.3129487305e+003;4.3091025391e+003;4.3512822266e+003;4.3412822266e+003;4.3525639648e+003;4.3525639648e+003;4.3397436523e+003;
3.3203125000e+000;4.3311538086e+003;4.3416665039e+003;4.3303847656e+003;4.3144873047e+003;4.3357690430e+003;4.3000000000e+003;4.3103847656e+003;4.3067949219e+003;4.3039741211e+003;4.3479487305e+003;4.3384614258e+003;4.3500000000e+003;4.3473076172e+003;4.3366665039e+003;
3.3281250000e+000;4.2774360352e+003;4.2847436523e+003;4.2762822266e+003;4.2626923828e+003;4.2752563477e+003;4.2419228516e+003;4.2502563477e+003;4.2521796875e+003;4.2510258789e+003;4.2925639648e+003;4.2856411133e+003;4.2974360352e+003;4.2901284180e+003;4.2856411133e+003;
3.3359375000e+000;4.2819228516e+003;4.2901284180e+003;4.2821796875e+003;4.2667949219e+003;4.2791025391e+003;4.2448715820e+003;4.2508974609e+003;4.2576923828e+003;4.2573076172e+003;4.2958974609e+003;4.2896152344e+003;4.3010258789e+003;4.2944873047e+003;4.2914101563e+003;
3.3437500000e+000;4.2980771484e+003;4.3089741211e+003;4.3017949219e+003;4.2824360352e+003;4.2957690430e+003;4.2597436523e+003;4.2634614258e+003;4.2782050781e+003;4.2780771484e+003;4.3135898438e+003;4.3061538086e+003;4.3165385742e+003;4.3121796875e+003;4.3091025391e+003;
3.3515625000e+000;4.3956411133e+003;4.4207690430e+003;4.4000000000e+003;4.3855126953e+003;4.4160258789e+003;4.3770512695e+003;4.3771796875e+003;4.3996152344e+003;4.3947436523e+003;4.4274360352e+003;4.4093588867e+003;4.4078203125e+003;4.4180771484e+003;4.4065385742e+003;
3.3593750000e+000;4.4591025391e+003;4.4914101563e+003;4.4653847656e+003;4.4497436523e+003;4.4861538086e+003;4.4456411133e+003;4.4433334961e+003;4.4664101563e+003;4.4614101563e+003;4.4962822266e+003;4.4747436523e+003;4.4742309570e+003;4.4841025391e+003;4.4738461914e+003;
3.3671875000e+000;4.5523076172e+003;4.6020512695e+003;4.5646152344e+003;4.5488461914e+003;4.5969228516e+003;4.5541025391e+003;4.5521796875e+003;4.5657690430e+003;4.5620512695e+003;4.5924360352e+003;4.5685898438e+003;4.5675639648e+003;4.5765385742e+003;4.5638461914e+003;
3.3750000000e+000;4.4766665039e+003;4.5366665039e+003;4.5039741211e+003;4.4835898438e+003;4.5400000000e+003;4.5098715820e+003;4.5085898438e+003;4.5115385742e+003;4.5071796875e+003;4.5323076172e+003;4.5033334961e+003;4.5046152344e+003;4.5084614258e+003;4.5000000000e+003;
3.3828125000e+000;4.4185898438e+003;4.4784614258e+003;4.4478203125e+003;4.4293588867e+003;4.4830771484e+003;4.4611538086e+003;4.4583334961e+003;4.4553847656e+003;4.4505126953e+003;4.4734614258e+003;4.4452563477e+003;4.4489741211e+003;4.4520512695e+003;4.4453847656e+003;
3.3906250000e+000;4.3824360352e+003;4.4442309570e+003;4.4066665039e+003;4.3970512695e+003;4.4457690430e+003;4.4232050781e+003;4.4202563477e+003;4.4174360352e+003;4.4082050781e+003;4.4343588867e+003;4.4106411133e+003;4.4165385742e+003;4.4169228516e+003;4.4089741211e+003;
3.3984375000e+000;4.3689741211e+003;4.4302563477e+003;4.3947436523e+003;4.3846152344e+003;4.4316665039e+003;4.4087177734e+003;4.4078203125e+003;4.4042309570e+003;4.3930771484e+003;4.4212822266e+003;4.3987177734e+003;4.4071796875e+003;4.4029487305e+003;4.3961538086e+003;
3.4062500000e+000;4.3679487305e+003;4.4279487305e+003;4.3966665039e+003;4.3833334961e+003;4.4296152344e+003;4.4061538086e+003;4.4092309570e+003;4.4014101563e+003;4.3892309570e+003;4.4193588867e+003;4.3989741211e+003;4.4094873047e+003;4.4026923828e+003;4.3956411133e+003;
3.4140625000e+000;4.3980771484e+003;4.4576923828e+003;4.4294873047e+003;4.4116665039e+003;4.4585898438e+003;4.4323076172e+003;4.4393588867e+003;4.4282050781e+003;4.4157690430e+003;4.4496152344e+003;4.4314101563e+003;4.4420512695e+003;4.4358974609e+003;4.4262822266e+003;
3.4218750000e+000;4.5115385742e+003;4.5880771484e+003;4.5503847656e+003;4.5317949219e+003;4.5720512695e+003;4.5289741211e+003;4.5361538086e+003;4.5262822266e+003;4.5183334961e+003;4.5698715820e+003;4.5574360352e+003;4.5612822266e+003;4.5556411133e+003;4.5453847656e+003;
3.4296875000e+000;4.6467949219e+003;4.7425639648e+003;4.6962822266e+003;4.6723076172e+003;4.7176923828e+003;4.6560258789e+003;4.6679487305e+003;4.6789741211e+003;4.6766665039e+003;4.7310258789e+003;4.7085898438e+003;4.7037177734e+003;4.7026923828e+003;4.6807690430e+003;
