Time (s);AF3;F7;F3;FC5;T7;P7;O1;O2;P8;T8;FC6;F4;F8;AF4;Sampling Rate
0.0000000000e+000;3.8893588867e+003;3.8264101563e+003;3.8315385742e+003;3.8179487305e+003;3.7979487305e+003;3.7996154785e+003;3.8033332520e+003;3.8188461914e+003;3.8437180176e+003;3.8608974609e+003;3.8152563477e+003;3.8323076172e+003;3.8311538086e+003;3.8458974609e+003;128
7.8125000000e-003;3.8791025391e+003;3.8153845215e+003;3.8221794434e+003;3.8106411133e+003;3.7898718262e+003;3.7955129395e+003;3.7998718262e+003;3.8075642090e+003;3.8296154785e+003;3.8462819824e+003;3.8024357910e+003;3.8235898438e+003;3.8165385742e+003;3.8329487305e+003;
1.5625000000e-002;3.9108974609e+003;3.8397436523e+003;3.8438461914e+003;3.8376923828e+003;3.8200000000e+003;3.8306411133e+003;3.8379487305e+003;3.8262819824e+003;3.8474357910e+003;3.8625642090e+003;3.8229487305e+003;3.8396154785e+003;3.8338461914e+003;3.8484614258e+003;
2.3437500000e-002;3.9375642090e+003;3.8651281738e+003;3.8675642090e+003;3.8617949219e+003;3.8458974609e+003;3.8575642090e+003;3.8666667480e+003;3.8496154785e+003;3.8714101563e+003;3.8856411133e+003;3.8458974609e+003;3.8587180176e+003;3.8567949219e+003;3.8700000000e+003;
3.1250000000e-002;3.9425642090e+003;3.8784614258e+003;3.8855129395e+003;3.8694870605e+003;3.8533332520e+003;3.8744870605e+003;3.8841025391e+003;3.8669230957e+003;3.8802563477e+003;3.8988461914e+003;3.8517949219e+003;3.8752563477e+003;3.8662819824e+003;3.8815385742e+003;
3.9062500000e-002;3.9287180176e+003;3.8643588867e+003;3.8716667480e+003;3.8541025391e+003;3.8398718262e+003;3.8626923828e+003;3.8715385742e+003;3.8553845215e+003;3.8647436523e+003;3.8866667480e+003;3.8383332520e+003;3.8643588867e+003;3.8526923828e+003;3.8671794434e+003;
4.6875000000e-002;3.9074357910e+003;3.8392307129e+003;3.8467949219e+003;3.8292307129e+003;3.8179487305e+003;3.8401281738e+003;3.8498718262e+003;3.8334614258e+003;3.8401281738e+003;3.8641025391e+003;3.8165385742e+003;3.8416667480e+003;3.8294870605e+003;3.8429487305e+003;
5.4687500000e-002;3.8783332520e+003;3.8043588867e+003;3.8137180176e+003;3.7962819824e+003;3.7874357910e+003;3.8079487305e+003;3.8200000000e+003;3.8015385742e+003;3.8069230957e+003;3.8310256348e+003;3.7865385742e+003;3.8092307129e+003;3.7966667480e+003;3.8114101563e+003;
6.2500000000e-002;3.8697436523e+003;3.7965385742e+003;3.8064101563e+003;3.7833332520e+003;3.7757692871e+003;3.7893588867e+003;3.8033332520e+003;3.7811538086e+003;3.7825642090e+003;3.8160256348e+003;3.7792307129e+003;3.8010256348e+003;3.7887180176e+003;3.8083332520e+003;
7.0312500000e-002;3.8689743652e+003;3.7957692871e+003;3.8042307129e+003;3.7820512695e+003;3.7707692871e+003;3.7838461914e+003;3.7965385742e+003;3.7785898438e+003;3.7792307129e+003;3.8175642090e+003;3.7778205566e+003;3.8025642090e+003;3.7903845215e+003;3.8070512695e+003;
7.8125000000e-002;3.7761538086e+003;3.6952563477e+003;3.7007692871e+003;3.6829487305e+003;3.6650000000e+003;3.6782050781e+003;3.6850000000e+003;3.6775642090e+003;3.6788461914e+003;3.7203845215e+003;3.6816667480e+003;3.6998718262e+003;3.6941025391e+003;3.7062819824e+003;
8.5937500000e-002;3.6456411133e+003;3.5601281738e+003;3.5703845215e+003;3.5514101563e+003;3.5266667480e+003;3.5493588867e+003;3.5457692871e+003;3.5487180176e+003;3.5644870605e+003;3.5883332520e+003;3.5517949219e+003;3.5714101563e+003;3.5646154785e+003;3.5764101563e+003;
9.3750000000e-002;3.6141025391e+003;3.5237180176e+003;3.5357692871e+003;3.5189743652e+003;3.4907692871e+003;3.5151281738e+003;3.5117949219e+003;3.5150000000e+003;3.5375642090e+003;3.5530769043e+003;3.5169230957e+003;3.5380769043e+003;3.5315385742e+003;3.5414101563e+003;
1.0156250000e-001;3.6530769043e+003;3.5565385742e+003;3.5600000000e+003;3.5515385742e+003;3.5284614258e+003;3.5470512695e+003;3.5446154785e+003;3.5451281738e+003;3.5796154785e+003;3.5860256348e+003;3.5494870605e+003;3.5638461914e+003;3.5579487305e+003;3.5689743652e+003;
1.0937500000e-001;3.6808974609e+003;3.5856411133e+003;3.5857692871e+003;3.5779487305e+003;3.5578205566e+003;3.5760256348e+003;3.5724357910e+003;3.5705129395e+003;3.6033332520e+003;3.6096154785e+003;3.5747436523e+003;3.5903845215e+003;3.5807692871e+003;3.5960256348e+003;
1.1718750000e-001;3.7739743652e+003;3.6864101563e+003;3.6803845215e+003;3.6720512695e+003;3.6589743652e+003;3.6757692871e+003;3.6730769043e+003;3.6642307129e+003;3.6891025391e+003;3.6987180176e+003;3.6625642090e+003;3.6832050781e+003;3.6744870605e+003;3.6874357910e+003;
1.2500000000e-001;3.8301281738e+003;3.7478205566e+003;3.7396154785e+003;3.7292307129e+003;3.7226923828e+003;3.7375642090e+003;3.7371794434e+003;3.7252563477e+003;3.7471794434e+003;3.7611538086e+003;3.7202563477e+003;3.7400000000e+003;3.7355129395e+003;3.7428205566e+003;
1.3281250000e-001;3.8819230957e+003;3.8043588867e+003;3.7969230957e+003;3.7748718262e+003;3.7905129395e+003;3.8037180176e+003;3.8046154785e+003;3.7829487305e+003;3.8012819824e+003;3.8257692871e+003;3.7792307129e+003;3.7916667480e+003;3.7798718262e+003;3.7942307129e+003;
1.4062500000e-001;3.8930769043e+003;3.8147436523e+003;3.8084614258e+003;3.7830769043e+003;3.8033332520e+003;3.8147436523e+003;3.8162819824e+003;3.7917949219e+003;3.8088461914e+003;3.8338461914e+003;3.7889743652e+003;3.8024357910e+003;3.7869230957e+003;3.8053845215e+003;
1.4843750000e-001;3.9073076172e+003;3.8297436523e+003;3.8257692871e+003;3.7974357910e+003;3.8191025391e+003;3.8291025391e+003;3.8326923828e+003;3.8070512695e+003;3.8217949219e+003;3.8473076172e+003;3.8026923828e+003;3.8197436523e+003;3.8026923828e+003;3.8210256348e+003;
1.5625000000e-001;3.9012819824e+003;3.8252563477e+003;3.8253845215e+003;3.7951281738e+003;3.8141025391e+003;3.8255129395e+003;3.8319230957e+003;3.8061538086e+003;3.8169230957e+003;3.8438461914e+003;3.7974357910e+003;3.8203845215e+003;3.8025642090e+003;3.8171794434e+003;
1.6406250000e-001;3.6424357910e+003;3.5566667480e+003;3.5696154785e+003;3.5451281738e+003;3.5493588867e+003;3.5764101563e+003;3.5843588867e+003;3.5569230957e+003;3.5541025391e+003;3.5780769043e+003;3.5343588867e+003;3.5661538086e+003;3.5406411133e+003;3.5576923828e+003;
1.7187500000e-001;3.6561538086e+003;3.5592307129e+003;3.5773076172e+003;3.5492307129e+003;3.5470512695e+003;3.5703845215e+003;3.5821794434e+003;3.5552563477e+003;3.5482050781e+003;3.5753845215e+003;3.5419230957e+003;3.5829487305e+003;3.5452563477e+003;3.5669230957e+003;
1.7968750000e-001;3.6783332520e+003;3.5806411133e+003;3.5938461914e+003;3.5662819824e+003;3.5642307129e+003;3.5829487305e+003;3.5974357910e+003;3.5717949219e+003;3.5662819824e+003;3.5966667480e+003;3.5615385742e+003;3.6005129395e+003;3.5674357910e+003;3.5838461914e+003;
1.8750000000e-001;3.6400000000e+003;3.5353845215e+003;3.5480769043e+003;3.5261538086e+003;3.5169230957e+003;3.5321794434e+003;3.5456411133e+003;3.5298718262e+003;3.5303845215e+003;3.5585898438e+003;3.5208974609e+003;3.5561538086e+003;3.5276923828e+003;3.5403845215e+003;
1.9531250000e-001;3.5943588867e+003;3.4848718262e+003;3.5017949219e+003;3.4821794434e+003;3.4685898438e+003;3.4853845215e+003;3.4958974609e+003;3.4857692871e+003;3.4900000000e+003;3.5138461914e+003;3.4765385742e+003;3.5111538086e+003;3.4812819824e+003;3.4952563477e+003;
2.0312500000e-001;3.4994870605e+003;3.3815385742e+003;3.3987180176e+003;3.3815385742e+003;3.3652563477e+003;3.3851281738e+003;3.3902563477e+003;3.3943588867e+003;3.4100000000e+003;3.4208974609e+003;3.3829487305e+003;3.4133332520e+003;3.3873076172e+003;3.3975642090e+003;
2.1093750000e-001;3.4357692871e+003;3.3021794434e+003;3.3265385742e+003;3.3188461914e+003;3.2888461914e+003;3.3124357910e+003;3.3200000000e+003;3.3165385742e+003;3.3394870605e+003;3.3371794434e+003;3.3037180176e+003;3.3417949219e+003;3.3092307129e+003;3.3201281738e+003;
2.1875000000e-001;3.4365385742e+003;3.2980769043e+003;3.3248718262e+003;3.3196154785e+003;3.2898718262e+003;3.3146154785e+003;3.3211538086e+003;3.3130769043e+003;3.3370512695e+003;3.3338461914e+003;3.3015385742e+003;3.3405129395e+003;3.3061538086e+003;3.3167949219e+003;
2.2656250000e-001;3.4343588867e+003;3.2924357910e+003;3.3197436523e+003;3.3162819824e+003;3.2883332520e+003;3.3174357910e+003;3.3210256348e+003;3.3093588867e+003;3.3329487305e+003;3.3302563477e+003;3.2974357910e+003;3.3367949219e+003;3.3024357910e+003;3.3123076172e+003;
2.3437500000e-001;3.4200000000e+003;3.2751281738e+003;3.3024357910e+003;3.3005129395e+003;3.2739743652e+003;3.3106411133e+003;3.3110256348e+003;3.2952563477e+003;3.3176923828e+003;3.3146154785e+003;3.2806411133e+003;3.3212819824e+003;3.2879487305e+003;3.2973076172e+003;
2.4218750000e-001;3.4088461914e+003;3.2506411133e+003;3.2782050781e+003;3.2806411133e+003;3.2647436523e+003;3.3116667480e+003;3.3176923828e+003;3.2835898438e+003;3.2992307129e+003;3.2876923828e+003;3.2564101563e+003;3.3001281738e+003;3.2658974609e+003;3.2728205566e+003;
2.5000000000e-001;3.4096154785e+003;3.2506411133e+003;3.2764101563e+003;3.2817949219e+003;3.2660256348e+003;3.3134614258e+003;3.3180769043e+003;3.2870512695e+003;3.2978205566e+003;3.2897436523e+003;3.2570512695e+003;3.3016667480e+003;3.2624357910e+003;3.2711538086e+003;
2.5781250000e-001;3.3643588867e+003;3.2050000000e+003;3.2256411133e+003;3.2401281738e+003;3.2125642090e+003;3.2638461914e+003;3.2650000000e+003;3.2365385742e+003;3.2429487305e+003;3.2434614258e+003;3.2084614258e+003;3.2546154785e+003;3.2141025391e+003;3.2228205566e+003;
2.6562500000e-001;3.3466667480e+003;3.1826923828e+003;3.2051281738e+003;3.2200000000e+003;3.1906411133e+003;3.2405129395e+003;3.2443588867e+003;3.2121794434e+003;3.2214101563e+003;3.2211538086e+003;3.1865385742e+003;3.2332050781e+003;3.1956411133e+003;3.2015385742e+003;
2.7343750000e-001;3.3082050781e+003;3.1329487305e+003;3.1610256348e+003;3.1746154785e+003;3.1435898438e+003;3.1906411133e+003;3.1980769043e+003;3.1592307129e+003;3.1711538086e+003;3.1687180176e+003;3.1370512695e+003;3.1842307129e+003;3.1492307129e+003;3.1550000000e+003;
2.8125000000e-001;3.3047436523e+003;3.1267949219e+003;3.1544870605e+003;3.1684614258e+003;3.1355129395e+003;3.1816667480e+003;3.1885898438e+003;3.1506411133e+003;3.1607692871e+003;3.1592307129e+003;3.1291025391e+003;3.1752563477e+003;3.1415385742e+003;3.1491025391e+003;
2.8906250000e-001;3.3266667480e+003;3.1462819824e+003;3.1693588867e+003;3.1858974609e+003;3.1453845215e+003;3.1860256348e+003;3.1923076172e+003;3.1675642090e+003;3.1773076172e+003;3.1803845215e+003;3.1512819824e+003;3.1953845215e+003;3.1624357910e+003;3.1697436523e+003;
2.9687500000e-001;3.3133332520e+003;3.1298718262e+003;3.1547436523e+003;3.1710256348e+003;3.1279487305e+003;3.1667949219e+003;3.1737180176e+003;3.1516667480e+003;3.1643588867e+003;3.1667949219e+003;3.1376923828e+003;3.1821794434e+003;3.1492307129e+003;3.1553845215e+003;
3.0468750000e-001;3.2755129395e+003;3.0839743652e+003;3.1135898438e+003;3.1317949219e+003;3.0814101563e+003;3.1174357910e+003;3.1216667480e+003;3.1129487305e+003;3.1269230957e+003;3.1256411133e+003;3.0925642090e+003;3.1415385742e+003;3.1048718262e+003;3.1126923828e+003;
3.1250000000e-001;3.2335898438e+003;3.0351281738e+003;3.0635898438e+003;3.0843588867e+003;3.0333332520e+003;3.0732050781e+003;3.0762819824e+003;3.0642307129e+003;3.0833332520e+003;3.0728205566e+003;3.0387180176e+003;3.0942307129e+003;3.0471794434e+003;3.0598718262e+003;
3.2031250000e-001;3.2305129395e+003;3.0291025391e+003;3.0555129395e+003;3.0770512695e+003;3.0282050781e+003;3.0683332520e+003;3.0708974609e+003;3.0573076172e+003;3.0783332520e+003;3.0667949219e+003;3.0314101563e+003;3.0832050781e+003;3.0410256348e+003;3.0512819824e+003;
3.2812500000e-001;3.1979487305e+003;2.9898718262e+003;3.0191025391e+003;3.0437180176e+003;2.9914101563e+003;3.0410256348e+003;3.0416667480e+003;3.0258974609e+003;3.0446154785e+003;3.0341025391e+003;2.9960256348e+003;3.0424357910e+003;3.0037180176e+003;3.0132050781e+003;
3.3593750000e-001;3.1884614258e+003;2.9783332520e+003;3.0093588867e+003;3.0355129395e+003;2.9805129395e+003;3.0343588867e+003;3.0364101563e+003;3.0153845215e+003;3.0316667480e+003;3.0208974609e+003;2.9846154785e+003;3.0335898438e+003;2.9912819824e+003;3.0025642090e+003;
3.4375000000e-001;3.1861538086e+003;2.9742307129e+003;3.0043588867e+003;3.0344870605e+003;2.9797436523e+003;3.0369230957e+003;3.0411538086e+003;3.0106411133e+003;3.0229487305e+003;3.0138461914e+003;2.9743588867e+003;3.0283332520e+003;2.9843588867e+003;2.9951281738e+003;
3.5156250000e-001;3.1697436523e+003;2.9565385742e+003;2.9865385742e+003;3.0182050781e+003;2.9655129395e+003;3.0243588867e+003;3.0278205566e+003;2.9944870605e+003;3.0061538086e+003;2.9970512695e+003;2.9528205566e+003;3.0083332520e+003;2.9661538086e+003;2.9762819824e+003;
3.5937500000e-001;3.1435898438e+003;2.9278205566e+003;2.9587180176e+003;2.9910256348e+003;2.9410256348e+003;3.0015385742e+003;3.0044870605e+003;2.9682050781e+003;2.9802563477e+003;2.9693588867e+003;2.9214101563e+003;2.9779487305e+003;2.9380769043e+003;2.9487180176e+003;
3.6718750000e-001;3.1270512695e+003;2.9083332520e+003;2.9392307129e+003;2.9712819824e+003;2.9244870605e+003;2.9858974609e+003;2.9897436523e+003;2.9500000000e+003;2.9629487305e+003;2.9498718262e+003;2.9002563477e+003;2.9578205566e+003;2.9192307129e+003;2.9311538086e+003;
3.7500000000e-001;3.1784614258e+003;2.9564101563e+003;2.9756411133e+003;3.0134614258e+003;2.9624357910e+003;3.0230769043e+003;3.0275642090e+003;2.9819230957e+003;3.0015385742e+003;2.9991025391e+003;2.9550000000e+003;3.0067949219e+003;2.9691025391e+003;2.9828205566e+003;
3.8281250000e-001;3.1269230957e+003;2.9032050781e+003;2.9205129395e+003;2.9608974609e+003;2.9070512695e+003;2.9656411133e+003;2.9635898438e+003;2.9308974609e+003;2.9482050781e+003;2.9450000000e+003;2.9116667480e+003;2.9510256348e+003;2.9303845215e+003;2.9415385742e+003;
3.9062500000e-001;3.1102563477e+003;2.8823076172e+003;2.9025642090e+003;2.9401281738e+003;2.8835898438e+003;2.9450000000e+003;2.9439743652e+003;2.9143588867e+003;2.9307692871e+003;2.9276923828e+003;2.8928205566e+003;2.9394870605e+003;2.9110256348e+003;2.9241025391e+003;
3.9843750000e-001;3.0926923828e+003;2.8489743652e+003;2.8783332520e+003;2.9138461914e+003;2.8564101563e+003;2.9129487305e+003;2.9191025391e+003;2.8906411133e+003;2.9092307129e+003;2.9061538086e+003;2.8702563477e+003;2.9233332520e+003;2.8846154785e+003;2.8975642090e+003;
4.0625000000e-001;3.0976923828e+003;2.8492307129e+003;2.8810256348e+003;2.9180769043e+003;2.8620512695e+003;2.9124357910e+003;2.9216667480e+003;2.8951281738e+003;2.9161538086e+003;2.9111538086e+003;2.8765385742e+003;2.9248718262e+003;2.8885898438e+003;2.9003845215e+003;
4.1406250000e-001;3.1179487305e+003;2.8744870605e+003;2.9026923828e+003;2.9439743652e+003;2.8819230957e+003;2.9297436523e+003;2.9397436523e+003;2.9217949219e+003;2.9496154785e+003;2.9379487305e+003;2.9025642090e+003;2.9438461914e+003;2.9174357910e+003;2.9282050781e+003;
4.2187500000e-001;3.1273076172e+003;2.8857692871e+003;2.9105129395e+003;2.9519230957e+003;2.8874357910e+003;2.9369230957e+003;2.9467949219e+003;2.9301281738e+003;2.9607692871e+003;2.9506411133e+003;2.9115385742e+003;2.9532050781e+003;2.9288461914e+003;2.9356411133e+003;
4.2968750000e-001;3.0976923828e+003;2.8484614258e+003;2.8738461914e+003;2.9241025391e+003;2.8546154785e+003;2.9091025391e+003;2.9189743652e+003;2.9080769043e+003;2.9369230957e+003;2.9293588867e+003;2.8858974609e+003;2.9228205566e+003;2.9001281738e+003;2.8958974609e+003;
4.3750000000e-001;3.1473076172e+003;2.9000000000e+003;2.9239743652e+003;2.9802563477e+003;2.9101281738e+003;2.9626923828e+003;2.9732050781e+003;2.9569230957e+003;2.9861538086e+003;2.9762819824e+003;2.9229487305e+003;2.9696154785e+003;2.9406411133e+003;2.9455129395e+003;
4.4531250000e-001;3.1705129395e+003;2.9275642090e+003;2.9500000000e+003;3.0032050781e+003;2.9353845215e+003;2.9862819824e+003;2.9979487305e+003;2.9783332520e+003;3.0094870605e+003;3.0015385742e+003;2.9439743652e+003;2.9925642090e+003;2.9638461914e+003;2.9675642090e+003;
4.5312500000e-001;3.1701281738e+003;2.9296154785e+003;2.9517949219e+003;3.0016667480e+003;2.9361538086e+003;2.9879487305e+003;3.0007692871e+003;2.9761538086e+003;3.0080769043e+003;3.0011538086e+003;2.9450000000e+003;2.9924357910e+003;2.9646154785e+003;2.9648718262e+003;
4.6093750000e-001;3.1607692871e+003;2.9206411133e+003;2.9420512695e+003;2.9905129395e+003;2.9274357910e+003;2.9815385742e+003;2.9944870605e+003;2.9639743652e+003;2.9955129395e+003;2.9887180176e+003;2.9394870605e+003;2.9825642090e+003;2.9561538086e+003;2.9525642090e+003;
4.6875000000e-001;3.2374357910e+003;3.0016667480e+003;3.0138461914e+003;3.0652563477e+003;3.0071794434e+003;3.0602563477e+003;3.0650000000e+003;3.0275642090e+003;3.0597436523e+003;3.0624357910e+003;3.0156411133e+003;3.0593588867e+003;3.0262819824e+003;3.0255129395e+003;
4.7656250000e-001;3.2280769043e+003;2.9953845215e+003;3.0074357910e+003;3.0579487305e+003;2.9991025391e+003;3.0508974609e+003;3.0562819824e+003;3.0169230957e+003;3.0448718262e+003;3.0511538086e+003;3.0012819824e+003;3.0502563477e+003;3.0160256348e+003;3.0167949219e+003;
4.8437500000e-001;3.2107692871e+003;2.9784614258e+003;2.9880769043e+003;3.0370512695e+003;2.9811538086e+003;3.0244870605e+003;3.0344870605e+003;2.9910256348e+003;3.0062819824e+003;3.0232050781e+003;2.9834614258e+003;3.0243588867e+003;2.9994870605e+003;2.9966667480e+003;
4.9218750000e-001;3.2628205566e+003;3.0244870605e+003;3.0370512695e+003;3.0776923828e+003;3.0235898438e+003;3.0614101563e+003;3.0697436523e+003;3.0217949219e+003;3.0429487305e+003;3.0679487305e+003;3.0306411133e+003;3.0769230957e+003;3.0460256348e+003;3.0480769043e+003;
5.0000000000e-001;3.3025642090e+003;3.0662819824e+003;3.0755129395e+003;3.1152563477e+003;3.0605129395e+003;3.0948718262e+003;3.1052563477e+003;3.0614101563e+003;3.0814101563e+003;3.1088461914e+003;3.0706411133e+003;3.1183332520e+003;3.0885898438e+003;3.0878205566e+003;
5.0781250000e-001;3.4175642090e+003;3.1883332520e+003;3.1938461914e+003;3.2264101563e+003;3.1756411133e+003;3.1906411133e+003;3.2137180176e+003;3.1984614258e+003;3.2162819824e+003;3.2456411133e+003;3.2082050781e+003;3.2501281738e+003;3.2153845215e+003;3.2150000000e+003;
5.1562500000e-001;3.4350000000e+003;3.2078205566e+003;3.2164101563e+003;3.2429487305e+003;3.1975642090e+003;3.2079487305e+003;3.2319230957e+003;3.2252563477e+003;3.2448718262e+003;3.2732050781e+003;3.2332050781e+003;3.2752563477e+003;3.2376923828e+003;3.2388461914e+003;
5.2343750000e-001;3.4253845215e+003;3.2061538086e+003;3.2161538086e+003;3.2357692871e+003;3.1948718262e+003;3.2058974609e+003;3.2267949219e+003;3.2320512695e+003;3.2534614258e+003;3.2798718262e+003;3.2291025391e+003;3.2757692871e+003;3.2402563477e+003;3.2362819824e+003;
5.3125000000e-001;3.4051281738e+003;3.1911538086e+003;3.1988461914e+003;3.2188461914e+003;3.1741025391e+003;3.1883332520e+003;3.2085898438e+003;3.2153845215e+003;3.2361538086e+003;3.2615385742e+003;3.2078205566e+003;3.2567949219e+003;3.2226923828e+003;3.2160256348e+003;
5.3906250000e-001;3.4341025391e+003;3.2314101563e+003;3.2333332520e+003;3.2526923828e+003;3.2062819824e+003;3.2169230957e+003;3.2405129395e+003;3.2362819824e+003;3.2643588867e+003;3.2846154785e+003;3.2380769043e+003;3.2807692871e+003;3.2420512695e+003;3.2428205566e+003;
5.4687500000e-001;3.4447436523e+003;3.2432050781e+003;3.2474357910e+003;3.2655129395e+003;3.2228205566e+003;3.2339743652e+003;3.2553845215e+003;3.2474357910e+003;3.2793588867e+003;3.2985898438e+003;3.2517949219e+003;3.2947436523e+003;3.2520512695e+003;3.2562819824e+003;
5.5468750000e-001;3.3723076172e+003;3.1711538086e+003;3.1802563477e+003;3.2060256348e+003;3.1617949219e+003;3.1861538086e+003;3.2042307129e+003;3.1793588867e+003;3.2070512695e+003;3.2293588867e+003;3.1774357910e+003;3.2316667480e+003;3.1876923828e+003;3.1905129395e+003;
5.6250000000e-001;3.3843588867e+003;3.1867949219e+003;3.1896154785e+003;3.2196154785e+003;3.1776923828e+003;3.1998718262e+003;3.2192307129e+003;3.1893588867e+003;3.2148718262e+003;3.2394870605e+003;3.1888461914e+003;3.2389743652e+003;3.2028205566e+003;3.2015385742e+003;
5.7031250000e-001;3.4346154785e+003;3.2452563477e+003;3.2406411133e+003;3.2726923828e+003;3.2406411133e+003;3.2579487305e+003;3.2735898438e+003;3.2398718262e+003;3.2671794434e+003;3.2946154785e+003;3.2458974609e+003;3.2857692871e+003;3.2605129395e+003;3.2543588867e+003;
5.7812500000e-001;3.4352563477e+003;3.2480769043e+003;3.2452563477e+003;3.2764101563e+003;3.2473076172e+003;3.2653845215e+003;3.2778205566e+003;3.2421794434e+003;3.2724357910e+003;3.2993588867e+003;3.2497436523e+003;3.2902563477e+003;3.2638461914e+003;3.2580769043e+003;
5.8593750000e-001;3.4258974609e+003;3.2406411133e+003;3.2387180176e+003;3.2700000000e+003;3.2420512695e+003;3.2607692871e+003;3.2723076172e+003;3.2330769043e+003;3.2662819824e+003;3.2928205566e+003;3.2415385742e+003;3.2847436523e+003;3.2557692871e+003;3.2502563477e+003;
5.9375000000e-001;3.4805129395e+003;3.3066667480e+003;3.2880769043e+003;3.3248718262e+003;3.3037180176e+003;3.3117949219e+003;3.3220512695e+003;3.2855129395e+003;3.3102563477e+003;3.3510256348e+003;3.2989743652e+003;3.3338461914e+003;3.3157692871e+003;3.3021794434e+003;
6.0156250000e-001;3.4929487305e+003;3.3232050781e+003;3.3020512695e+003;3.3400000000e+003;3.3171794434e+003;3.3229487305e+003;3.3305129395e+003;3.3014101563e+003;3.3232050781e+003;3.3691025391e+003;3.3147436523e+003;3.3489743652e+003;3.3320512695e+003;3.3182050781e+003;
6.0937500000e-001;3.4908974609e+003;3.3330769043e+003;3.3065385742e+003;3.3457692871e+003;3.3142307129e+003;3.3128205566e+003;3.3260256348e+003;3.3092307129e+003;3.3256411133e+003;3.3819230957e+003;3.3248718262e+003;3.3614101563e+003;3.3384614258e+003;3.3269230957e+003;
6.1718750000e-001;3.5026923828e+003;3.3464101563e+003;3.3193588867e+003;3.3570512695e+003;3.3267949219e+003;3.3224357910e+003;3.3374357910e+003;3.3212819824e+003;3.3378205566e+003;3.3929487305e+003;3.3375642090e+003;3.3741025391e+003;3.3520512695e+003;3.3382050781e+003;
6.2500000000e-001;3.5456411133e+003;3.3914101563e+003;3.3673076172e+003;3.3987180176e+003;3.3761538086e+003;3.3652563477e+003;3.3779487305e+003;3.3710256348e+003;3.3932050781e+003;3.4423076172e+003;3.3835898438e+003;3.4223076172e+003;3.4025642090e+003;3.3847436523e+003;
6.3281250000e-001;3.5185898438e+003;3.3610256348e+003;3.3547436523e+003;3.3721794434e+003;3.3376923828e+003;3.3315385742e+003;3.3496154785e+003;3.3493588867e+003;3.3841025391e+003;3.4261538086e+003;3.3664101563e+003;3.4133332520e+003;3.3823076172e+003;3.3751281738e+003;
6.4062500000e-001;3.5324357910e+003;3.3756411133e+003;3.3675642090e+003;3.3841025391e+003;3.3491025391e+003;3.3419230957e+003;3.3626923828e+003;3.3605129395e+003;3.3956411133e+003;3.4384614258e+003;3.3796154785e+003;3.4225642090e+003;3.3951281738e+003;3.3842307129e+003;
6.4843750000e-001;3.5164101563e+003;3.3632050781e+003;3.3539743652e+003;3.3697436523e+003;3.3414101563e+003;3.3337180176e+003;3.3553845215e+003;3.3479487305e+003;3.3807692871e+003;3.4194870605e+003;3.3593588867e+003;3.4028205566e+003;3.3755129395e+003;3.3611538086e+003;
6.5625000000e-001;3.4871794434e+003;3.3361538086e+003;3.3282050781e+003;3.3437180176e+003;3.3201281738e+003;3.3151281738e+003;3.3361538086e+003;3.3229487305e+003;3.3542307129e+003;3.3887180176e+003;3.3271794434e+003;3.3752563477e+003;3.3438461914e+003;3.3321794434e+003;
6.6406250000e-001;3.4750000000e+003;3.3316667480e+003;3.3184614258e+003;3.3430769043e+003;3.3265385742e+003;3.3379487305e+003;3.3556411133e+003;3.3242307129e+003;3.3541025391e+003;3.3817949219e+003;3.3137180176e+003;3.3644870605e+003;3.3300000000e+003;3.3212819824e+003;
6.7187500000e-001;3.4851281738e+003;3.3426923828e+003;3.3273076172e+003;3.3556411133e+003;3.3397436523e+003;3.3543588867e+003;3.3715385742e+003;3.3371794434e+003;3.3682050781e+003;3.3934614258e+003;3.3251281738e+003;3.3733332520e+003;3.3405129395e+003;3.3287180176e+003;
6.7968750000e-001;3.5085898438e+003;3.3710256348e+003;3.3544870605e+003;3.3758974609e+003;3.3698718262e+003;3.3798718262e+003;3.3951281738e+003;3.3610256348e+003;3.3934614258e+003;3.4191025391e+003;3.3539743652e+003;3.3975642090e+003;3.3638461914e+003;3.3506411133e+003;
6.8750000000e-001;3.5107692871e+003;3.3761538086e+003;3.3583332520e+003;3.3776923828e+003;3.3712819824e+003;3.3807692871e+003;3.3952563477e+003;3.3624357910e+003;3.3915385742e+003;3.4238461914e+003;3.3585898438e+003;3.4015385742e+003;3.3692307129e+003;3.3550000000e+003;
6.9531250000e-001;3.5044870605e+003;3.3733332520e+003;3.3519230957e+003;3.3757692871e+003;3.3596154785e+003;3.3700000000e+003;3.3842307129e+003;3.3510256348e+003;3.3726923828e+003;3.4180769043e+003;3.3520512695e+003;3.3932050781e+003;3.3726923828e+003;3.3485898438e+003;
7.0312500000e-001;3.5119230957e+003;3.3820512695e+003;3.3588461914e+003;3.3848718262e+003;3.3670512695e+003;3.3737180176e+003;3.3874357910e+003;3.3557692871e+003;3.3756411133e+003;3.4242307129e+003;3.3580769043e+003;3.3975642090e+003;3.3834614258e+003;3.3546154785e+003;
7.1093750000e-001;3.5274357910e+003;3.3991025391e+003;3.3744870605e+003;3.4001281738e+003;3.3847436523e+003;3.3850000000e+003;3.3970512695e+003;3.3698718262e+003;3.3891025391e+003;3.4389743652e+003;3.3726923828e+003;3.4114101563e+003;3.3993588867e+003;3.3697436523e+003;
7.1875000000e-001;3.5407692871e+003;3.4144870605e+003;3.3887180176e+003;3.4123076172e+003;3.4001281738e+003;3.3946154785e+003;3.4046154785e+003;3.3832050781e+003;3.4023076172e+003;3.4523076172e+003;3.3861538086e+003;3.4260256348e+003;3.4102563477e+003;3.3848718262e+003;
7.2656250000e-001;3.5714101563e+003;3.4573076172e+003;3.4179487305e+003;3.4462819824e+003;3.4246154785e+003;3.4103845215e+003;3.4283332520e+003;3.4087180176e+003;3.4326923828e+003;3.4855129395e+003;3.4250000000e+003;3.4638461914e+003;3.4420512695e+003;3.4224357910e+003;
7.3437500000e-001;3.6470512695e+003;3.5434614258e+003;3.5052563477e+003;3.5233332520e+003;3.5060256348e+003;3.4776923828e+003;3.4965385742e+003;3.4908974609e+003;3.5256411133e+003;3.5723076172e+003;3.5070512695e+003;3.5500000000e+003;3.5282050781e+003;3.5069230957e+003;
7.4218750000e-001;3.7003845215e+003;3.5971794434e+003;3.5587180176e+003;3.5760256348e+003;3.5585898438e+003;3.5265385742e+003;3.5467949219e+003;3.5466667480e+003;3.5826923828e+003;3.6271794434e+003;3.5597436523e+003;3.6034614258e+003;3.5767949219e+003;3.5589743652e+003;
7.5000000000e-001;3.7651281738e+003;3.6678205566e+003;3.6339743652e+003;3.6460256348e+003;3.6284614258e+003;3.5966667480e+003;3.6189743652e+003;3.6234614258e+003;3.6579487305e+003;3.7052563477e+003;3.6350000000e+003;3.6753845215e+003;3.6430769043e+003;3.6234614258e+003;
7.5781250000e-001;3.7344870605e+003;3.6482050781e+003;3.6175642090e+003;3.6224357910e+003;3.6266667480e+003;3.5992307129e+003;3.6223076172e+003;3.6071794434e+003;3.6420512695e+003;3.6905129395e+003;3.6182050781e+003;3.6548718262e+003;3.6306411133e+003;3.6037180176e+003;
7.6562500000e-001;3.7148718262e+003;3.6325642090e+003;3.6010256348e+003;3.6098718262e+003;3.6142307129e+003;3.5896154785e+003;3.6125642090e+003;3.5941025391e+003;3.6288461914e+003;3.6751281738e+003;3.6008974609e+003;3.6396154785e+003;3.6139743652e+003;3.5865385742e+003;
7.7343750000e-001;3.6724357910e+003;3.5985898438e+003;3.5646154785e+003;3.5820512695e+003;3.5847436523e+003;3.5687180176e+003;3.5861538086e+003;3.5620512695e+003;3.5955129395e+003;3.6424357910e+003;3.5660256348e+003;3.6021794434e+003;3.5783332520e+003;3.5475642090e+003;
7.8125000000e-001;3.6643588867e+003;3.5937180176e+003;3.5564101563e+003;3.5776923828e+003;3.5817949219e+003;3.5684614258e+003;3.5830769043e+003;3.5583332520e+003;3.5907692871e+003;3.6388461914e+003;3.5617949219e+003;3.5937180176e+003;3.5737180176e+003;3.5414101563e+003;
7.8906250000e-001;3.6360256348e+003;3.5708974609e+003;3.5297436523e+003;3.5544870605e+003;3.5597436523e+003;3.5469230957e+003;3.5639743652e+003;3.5434614258e+003;3.5687180176e+003;3.6157692871e+003;3.5333332520e+003;3.5705129395e+003;3.5466667480e+003;3.5229487305e+003;
7.9687500000e-001;3.6362819824e+003;3.5712819824e+003;3.5310256348e+003;3.5535898438e+003;3.5571794434e+003;3.5420512695e+003;3.5611538086e+003;3.5400000000e+003;3.5641025391e+003;3.6124357910e+003;3.5288461914e+003;3.5700000000e+003;3.5443588867e+003;3.5223076172e+003;
8.0468750000e-001;3.6658974609e+003;3.5979487305e+003;3.5573076172e+003;3.5717949219e+003;3.5707692871e+003;3.5561538086e+003;3.5746154785e+003;3.5507692871e+003;3.5761538086e+003;3.6320512695e+003;3.5543588867e+003;3.5947436523e+003;3.5715385742e+003;3.5474357910e+003;
8.1250000000e-001;3.6565385742e+003;3.5874357910e+003;3.5493588867e+003;3.5612819824e+003;3.5589743652e+003;3.5471794434e+003;3.5646154785e+003;3.5430769043e+003;3.5667949219e+003;3.6233332520e+003;3.5500000000e+003;3.5891025391e+003;3.5637180176e+003;3.5406411133e+003;
8.2031250000e-001;3.6455129395e+003;3.5803845215e+003;3.5458974609e+003;3.5526923828e+003;3.5505129395e+003;3.5369230957e+003;3.5546154785e+003;3.5437180176e+003;3.5615385742e+003;3.6211538086e+003;3.5529487305e+003;3.5880769043e+003;3.5602563477e+003;3.5378205566e+003;
8.2812500000e-001;3.6448718262e+003;3.5826923828e+003;3.5470512695e+003;3.5537180176e+003;3.5506411133e+003;3.5338461914e+003;3.5514101563e+003;3.5451281738e+003;3.5620512695e+003;3.6248718262e+003;3.5551281738e+003;3.5898718262e+003;3.5635898438e+003;3.5405129395e+003;
8.3593750000e-001;3.6362819824e+003;3.5739743652e+003;3.5374357910e+003;3.5458974609e+003;3.5400000000e+003;3.5211538086e+003;3.5385898438e+003;3.5324357910e+003;3.5512819824e+003;3.6165385742e+003;3.5441025391e+003;3.5810256348e+003;3.5567949219e+003;3.5332050781e+003;
8.4375000000e-001;3.6216667480e+003;3.5558974609e+003;3.5201281738e+003;3.5305129395e+003;3.5216667480e+003;3.5015385742e+003;3.5201281738e+003;3.5088461914e+003;3.5321794434e+003;3.5969230957e+003;3.5241025391e+003;3.5641025391e+003;3.5419230957e+003;3.5174357910e+003;
8.5156250000e-001;3.6188461914e+003;3.5470512695e+003;3.5238461914e+003;3.5291025391e+003;3.5188461914e+003;3.4916667480e+003;3.5166667480e+003;3.5125642090e+003;3.5407692871e+003;3.5944870605e+003;3.5323076172e+003;3.5701281738e+003;3.5482050781e+003;3.5208974609e+003;
8.5937500000e-001;3.6107692871e+003;3.5423076172e+003;3.5170512695e+003;3.5315385742e+003;3.5234614258e+003;3.5008974609e+003;3.5215385742e+003;3.5151281738e+003;3.5456411133e+003;3.5944870605e+003;3.5220512695e+003;3.5684614258e+003;3.5401281738e+003;3.5088461914e+003;
8.6718750000e-001;3.6284614258e+003;3.5617949219e+003;3.5373076172e+003;3.5489743652e+003;3.5447436523e+003;3.5212819824e+003;3.5426923828e+003;3.5343588867e+003;3.5670512695e+003;3.6116667480e+003;3.5425642090e+003;3.5848718262e+003;3.5583332520e+003;3.5264101563e+003;
8.7500000000e-001;3.6591025391e+003;3.5934614258e+003;3.5705129395e+003;3.5779487305e+003;3.5780769043e+003;3.5552563477e+003;3.5775642090e+003;3.5717949219e+003;3.6001281738e+003;3.6388461914e+003;3.5735898438e+003;3.6146154785e+003;3.5816667480e+003;3.5575642090e+003;
8.8281250000e-001;3.6900000000e+003;3.6283332520e+003;3.5971794434e+003;3.6108974609e+003;3.6185898438e+003;3.6032050781e+003;3.6250000000e+003;3.6080769043e+003;3.6356411133e+003;3.6747436523e+003;3.5953845215e+003;3.6497436523e+003;3.6075642090e+003;3.5757692871e+003;
8.9062500000e-001;3.7007692871e+003;3.6380769043e+003;3.6078205566e+003;3.6185898438e+003;3.6315385742e+003;3.6142307129e+003;3.6379487305e+003;3.6156411133e+003;3.6420512695e+003;3.6801281738e+003;3.6067949219e+003;3.6565385742e+003;3.6215385742e+003;3.5837180176e+003;
8.9843750000e-001;3.7761538086e+003;3.7133332520e+003;3.6814101563e+003;3.6882050781e+003;3.7082050781e+003;3.6839743652e+003;3.7084614258e+003;3.6874357910e+003;3.7076923828e+003;3.7510256348e+003;3.6837180176e+003;3.7271794434e+003;3.7005129395e+003;3.6579487305e+003;
9.0625000000e-001;3.7958974609e+003;3.7351281738e+003;3.7025642090e+003;3.7103845215e+003;3.7271794434e+003;3.7032050781e+003;3.7260256348e+003;3.7107692871e+003;3.7282050781e+003;3.7757692871e+003;3.7046154785e+003;3.7520512695e+003;3.7207692871e+003;3.6802563477e+003;
9.1406250000e-001;3.7660256348e+003;3.7157692871e+003;3.6825642090e+003;3.6948718262e+003;3.7011538086e+003;3.6802563477e+003;3.7019230957e+003;3.6829487305e+003;3.6961538086e+003;3.7506411133e+003;3.6779487305e+003;3.7356411133e+003;3.6938461914e+003;3.6583332520e+003;
9.2187500000e-001;3.8388461914e+003;3.7926923828e+003;3.7574357910e+003;3.7665385742e+003;3.7810256348e+003;3.7508974609e+003;3.7746154785e+003;3.7476923828e+003;3.7597436523e+003;3.8200000000e+003;3.7535898438e+003;3.8067949219e+003;3.7689743652e+003;3.7330769043e+003;
9.2968750000e-001;4.2633334961e+003;4.2357690430e+003;4.1950000000e+003;4.1802563477e+003;4.2212822266e+003;4.1475639648e+003;4.1855126953e+003;4.1626923828e+003;4.1747436523e+003;4.2573076172e+003;4.1944873047e+003;4.2420512695e+003;4.2032050781e+003;4.1688461914e+003;
9.3750000000e-001;4.3357690430e+003;4.3180771484e+003;4.2733334961e+003;4.2521796875e+003;4.2943588867e+003;4.2135898438e+003;4.2535898438e+003;4.2424360352e+003;4.2575639648e+003;4.3444873047e+003;4.2752563477e+003;4.3226923828e+003;4.2829487305e+003;4.2470512695e+003;
9.4531250000e-001;4.2692309570e+003;4.2696152344e+003;4.2202563477e+003;4.1948715820e+003;4.2333334961e+003;4.1600000000e+003;4.1928203125e+003;4.1967949219e+003;4.2182050781e+003;4.3074360352e+003;4.2307690430e+003;4.2746152344e+003;4.2366665039e+003;4.1952563477e+003;
9.5312500000e-001;4.1933334961e+003;4.1971796875e+003;4.1512822266e+003;4.1256411133e+003;4.1625639648e+003;4.0971796875e+003;4.1252563477e+003;4.1282050781e+003;4.1521796875e+003;4.2373076172e+003;4.1633334961e+003;4.2064101563e+003;4.1687177734e+003;4.1269228516e+003;
9.6093750000e-001;4.1498715820e+003;4.1539741211e+003;4.1134614258e+003;4.0865385742e+003;4.1234614258e+003;4.0615385742e+003;4.0878205566e+003;4.0891025391e+003;4.1150000000e+003;4.1935898438e+003;4.1235898438e+003;4.1676923828e+003;4.1292309570e+003;4.0894870605e+003;
9.6875000000e-001;4.1543588867e+003;4.1580771484e+003;4.1216665039e+003;4.0921794434e+003;4.1297436523e+003;4.0653845215e+003;4.0930769043e+003;4.0970512695e+003;4.1243588867e+003;4.1969228516e+003;4.1285898438e+003;4.1742309570e+003;4.1342309570e+003;4.0982050781e+003;
9.7656250000e-001;4.1367949219e+003;4.1453847656e+003;4.1144873047e+003;4.0789743652e+003;4.1143588867e+003;4.0491025391e+003;4.0808974609e+003;4.1021796875e+003;4.1347436523e+003;4.1961538086e+003;4.1258974609e+003;4.1678203125e+003;4.1241025391e+003;4.0920512695e+003;
9.8437500000e-001;4.0729487305e+003;4.0974360352e+003;4.0592307129e+003;4.0323076172e+003;4.0779487305e+003;4.0253845215e+003;4.0535898438e+003;4.0655129395e+003;4.0915385742e+003;4.1447436523e+003;4.0726923828e+003;4.1094873047e+003;4.0694870605e+003;4.0366667480e+003;
9.9218750000e-001;4.0624357910e+003;4.0933332520e+003;4.0491025391e+003;4.0258974609e+003;4.0705129395e+003;4.0221794434e+003;4.0508974609e+003;4.0576923828e+003;4.0798718262e+003;4.1351284180e+003;4.0611538086e+003;4.1024360352e+003;4.0556411133e+003;4.0276923828e+003;
1.0000000000e+000;4.0793588867e+003;4.1175639648e+003;4.0652563477e+003;4.0485898438e+003;4.0978203125e+003;4.0514101563e+003;4.0819230957e+003;4.0779487305e+003;4.0966665039e+003;4.1551284180e+003;4.0824357910e+003;4.1203847656e+003;4.0808974609e+003;4.0475642090e+003;
1.0078125000e+000;4.0929487305e+003;4.1310258789e+003;4.0794870605e+003;4.0635898438e+003;4.1167949219e+003;4.0701281738e+003;4.1003847656e+003;4.0964101563e+003;4.1147436523e+003;4.1726923828e+003;4.1005126953e+003;4.1321796875e+003;4.1030771484e+003;4.0646154785e+003;
1.0156250000e+000;4.0396154785e+003;4.0761538086e+003;4.0316667480e+003;4.0142307129e+003;4.0678205566e+003;4.0284614258e+003;4.0503845215e+003;4.0503845215e+003;4.0652563477e+003;4.1221796875e+003;4.0505129395e+003;4.0821794434e+003;4.0541025391e+003;4.0243588867e+003;
1.0234375000e+000;3.9743588867e+003;4.0116667480e+003;3.9706411133e+003;3.9594870605e+003;3.9996154785e+003;3.9598718262e+003;3.9815385742e+003;3.9633332520e+003;3.9755129395e+003;4.0358974609e+003;3.9834614258e+003;4.0238461914e+003;3.9825642090e+003;3.9589743652e+003;
1.0312500000e+000;3.9723076172e+003;4.0064101563e+003;3.9688461914e+003;3.9578205566e+003;3.9920512695e+003;3.9469230957e+003;3.9715385742e+003;3.9501281738e+003;3.9651281738e+003;4.0256411133e+003;3.9798718262e+003;4.0205129395e+003;3.9798718262e+003;3.9561538086e+003;
1.0390625000e+000;4.0158974609e+003;4.0489743652e+003;4.0132050781e+003;3.9976923828e+003;4.0187180176e+003;3.9570512695e+003;3.9789743652e+003;3.9757692871e+003;3.9984614258e+003;4.0680769043e+003;4.0210256348e+003;4.0620512695e+003;4.0242307129e+003;4.0033332520e+003;
1.0468750000e+000;3.9973076172e+003;4.0293588867e+003;3.9964101563e+003;3.9802563477e+003;3.9965385742e+003;3.9346154785e+003;3.9543588867e+003;3.9576923828e+003;3.9797436523e+003;4.0519230957e+003;4.0046154785e+003;4.0461538086e+003;4.0065385742e+003;3.9864101563e+003;
1.0546875000e+000;3.9608974609e+003;3.9894870605e+003;3.9615385742e+003;3.9444870605e+003;3.9571794434e+003;3.8961538086e+003;3.9165385742e+003;3.9219230957e+003;3.9438461914e+003;4.0156411133e+003;3.9705129395e+003;4.0117949219e+003;3.9710256348e+003;3.9508974609e+003;
1.0625000000e+000;3.9083332520e+003;3.9294870605e+003;3.9085898438e+003;3.8875642090e+003;3.9021794434e+003;3.8403845215e+003;3.8676923828e+003;3.8730769043e+003;3.9012819824e+003;3.9620512695e+003;3.9180769043e+003;3.9588461914e+003;3.9221794434e+003;3.8998718262e+003;
1.0703125000e+000;3.8814101563e+003;3.9029487305e+003;3.8801281738e+003;3.8606411133e+003;3.8798718262e+003;3.8253845215e+003;3.8464101563e+003;3.8639743652e+003;3.8929487305e+003;3.9378205566e+003;3.8867949219e+003;3.9350000000e+003;3.8946154785e+003;3.8770512695e+003;
1.0781250000e+000;3.8796154785e+003;3.9024357910e+003;3.8771794434e+003;3.8623076172e+003;3.8800000000e+003;3.8289743652e+003;3.8469230957e+003;3.8643588867e+003;3.8900000000e+003;3.9362819824e+003;3.8876923828e+003;3.9316667480e+003;3.8906411133e+003;3.8742307129e+003;
1.0859375000e+000;3.8943588867e+003;3.9198718262e+003;3.8912819824e+003;3.8801281738e+003;3.8988461914e+003;3.8478205566e+003;3.8656411133e+003;3.8805129395e+003;3.9050000000e+003;3.9542307129e+003;3.9073076172e+003;3.9435898438e+003;3.9066667480e+003;3.8880769043e+003;
1.0937500000e+000;3.9230769043e+003;3.9529487305e+003;3.9208974609e+003;3.9106411133e+003;3.9344870605e+003;3.8810256348e+003;3.9014101563e+003;3.9128205566e+003;3.9382050781e+003;3.9896154785e+003;3.9406411133e+003;3.9707692871e+003;3.9402563477e+003;3.9175642090e+003;
1.1015625000e+000;4.0473076172e+003;4.0934614258e+003;4.0514101563e+003;4.0452563477e+003;4.0846154785e+003;4.0361538086e+003;4.0541025391e+003;4.0589743652e+003;4.0733332520e+003;4.1288461914e+003;4.0608974609e+003;4.0979487305e+003;4.0730769043e+003;4.0448718262e+003;
1.1093750000e+000;4.0493588867e+003;4.0946154785e+003;4.0532050781e+003;4.0524357910e+003;4.0870512695e+003;4.0407692871e+003;4.0578205566e+003;4.0638461914e+003;4.0747436523e+003;4.1326923828e+003;4.0643588867e+003;4.0994873047e+003;4.0741025391e+003;4.0458974609e+003;
1.1171875000e+000;3.9556411133e+003;3.9969230957e+003;3.9620512695e+003;3.9619230957e+003;3.9969230957e+003;3.9637180176e+003;3.9853845215e+003;3.9757692871e+003;3.9894870605e+003;4.0366667480e+003;3.9751281738e+003;4.0105129395e+003;3.9834614258e+003;3.9614101563e+003;
1.1250000000e+000;3.9756411133e+003;4.0189743652e+003;3.9807692871e+003;3.9729487305e+003;4.0151281738e+003;3.9787180176e+003;3.9921794434e+003;3.9850000000e+003;3.9984614258e+003;4.0510256348e+003;3.9991025391e+003;4.0375642090e+003;4.0105129395e+003;3.9851281738e+003;
1.1328125000e+000;3.9685898438e+003;4.0083332520e+003;3.9743588867e+003;3.9660256348e+003;4.0015385742e+003;3.9614101563e+003;3.9728205566e+003;3.9675642090e+003;3.9807692871e+003;4.0408974609e+003;3.9916667480e+003;4.0303845215e+003;4.0020512695e+003;3.9767949219e+003;
1.1406250000e+000;3.9810256348e+003;4.0176923828e+003;3.9830769043e+003;3.9712819824e+003;4.0032050781e+003;3.9514101563e+003;3.9608974609e+003;3.9502563477e+003;3.9706411133e+003;4.0367949219e+003;3.9941025391e+003;4.0297436523e+003;3.9966667480e+003;3.9812819824e+003;
1.1484375000e+000;4.0564101563e+003;4.0926923828e+003;4.0570512695e+003;4.0405129395e+003;4.0703845215e+003;4.0087180176e+003;4.0200000000e+003;4.0166667480e+003;4.0326923828e+003;4.1026923828e+003;4.0675642090e+003;4.1071796875e+003;4.0683332520e+003;4.0535898438e+003;
1.1562500000e+000;4.0871794434e+003;4.1239741211e+003;4.0894870605e+003;4.0712819824e+003;4.1005126953e+003;4.0342307129e+003;4.0493588867e+003;4.0469230957e+003;4.0620512695e+003;4.1362822266e+003;4.0998715820e+003;4.1382050781e+003;4.1074360352e+003;4.0850000000e+003;
1.1640625000e+000;4.1161538086e+003;4.1552563477e+003;4.1205126953e+003;4.1007690430e+003;4.1317949219e+003;4.0628205566e+003;4.0801281738e+003;4.0788461914e+003;4.0952563477e+003;4.1726923828e+003;4.1330771484e+003;4.1679487305e+003;4.1469228516e+003;4.1169228516e+003;
1.1718750000e+000;4.1364101563e+003;4.1797436523e+003;4.1471796875e+003;4.1235898438e+003;4.1592309570e+003;4.0915385742e+003;4.1071796875e+003;4.1134614258e+003;4.1347436523e+003;4.2091025391e+003;4.1665385742e+003;4.1958974609e+003;4.1819228516e+003;4.1488461914e+003;
1.1796875000e+000;4.1356411133e+003;4.1810258789e+003;4.1502563477e+003;4.1250000000e+003;4.1602563477e+003;4.0932050781e+003;4.1084614258e+003;4.1202563477e+003;4.1429487305e+003;4.2126923828e+003;4.1712822266e+003;4.2006411133e+003;4.1829487305e+003;4.1530771484e+003;
1.1875000000e+000;4.1398715820e+003;4.1888461914e+003;4.1571796875e+003;4.1320512695e+003;4.1651284180e+003;4.0979487305e+003;4.1144873047e+003;4.1308974609e+003;4.1533334961e+003;4.2203847656e+003;4.1789741211e+003;4.2092309570e+003;4.1870512695e+003;4.1594873047e+003;
1.1953125000e+000;4.1657690430e+003;4.2330771484e+003;4.1933334961e+003;4.1716665039e+003;4.2269228516e+003;4.1726923828e+003;4.1887177734e+003;4.1916665039e+003;4.2061538086e+003;4.2647436523e+003;4.2108974609e+003;4.2416665039e+003;4.2215385742e+003;4.1889741211e+003;
1.2031250000e+000;4.1864101563e+003;4.2567949219e+003;4.2162822266e+003;4.1933334961e+003;4.2553847656e+003;4.2019228516e+003;4.2205126953e+003;4.2232050781e+003;4.2356411133e+003;4.2901284180e+003;4.2364101563e+003;4.2646152344e+003;4.2456411133e+003;4.2129487305e+003;
1.2109375000e+000;4.1848715820e+003;4.2676923828e+003;4.2207690430e+003;4.1998715820e+003;4.2561538086e+003;4.2065385742e+003;4.2332050781e+003;4.2360258789e+003;4.2500000000e+003;4.3033334961e+003;4.2500000000e+003;4.2734614258e+003;4.2524360352e+003;4.2221796875e+003;
1.2187500000e+000;4.1850000000e+003;4.2680771484e+003;4.2211538086e+003;4.2011538086e+003;4.2571796875e+003;4.2076923828e+003;4.2323076172e+003;4.2343588867e+003;4.2503847656e+003;4.3041025391e+003;4.2552563477e+003;4.2733334961e+003;4.2556411133e+003;4.2244873047e+003;
1.2265625000e+000;4.2071796875e+003;4.2861538086e+003;4.2437177734e+003;4.2201284180e+003;4.2819228516e+003;4.2321796875e+003;4.2492309570e+003;4.2503847656e+003;4.2689741211e+003;4.3234614258e+003;4.2793588867e+003;4.2933334961e+003;4.2819228516e+003;4.2460258789e+003;
1.2343750000e+000;4.2711538086e+003;4.3620512695e+003;4.3091025391e+003;4.2839741211e+003;4.3420512695e+003;4.2887177734e+003;4.2957690430e+003;4.2938461914e+003;4.3123076172e+003;4.3824360352e+003;4.3307690430e+003;4.3553847656e+003;4.3446152344e+003;4.3121796875e+003;
1.2421875000e+000;4.2941025391e+003;4.3853847656e+003;4.3348715820e+003;4.3078203125e+003;4.3653847656e+003;4.3074360352e+003;4.3132050781e+003;4.3138461914e+003;4.3319228516e+003;4.4028203125e+003;4.3585898438e+003;4.3794873047e+003;4.3710258789e+003;4.3401284180e+003;
1.2500000000e+000;4.2883334961e+003;4.3764101563e+003;4.3365385742e+003;4.3029487305e+003;4.3576923828e+003;4.2947436523e+003;4.3016665039e+003;4.3010258789e+003;4.3191025391e+003;4.3880771484e+003;4.3588461914e+003;4.3806411133e+003;4.3682050781e+003;4.3430771484e+003;
1.2578125000e+000;4.2738461914e+003;4.3629487305e+003;4.3232050781e+003;4.2894873047e+003;4.3411538086e+003;4.2779487305e+003;4.2856411133e+003;4.2839741211e+003;4.3019228516e+003;4.3715385742e+003;4.3442309570e+003;4.3698715820e+003;4.3526923828e+003;4.3298715820e+003;
1.2656250000e+000;4.2284614258e+003;4.3265385742e+003;4.2817949219e+003;4.2546152344e+003;4.2908974609e+003;4.2315385742e+003;4.2348715820e+003;4.2469228516e+003;4.2605126953e+003;4.3351284180e+003;4.3076923828e+003;4.3375639648e+003;4.3121796875e+003;4.2926923828e+003;
1.2734375000e+000;4.2137177734e+003;4.3105126953e+003;4.2687177734e+003;4.2414101563e+003;4.2737177734e+003;4.2155126953e+003;4.2187177734e+003;4.2325639648e+003;4.2458974609e+003;4.3203847656e+003;4.2955126953e+003;4.3232050781e+003;4.3017949219e+003;4.2829487305e+003;
1.2812500000e+000;4.2305126953e+003;4.3223076172e+003;4.2847436523e+003;4.2526923828e+003;4.2870512695e+003;4.2258974609e+003;4.2346152344e+003;4.2462822266e+003;4.2628203125e+003;4.3365385742e+003;4.3115385742e+003;4.3325639648e+003;4.3214101563e+003;4.3029487305e+003;
1.2890625000e+000;4.2497436523e+003;4.3416665039e+003;4.3044873047e+003;4.2702563477e+003;4.3067949219e+003;4.2441025391e+003;4.2562822266e+003;4.2698715820e+003;4.2873076172e+003;4.3594873047e+003;4.3306411133e+003;4.3503847656e+003;4.3382050781e+003;4.3212822266e+003;
1.2968750000e+000;4.2500000000e+003;4.3517949219e+003;4.3124360352e+003;4.2823076172e+003;4.3153847656e+003;4.2569228516e+003;4.2734614258e+003;4.2920512695e+003;4.3067949219e+003;4.3667949219e+003;4.3314101563e+003;4.3529487305e+003;4.3353847656e+003;4.3224360352e+003;
1.3046875000e+000;4.2621796875e+003;4.3689741211e+003;4.3246152344e+003;4.2983334961e+003;4.3343588867e+003;4.2778203125e+003;4.2943588867e+003;4.3058974609e+003;4.3220512695e+003;4.3806411133e+003;4.3430771484e+003;4.3623076172e+003;4.3516665039e+003;4.3364101563e+003;
1.3125000000e+000;4.2969228516e+003;4.4089741211e+003;4.3593588867e+003;4.3350000000e+003;4.3782050781e+003;4.3233334961e+003;4.3398715820e+003;4.3424360352e+003;4.3601284180e+003;4.4197436523e+003;4.3783334961e+003;4.3952563477e+003;4.3915385742e+003;4.3735898438e+003;
1.3203125000e+000;4.3551284180e+003;4.4721796875e+003;4.4193588867e+003;4.3925639648e+003;4.4453847656e+003;4.3912822266e+003;4.4083334961e+003;4.4046152344e+003;4.4225639648e+003;4.4843588867e+003;4.4383334961e+003;4.4544873047e+003;4.4538461914e+003;4.4343588867e+003;
1.3281250000e+000;4.5897436523e+003;4.7273076172e+003;4.6734614258e+003;4.6306411133e+003;4.7003847656e+003;4.6392309570e+003;4.6566665039e+003;4.6726923828e+003;4.6742309570e+003;4.7508974609e+003;4.6984614258e+003;4.7110258789e+003;4.7055126953e+003;4.6889741211e+003;
1.3359375000e+000;4.5806411133e+003;4.7216665039e+003;4.6675639648e+003;4.6266665039e+003;4.6964101563e+003;4.6374360352e+003;4.6537177734e+003;4.6675639648e+003;4.6669228516e+003;4.7451284180e+003;4.6934614258e+003;4.7067949219e+003;4.6996152344e+003;4.6867949219e+003;
1.3437500000e+000;4.7485898438e+003;4.8979487305e+003;4.8405126953e+003;4.7905126953e+003;4.8811538086e+003;4.8157690430e+003;4.8365385742e+003;4.8310258789e+003;4.8360258789e+003;4.9107690430e+003;4.8597436523e+003;4.8742309570e+003;4.8705126953e+003;4.8616665039e+003;
1.3515625000e+000;5.0356411133e+003;5.2180771484e+003;5.1462822266e+003;5.0832050781e+003;5.1947436523e+003;5.1115385742e+003;5.1348715820e+003;5.1523076172e+003;5.1506411133e+003;5.2421796875e+003;5.1810258789e+003;5.1917949219e+003;5.1876923828e+003;5.1724360352e+003;
1.3593750000e+000;5.0335898438e+003;5.2253847656e+003;5.1511538086e+003;5.0873076172e+003;5.1992309570e+003;5.1138461914e+003;5.1376923828e+003;5.1598715820e+003;5.1561538086e+003;5.2539741211e+003;5.1929487305e+003;5.2025639648e+003;5.1955126953e+003;5.1805126953e+003;
1.3671875000e+000;4.9810258789e+003;5.1883334961e+003;5.1215385742e+003;5.0464101563e+003;5.1496152344e+003;5.0562822266e+003;5.0816665039e+003;5.1144873047e+003;5.1143588867e+003;5.2188461914e+003;5.1641025391e+003;5.1647436523e+003;5.1638461914e+003;5.1448715820e+003;
1.3750000000e+000;4.9873076172e+003;5.2032050781e+003;5.1446152344e+003;5.0623076172e+003;5.1623076172e+003;5.0616665039e+003;5.0891025391e+003;5.1234614258e+003;5.1257690430e+003;5.2302563477e+003;5.1756411133e+003;5.1908974609e+003;5.1835898438e+003;5.1611538086e+003;
1.3828125000e+000;5.0166665039e+003;5.2408974609e+003;5.1762822266e+003;5.0941025391e+003;5.2000000000e+003;5.0956411133e+003;5.1234614258e+003;5.1532050781e+003;5.1576923828e+003;5.2634614258e+003;5.2096152344e+003;5.2247436523e+003;5.2170512695e+003;5.1944873047e+003;
1.3906250000e+000;5.0741025391e+003;5.3089741211e+003;5.2361538086e+003;5.1526923828e+003;5.2665385742e+003;5.1576923828e+003;5.1857690430e+003;5.2105126953e+003;5.2167949219e+003;5.3238461914e+003;5.2728203125e+003;5.2826923828e+003;5.2787177734e+003;5.2556411133e+003;
1.3984375000e+000;5.3333334961e+003;5.5926923828e+003;5.5025639648e+003;5.4094873047e+003;5.5453847656e+003;5.4200000000e+003;5.4520512695e+003;5.4734614258e+003;5.4771796875e+003;5.5900000000e+003;5.5439741211e+003;5.5374360352e+003;5.5474360352e+003;5.5205126953e+003;
1.4062500000e+000;5.5244873047e+003;5.7982050781e+003;5.7011538086e+003;5.5992309570e+003;5.7494873047e+003;5.6121796875e+003;5.6483334961e+003;5.6750000000e+003;5.6747436523e+003;5.7942309570e+003;5.7437177734e+003;5.7325639648e+003;5.7471796875e+003;5.7164101563e+003;
1.4140625000e+000;5.7969228516e+003;6.1020512695e+003;6.0016665039e+003;5.8774360352e+003;6.0508974609e+003;5.9001284180e+003;5.9432050781e+003;5.9876923828e+003;5.9801284180e+003;6.1124360352e+003;6.0426923828e+003;6.0346152344e+003;6.0442309570e+003;6.0091025391e+003;
1.4218750000e+000;5.7950000000e+003;6.1132050781e+003;6.0160258789e+003;5.8833334961e+003;6.0610258789e+003;5.9148715820e+003;5.9580771484e+003;6.0061538086e+003;5.9964101563e+003;6.1302563477e+003;6.0546152344e+003;6.0498715820e+003;6.0534614258e+003;6.0198715820e+003;
1.4296875000e+000;5.4796152344e+003;5.8189741211e+003;5.7279487305e+003;5.5948715820e+003;5.7733334961e+003;5.6596152344e+003;5.6897436523e+003;5.7267949219e+003;5.7121796875e+003;5.8280771484e+003;5.7642309570e+003;5.7570512695e+003;5.7553847656e+003;5.7282050781e+003;
1.4375000000e+000;5.3943588867e+003;5.7366665039e+003;5.6487177734e+003;5.5180771484e+003;5.6957690430e+003;5.5901284180e+003;5.6169228516e+003;5.6515385742e+003;5.6351284180e+003;5.7433334961e+003;5.6829487305e+003;5.6775639648e+003;5.6748715820e+003;5.6493588867e+003;
1.4453125000e+000;5.3439741211e+003;5.6888461914e+003;5.6051284180e+003;5.4760258789e+003;5.6514101563e+003;5.5507690430e+003;5.5766665039e+003;5.6100000000e+003;5.5928203125e+003;5.6951284180e+003;5.6351284180e+003;5.6335898438e+003;5.6302563477e+003;5.6060258789e+003;
1.4531250000e+000;5.3341025391e+003;5.6879487305e+003;5.6079487305e+003;5.4770512695e+003;5.6565385742e+003;5.5565385742e+003;5.5769228516e+003;5.6028203125e+003;5.5933334961e+003;5.6946152344e+003;5.6444873047e+003;5.6352563477e+003;5.6387177734e+003;5.6112822266e+003;
1.4609375000e+000;5.3752563477e+003;5.7341025391e+003;5.6517949219e+003;5.5196152344e+003;5.7035898438e+003;5.6014101563e+003;5.6225639648e+003;5.6460258789e+003;5.6338461914e+003;5.7357690430e+003;5.6876923828e+003;5.6794873047e+003;5.6803847656e+003;5.6564101563e+003;
1.4687500000e+000;5.5767949219e+003;5.9576923828e+003;5.8652563477e+003;5.7167949219e+003;5.9183334961e+003;5.7939741211e+003;5.8232050781e+003;5.8571796875e+003;5.8373076172e+003;5.9534614258e+003;5.8943588867e+003;5.8880771484e+003;5.8903847656e+003;5.8689741211e+003;
1.4765625000e+000;5.5771796875e+003;5.9621796875e+003;5.8742309570e+003;5.7137177734e+003;5.9242309570e+003;5.7971796875e+003;5.8219228516e+003;5.8521796875e+003;5.8353847656e+003;5.9519228516e+003;5.9037177734e+003;5.8915385742e+003;5.8980771484e+003;5.8747436523e+003;
1.4843750000e+000;5.6271796875e+003;6.0206411133e+003;5.9301284180e+003;5.7688461914e+003;5.9825639648e+003;5.8533334961e+003;5.8757690430e+003;5.9066665039e+003;5.8900000000e+003;6.0064101563e+003;5.9606411133e+003;5.9425639648e+003;5.9528203125e+003;5.9287177734e+003;
1.4921875000e+000;5.7552563477e+003;6.1801284180e+003;6.0746152344e+003;5.9119228516e+003;6.1314101563e+003;5.9944873047e+003;6.0153847656e+003;6.0601284180e+003;6.0408974609e+003;6.1679487305e+003;6.1129487305e+003;6.0866665039e+003;6.1058974609e+003;6.0734614258e+003;
1.5000000000e+000;5.7321796875e+003;6.1642309570e+003;6.0652563477e+003;5.8942309570e+003;6.1194873047e+003;5.9843588867e+003;6.0028203125e+003;6.0548715820e+003;6.0397436523e+003;6.1560258789e+003;6.0991025391e+003;6.0728203125e+003;6.1007690430e+003;6.0602563477e+003;
1.5078125000e+000;5.7303847656e+003;6.1652563477e+003;6.0714101563e+003;5.8973076172e+003;6.1229487305e+003;5.9893588867e+003;6.0066665039e+003;6.0601284180e+003;6.0452563477e+003;6.1551284180e+003;6.0993588867e+003;6.0735898438e+003;6.0971796875e+003;6.0633334961e+003;
1.5156250000e+000;5.7303847656e+003;6.1689741211e+003;6.0767949219e+003;5.9008974609e+003;6.1265385742e+003;5.9946152344e+003;6.0119228516e+003;6.0656411133e+003;6.0500000000e+003;6.1562822266e+003;6.1012822266e+003;6.0755126953e+003;6.0943588867e+003;6.0674360352e+003;
1.5234375000e+000;5.7076923828e+003;6.1552563477e+003;6.0561538086e+003;5.8826923828e+003;6.1089741211e+003;5.9833334961e+003;6.0037177734e+003;6.0541025391e+003;6.0366665039e+003;6.1410258789e+003;6.0867949219e+003;6.0574360352e+003;6.0789741211e+003;6.0517949219e+003;
1.5312500000e+000;5.6085898438e+003;6.0656411133e+003;5.9739741211e+003;5.8019228516e+003;6.0292309570e+003;5.9184614258e+003;5.9341025391e+003;5.9769228516e+003;5.9547436523e+003;6.0485898438e+003;5.9997436523e+003;5.9744873047e+003;5.9997436523e+003;5.9671796875e+003;
1.5390625000e+000;5.5975639648e+003;6.0569228516e+003;5.9669228516e+003;5.7951284180e+003;6.0219228516e+003;5.9126923828e+003;5.9239741211e+003;5.9655126953e+003;5.9424360352e+003;6.0338461914e+003;5.9848715820e+003;5.9637177734e+003;5.9848715820e+003;5.9574360352e+003;
1.5468750000e+000;5.5964101563e+003;6.0574360352e+003;5.9651284180e+003;5.7953847656e+003;6.0205126953e+003;5.9114101563e+003;5.9201284180e+003;5.9608974609e+003;5.9375639648e+003;6.0284614258e+003;5.9778203125e+003;5.9608974609e+003;5.9775639648e+003;5.9551284180e+003;
1.5546875000e+000;5.5651284180e+003;6.0230771484e+003;5.9300000000e+003;5.7637177734e+003;5.9829487305e+003;5.8774360352e+003;5.8882050781e+003;5.9250000000e+003;5.9006411133e+003;5.9887177734e+003;5.9434614258e+003;5.9312822266e+003;5.9421796875e+003;5.9216665039e+003;
1.5625000000e+000;5.5310258789e+003;5.9848715820e+003;5.8966665039e+003;5.7297436523e+003;5.9479487305e+003;5.8460258789e+003;5.8589741211e+003;5.8916665039e+003;5.8660258789e+003;5.9502563477e+003;5.9142309570e+003;5.9008974609e+003;5.9112822266e+003;5.8883334961e+003;
1.5703125000e+000;5.4992309570e+003;5.9497436523e+003;5.8658974609e+003;5.6984614258e+003;5.9182050781e+003;5.8193588867e+003;5.8330771484e+003;5.8621796875e+003;5.8351284180e+003;5.9150000000e+003;5.8884614258e+003;5.8719228516e+003;5.8834614258e+003;5.8578203125e+003;
1.5781250000e+000;5.4767949219e+003;5.9280771484e+003;5.8406411133e+003;5.6765385742e+003;5.8866665039e+003;5.7960258789e+003;5.8089741211e+003;5.8451284180e+003;5.8175639648e+003;5.8951284180e+003;5.8679487305e+003;5.8480771484e+003;5.8724360352e+003;5.8373076172e+003;
1.5859375000e+000;5.4951284180e+003;5.9444873047e+003;5.8591025391e+003;5.6950000000e+003;5.9046152344e+003;5.8114101563e+003;5.8251284180e+003;5.8665385742e+003;5.8412822266e+003;5.9196152344e+003;5.8938461914e+003;5.8688461914e+003;5.8973076172e+003;5.8565385742e+003;
1.5937500000e+000;5.4821796875e+003;5.9293588867e+003;5.8487177734e+003;5.6869228516e+003;5.8992309570e+003;5.8078203125e+003;5.8166665039e+003;5.8673076172e+003;5.8385898438e+003;5.9112822266e+003;5.8916665039e+003;5.8646152344e+003;5.8862822266e+003;5.8510258789e+003;
1.6015625000e+000;5.5001284180e+003;5.9489741211e+003;5.8662822266e+003;5.7046152344e+003;5.9189741211e+003;5.8260258789e+003;5.8362822266e+003;5.8861538086e+003;5.8552563477e+003;5.9248715820e+003;5.9026923828e+003;5.8810258789e+003;5.8997436523e+003;5.8658974609e+003;
1.6093750000e+000;5.6198715820e+003;6.0764101563e+003;5.9853847656e+003;5.8232050781e+003;6.0421796875e+003;5.9385898438e+003;5.9534614258e+003;6.0084614258e+003;5.9810258789e+003;6.0471796875e+003;6.0147436523e+003;5.9939741211e+003;6.0217949219e+003;5.9770512695e+003;
1.6171875000e+000;5.7289741211e+003;6.1950000000e+003;6.1046152344e+003;5.9329487305e+003;6.1569228516e+003;6.0491025391e+003;6.0673076172e+003;6.1296152344e+003;6.1060258789e+003;6.1675639648e+003;6.1433334961e+003;6.1084614258e+003;6.1366665039e+003;6.0993588867e+003;
1.6250000000e+000;5.7312822266e+003;6.2015385742e+003;6.1129487305e+003;5.9367949219e+003;6.1633334961e+003;6.0575639648e+003;6.0765385742e+003;6.1371796875e+003;6.1100000000e+003;6.1726923828e+003;6.1487177734e+003;6.1161538086e+003;6.1415385742e+003;6.1052563477e+003;
1.6328125000e+000;5.7525639648e+003;6.2282050781e+003;6.1429487305e+003;5.9633334961e+003;6.1902563477e+003;6.0914101563e+003;6.1106411133e+003;6.1616665039e+003;6.1294873047e+003;6.1956411133e+003;6.1706411133e+003;6.1466665039e+003;6.1721796875e+003;6.1310258789e+003;
1.6406250000e+000;5.7894873047e+003;6.2652563477e+003;6.1805126953e+003;6.0002563477e+003;6.2271796875e+003;6.1303847656e+003;6.1493588867e+003;6.1953847656e+003;6.1639741211e+003;6.2292309570e+003;6.2067949219e+003;6.1841025391e+003;6.2114101563e+003;6.1698715820e+003;
1.6484375000e+000;5.9006411133e+003;6.3839741211e+003;6.3002563477e+003;6.1075639648e+003;6.3442309570e+003;6.2462822266e+003;6.2620512695e+003;6.3124360352e+003;6.2819228516e+003;6.3462822266e+003;6.3303847656e+003;6.3041025391e+003;6.3243588867e+003;6.2944873047e+003;
1.6562500000e+000;5.8912822266e+003;6.3789741211e+003;6.2973076172e+003;6.1028203125e+003;6.3400000000e+003;6.2429487305e+003;6.2583334961e+003;6.3097436523e+003;6.2753847656e+003;6.3439741211e+003;6.3267949219e+003;6.3028203125e+003;6.3182050781e+003;6.2891025391e+003;
1.6640625000e+000;5.8706411133e+003;6.3669228516e+003;6.2858974609e+003;6.0939741211e+003;6.3279487305e+003;6.2321796875e+003;6.2496152344e+003;6.2935898438e+003;6.2556411133e+003;6.3316665039e+003;6.3116665039e+003;6.2903847656e+003;6.3079487305e+003;6.2712822266e+003;
1.6718750000e+000;5.8769228516e+003;6.3767949219e+003;6.2953847656e+003;6.1024360352e+003;6.3353847656e+003;6.2394873047e+003;6.2585898438e+003;6.2989741211e+003;6.2620512695e+003;6.3384614258e+003;6.3187177734e+003;6.2970512695e+003;6.3173076172e+003;6.2792309570e+003;
1.6796875000e+000;5.8592309570e+003;6.3574360352e+003;6.2885898438e+003;6.0808974609e+003;6.3123076172e+003;6.2158974609e+003;6.2383334961e+003;6.2847436523e+003;6.2421796875e+003;6.3138461914e+003;6.3037177734e+003;6.2826923828e+003;6.2969228516e+003;6.2752563477e+003;
1.6875000000e+000;5.8456411133e+003;6.3420512695e+003;6.2778203125e+003;6.0684614258e+003;6.2989741211e+003;6.2020512695e+003;6.2239741211e+003;6.2760258789e+003;6.2284614258e+003;6.3011538086e+003;6.2932050781e+003;6.2703847656e+003;6.2846152344e+003;6.2650000000e+003;
1.6953125000e+000;5.8353847656e+003;6.3312822266e+003;6.2697436523e+003;6.0608974609e+003;6.2901284180e+003;6.1933334961e+003;6.2148715820e+003;6.2712822266e+003;6.2202563477e+003;6.2941025391e+003;6.2874360352e+003;6.2620512695e+003;6.2770512695e+003;6.2561538086e+003;
1.7031250000e+000;5.6939741211e+003;6.1802563477e+003;6.1341025391e+003;5.9221796875e+003;6.1348715820e+003;6.0426923828e+003;6.0655126953e+003;6.1328203125e+003;6.0832050781e+003;6.1383334961e+003;6.1464101563e+003;6.1180771484e+003;6.1339741211e+003;6.1125639648e+003;
1.7109375000e+000;5.6424360352e+003;6.1247436523e+003;6.0816665039e+003;5.8717949219e+003;6.0767949219e+003;5.9891025391e+003;6.0103847656e+003;6.0812822266e+003;6.0308974609e+003;6.0839741211e+003;6.0898715820e+003;6.0643588867e+003;6.0811538086e+003;6.0592309570e+003;
1.7187500000e+000;5.6260258789e+003;6.1037177734e+003;6.0564101563e+003;5.8551284180e+003;6.0589741211e+003;5.9758974609e+003;5.9962822266e+003;6.0597436523e+003;6.0175639648e+003;6.0583334961e+003;6.0632050781e+003;6.0394873047e+003;6.0588461914e+003;6.0382050781e+003;
1.7265625000e+000;5.7534614258e+003;6.2329487305e+003;6.1841025391e+003;5.9808974609e+003;6.1907690430e+003;6.1052563477e+003;6.1315385742e+003;6.1891025391e+003;6.1489741211e+003;6.1907690430e+003;6.1982050781e+003;6.1667949219e+003;6.1965385742e+003;6.1694873047e+003;
1.7343750000e+000;5.7857690430e+003;6.2675639648e+003;6.2179487305e+003;6.0128203125e+003;6.2228203125e+003;6.1392309570e+003;6.1650000000e+003;6.2200000000e+003;6.1808974609e+003;6.2243588867e+003;6.2312822266e+003;6.2003847656e+003;6.2303847656e+003;6.2034614258e+003;
1.7421875000e+000;5.9462822266e+003;6.4393588867e+003;6.3753847656e+003;6.1678203125e+003;6.4001284180e+003;6.3108974609e+003;6.3291025391e+003;6.3816665039e+003;6.3475639648e+003;6.3944873047e+003;6.3997436523e+003;6.3606411133e+003;6.3875639648e+003;6.3683334961e+003;
1.7500000000e+000;5.9701284180e+003;6.4657690430e+003;6.4008974609e+003;6.1932050781e+003;6.4291025391e+003;6.3401284180e+003;6.3562822266e+003;6.4083334961e+003;6.3756411133e+003;6.4221796875e+003;6.4267949219e+003;6.3853847656e+003;6.4128203125e+003;6.3946152344e+003;
1.7578125000e+000;5.9641025391e+003;6.4644873047e+003;6.4023076172e+003;6.1926923828e+003;6.4248715820e+003;6.3378203125e+003;6.3542309570e+003;6.4032050781e+003;6.3711538086e+003;6.4175639648e+003;6.4234614258e+003;6.3794873047e+003;6.4097436523e+003;6.3929487305e+003;
1.7656250000e+000;5.9593588867e+003;6.4626923828e+003;6.4017949219e+003;6.1902563477e+003;6.4208974609e+003;6.3333334961e+003;6.3494873047e+003;6.3982050781e+003;6.3639741211e+003;6.4133334961e+003;6.4211538086e+003;6.3758974609e+003;6.4065385742e+003;6.3907690430e+003;
1.7734375000e+000;5.9038461914e+003;6.4105126953e+003;6.3579487305e+003;6.1401284180e+003;6.3717949219e+003;6.2920512695e+003;6.2994873047e+003;6.3524360352e+003;6.3089741211e+003;6.3624360352e+003;6.3762822266e+003;6.3332050781e+003;6.3617949219e+003;6.3434614258e+003;
1.7812500000e+000;5.8766665039e+003;6.3823076172e+003;6.3305126953e+003;6.1114101563e+003;6.3426923828e+003;6.2669228516e+003;6.2739741211e+003;6.3267949219e+003;6.2834614258e+003;6.3335898438e+003;6.3494873047e+003;6.3055126953e+003;6.3352563477e+003;6.3150000000e+003;
1.7890625000e+000;5.8265385742e+003;6.3305126953e+003;6.2758974609e+003;6.0579487305e+003;6.2855126953e+003;6.2103847656e+003;6.2223076172e+003;6.2747436523e+003;6.2326923828e+003;6.2762822266e+003;6.2967949219e+003;6.2489741211e+003;6.2792309570e+003;6.2619228516e+003;
1.7968750000e+000;5.7869228516e+003;6.2889741211e+003;6.2355126953e+003;6.0200000000e+003;6.2430771484e+003;6.1675639648e+003;6.1810258789e+003;6.2346152344e+003;6.1903847656e+003;6.2321796875e+003;6.2551284180e+003;6.2080771484e+003;6.2370512695e+003;6.2229487305e+003;
1.8046875000e+000;5.6674360352e+003;6.1532050781e+003;6.1134614258e+003;5.9032050781e+003;6.1146152344e+003;6.0438461914e+003;6.0557690430e+003;6.1143588867e+003;6.0638461914e+003;6.1007690430e+003;6.1325639648e+003;6.0862822266e+003;6.1189741211e+003;6.1016665039e+003;
1.8125000000e+000;5.6565385742e+003;6.1370512695e+003;6.1003847656e+003;5.8892309570e+003;6.0997436523e+003;6.0288461914e+003;6.0416665039e+003;6.1014101563e+003;6.0537177734e+003;6.0871796875e+003;6.1215385742e+003;6.0739741211e+003;6.1055126953e+003;6.0889741211e+003;
1.8203125000e+000;5.6576923828e+003;6.1344873047e+003;6.0993588867e+003;5.8873076172e+003;6.0969228516e+003;6.0244873047e+003;6.0388461914e+003;6.0996152344e+003;6.0555126953e+003;6.0847436523e+003;6.1210258789e+003;6.0738461914e+003;6.1012822266e+003;6.0892309570e+003;
1.8281250000e+000;5.6666665039e+003;6.1419228516e+003;6.1060258789e+003;5.8950000000e+003;6.1026923828e+003;6.0284614258e+003;6.0438461914e+003;6.1064101563e+003;6.0647436523e+003;6.0901284180e+003;6.1267949219e+003;6.0811538086e+003;6.1053847656e+003;6.0976923828e+003;
1.8359375000e+000;5.6201284180e+003;6.0902563477e+003;6.0483334961e+003;5.8505126953e+003;6.0466665039e+003;5.9817949219e+003;5.9908974609e+003;6.0655126953e+003;6.0311538086e+003;6.0497436523e+003;6.0780771484e+003;6.0266665039e+003;6.0655126953e+003;6.0438461914e+003;
1.8437500000e+000;5.5693588867e+003;6.0311538086e+003;5.9955126953e+003;5.7960258789e+003;5.9911538086e+003;5.9320512695e+003;5.9396152344e+003;6.0083334961e+003;5.9779487305e+003;5.9920512695e+003;6.0247436523e+003;5.9714101563e+003;6.0092309570e+003;5.9889741211e+003;
1.8515625000e+000;5.4991025391e+003;5.9458974609e+003;5.9171796875e+003;5.7187177734e+003;5.9144873047e+003;5.8715385742e+003;5.8694873047e+003;5.9197436523e+003;5.8898715820e+003;5.8962822266e+003;5.9323076172e+003;5.8847436523e+003;5.9202563477e+003;5.9052563477e+003;
1.8593750000e+000;5.4238461914e+003;5.8608974609e+003;5.8370512695e+003;5.6403847656e+003;5.8291025391e+003;5.8016665039e+003;5.7951284180e+003;5.8376923828e+003;5.8041025391e+003;5.8070512695e+003;5.8438461914e+003;5.8046152344e+003;5.8365385742e+003;5.8291025391e+003;
1.8671875000e+000;5.4025639648e+003;5.8343588867e+003;5.8128203125e+003;5.6150000000e+003;5.8033334961e+003;5.7746152344e+003;5.7701284180e+003;5.8082050781e+003;5.7771796875e+003;5.7766665039e+003;5.8185898438e+003;5.7782050781e+003;5.8097436523e+003;5.8053847656e+003;
1.8750000000e+000;5.3867949219e+003;5.7980771484e+003;5.7829487305e+003;5.5888461914e+003;5.7725639648e+003;5.7458974609e+003;5.7402563477e+003;5.7764101563e+003;5.7405126953e+003;5.7379487305e+003;5.7900000000e+003;5.7471796875e+003;5.7750000000e+003;5.7764101563e+003;
1.8828125000e+000;5.4541025391e+003;5.8591025391e+003;5.8420512695e+003;5.6441025391e+003;5.8285898438e+003;5.7996152344e+003;5.7941025391e+003;5.8307690430e+003;5.7919228516e+003;5.7958974609e+003;5.8473076172e+003;5.8041025391e+003;5.8402563477e+003;5.8356411133e+003;
1.8906250000e+000;5.4658974609e+003;5.8689741211e+003;5.8516665039e+003;5.6526923828e+003;5.8367949219e+003;5.8043588867e+003;5.8002563477e+003;5.8391025391e+003;5.8011538086e+003;5.8043588867e+003;5.8555126953e+003;5.8135898438e+003;5.8516665039e+003;5.8451284180e+003;
1.8984375000e+000;5.4493588867e+003;5.8389741211e+003;5.8223076172e+003;5.6294873047e+003;5.8047436523e+003;5.7685898438e+003;5.7643588867e+003;5.8173076172e+003;5.7737177734e+003;5.7793588867e+003;5.8353847656e+003;5.7903847656e+003;5.8210258789e+003;5.8251284180e+003;
1.9062500000e+000;5.4489741211e+003;5.8362822266e+003;5.8207690430e+003;5.6275639648e+003;5.7993588867e+003;5.7628203125e+003;5.7576923828e+003;5.8164101563e+003;5.7725639648e+003;5.7805126953e+003;5.8369228516e+003;5.7901284180e+003;5.8184614258e+003;5.8253847656e+003;
1.9140625000e+000;5.4332050781e+003;5.8130771484e+003;5.8062822266e+003;5.6085898438e+003;5.7750000000e+003;5.7348715820e+003;5.7329487305e+003;5.7960258789e+003;5.7561538086e+003;5.7629487305e+003;5.8167949219e+003;5.7735898438e+003;5.8010258789e+003;5.8061538086e+003;
1.9218750000e+000;5.4223076172e+003;5.7957690430e+003;5.7935898438e+003;5.5953847656e+003;5.7611538086e+003;5.7182050781e+003;5.7188461914e+003;5.7814101563e+003;5.7432050781e+003;5.7469228516e+003;5.7993588867e+003;5.7583334961e+003;5.7879487305e+003;5.7903847656e+003;
1.9296875000e+000;5.4133334961e+003;5.7832050781e+003;5.7756411133e+003;5.5889741211e+003;5.7515385742e+003;5.7121796875e+003;5.7115385742e+003;5.7778203125e+003;5.7371796875e+003;5.7342309570e+003;5.7892309570e+003;5.7400000000e+003;5.7766665039e+003;5.7753847656e+003;
1.9375000000e+000;5.4038461914e+003;5.7779487305e+003;5.7662822266e+003;5.5832050781e+003;5.7425639648e+003;5.7080771484e+003;5.7066665039e+003;5.7732050781e+003;5.7320512695e+003;5.7275639648e+003;5.7841025391e+003;5.7324360352e+003;5.7680771484e+003;5.7687177734e+003;
1.9453125000e+000;5.3933334961e+003;5.7697436523e+003;5.7560258789e+003;5.5751284180e+003;5.7328203125e+003;5.7019228516e+003;5.7002563477e+003;5.7655126953e+003;5.7250000000e+003;5.7189741211e+003;5.7750000000e+003;5.7226923828e+003;5.7582050781e+003;5.7606411133e+003;
1.9531250000e+000;5.3851284180e+003;5.7600000000e+003;5.7467949219e+003;5.5671796875e+003;5.7253847656e+003;5.6965385742e+003;5.6947436523e+003;5.7571796875e+003;5.7184614258e+003;5.7111538086e+003;5.7643588867e+003;5.7121796875e+003;5.7491025391e+003;5.7524360352e+003;
1.9609375000e+000;5.3530771484e+003;5.7146152344e+003;5.7080771484e+003;5.5287177734e+003;5.6925639648e+003;5.6780771484e+003;5.6678203125e+003;5.7110258789e+003;5.6785898438e+003;5.6603847656e+003;5.7117949219e+003;5.6625639648e+003;5.6912822266e+003;5.7033334961e+003;
1.9687500000e+000;5.3887177734e+003;5.7529487305e+003;5.7423076172e+003;5.5608974609e+003;5.7275639648e+003;5.7129487305e+003;5.7024360352e+003;5.7424360352e+003;5.7116665039e+003;5.6910258789e+003;5.7435898438e+003;5.6932050781e+003;5.7235898438e+003;5.7346152344e+003;
1.9765625000e+000;5.4669228516e+003;5.8257690430e+003;5.8183334961e+003;5.6296152344e+003;5.7996152344e+003;5.7817949219e+003;5.7737177734e+003;5.8158974609e+003;5.7829487305e+003;5.7671796875e+003;5.8164101563e+003;5.7655126953e+003;5.8093588867e+003;5.8114101563e+003;
1.9843750000e+000;5.3764101563e+003;5.7180771484e+003;5.7215385742e+003;5.5332050781e+003;5.7002563477e+003;5.6965385742e+003;5.6815385742e+003;5.7207690430e+003;5.6816665039e+003;5.6612822266e+003;5.7225639648e+003;5.6707690430e+003;5.6992309570e+003;5.7162822266e+003;
1.9921875000e+000;5.3448715820e+003;5.6825639648e+003;5.6893588867e+003;5.5021796875e+003;5.6679487305e+003;5.6697436523e+003;5.6519228516e+003;5.6923076172e+003;5.6512822266e+003;5.6284614258e+003;5.6893588867e+003;5.6393588867e+003;5.6617949219e+003;5.6823076172e+003;
2.0000000000e+000;5.2534614258e+003;5.5724360352e+003;5.5951284180e+003;5.4106411133e+003;5.5667949219e+003;5.5678203125e+003;5.5546152344e+003;5.5942309570e+003;5.5488461914e+003;5.5214101563e+003;5.5839741211e+003;5.5420512695e+003;5.5673076172e+003;5.5824360352e+003;
2.0078125000e+000;5.2196152344e+003;5.5330771484e+003;5.5476923828e+003;5.3698715820e+003;5.5105126953e+003;5.5020512695e+003;5.4934614258e+003;5.5371796875e+003;5.4933334961e+003;5.4665385742e+003;5.5444873047e+003;5.4969228516e+003;5.5324360352e+003;5.5462822266e+003;
2.0156250000e+000;5.1875639648e+003;5.4974360352e+003;5.5111538086e+003;5.3355126953e+003;5.4697436523e+003;5.4650000000e+003;5.4534614258e+003;5.5011538086e+003;5.4583334961e+003;5.4311538086e+003;5.5091025391e+003;5.4624360352e+003;5.4971796875e+003;5.5120512695e+003;
2.0234375000e+000;5.0965385742e+003;5.3867949219e+003;5.4043588867e+003;5.2360258789e+003;5.3616665039e+003;5.3580771484e+003;5.3473076172e+003;5.3987177734e+003;5.3639741211e+003;5.3285898438e+003;5.4035898438e+003;5.3558974609e+003;5.3878203125e+003;5.4065385742e+003;
2.0312500000e+000;5.0879487305e+003;5.3725639648e+003;5.3933334961e+003;5.2250000000e+003;5.3489741211e+003;5.3426923828e+003;5.3343588867e+003;5.3851284180e+003;5.3532050781e+003;5.3130771484e+003;5.3919228516e+003;5.3425639648e+003;5.3742309570e+003;5.3956411133e+003;
2.0390625000e+000;5.1274360352e+003;5.4038461914e+003;5.4282050781e+003;5.2592309570e+003;5.3792309570e+003;5.3707690430e+003;5.3635898438e+003;5.4171796875e+003;5.3856411133e+003;5.3412822266e+003;5.4262822266e+003;5.3728203125e+003;5.4087177734e+003;5.4303847656e+003;
2.0468750000e+000;5.1569228516e+003;5.4301284180e+003;5.4537177734e+003;5.2861538086e+003;5.4056411133e+003;5.3984614258e+003;5.3906411133e+003;5.4466665039e+003;5.4135898438e+003;5.3697436523e+003;5.4528203125e+003;5.3979487305e+003;5.4367949219e+003;5.4561538086e+003;
2.0546875000e+000;5.1825639648e+003;5.4435898438e+003;5.4646152344e+003;5.3032050781e+003;5.4314101563e+003;5.4332050781e+003;5.4278203125e+003;5.4678203125e+003;5.4351284180e+003;5.3873076172e+003;5.4683334961e+003;5.4111538086e+003;5.4497436523e+003;5.4680771484e+003;
2.0625000000e+000;5.2071796875e+003;5.4667949219e+003;5.4858974609e+003;5.3238461914e+003;5.4569228516e+003;5.4603847656e+003;5.4538461914e+003;5.4864101563e+003;5.4555126953e+003;5.4079487305e+003;5.4920512695e+003;5.4319228516e+003;5.4706411133e+003;5.4902563477e+003;
2.0703125000e+000;5.2376923828e+003;5.4993588867e+003;5.5158974609e+003;5.3528203125e+003;5.4885898438e+003;5.4938461914e+003;5.4833334961e+003;5.5132050781e+003;5.4830771484e+003;5.4388461914e+003;5.5238461914e+003;5.4612822266e+003;5.5005126953e+003;5.5211538086e+003;
2.0781250000e+000;5.2503847656e+003;5.5157690430e+003;5.5305126953e+003;5.3674360352e+003;5.5021796875e+003;5.5108974609e+003;5.4947436523e+003;5.5256411133e+003;5.4948715820e+003;5.4546152344e+003;5.5375639648e+003;5.4756411133e+003;5.5142309570e+003;5.5361538086e+003;
2.0859375000e+000;5.1833334961e+003;5.4358974609e+003;5.4557690430e+003;5.2960258789e+003;5.4324360352e+003;5.4470512695e+003;5.4244873047e+003;5.4507690430e+003;5.4230771484e+003;5.3746152344e+003;5.4533334961e+003;5.3983334961e+003;5.4364101563e+003;5.4571796875e+003;
2.0937500000e+000;5.1741025391e+003;5.4220512695e+003;5.4441025391e+003;5.2830771484e+003;5.4205126953e+003;5.4351284180e+003;5.4134614258e+003;5.4389741211e+003;5.4128203125e+003;5.3630771484e+003;5.4443588867e+003;5.3862822266e+003;5.4232050781e+003;5.4453847656e+003;
2.1015625000e+000;5.0424360352e+003;5.2830771484e+003;5.3112822266e+003;5.1608974609e+003;5.2738461914e+003;5.3023076172e+003;5.2808974609e+003;5.3014101563e+003;5.2585898438e+003;5.2144873047e+003;5.3069228516e+003;5.2560258789e+003;5.2810258789e+003;5.3111538086e+003;
2.1093750000e+000;5.1042309570e+003;5.3308974609e+003;5.3602563477e+003;5.2183334961e+003;5.3278203125e+003;5.3473076172e+003;5.3302563477e+003;5.3484614258e+003;5.3011538086e+003;5.2564101563e+003;5.3508974609e+003;5.3028203125e+003;5.3356411133e+003;5.3567949219e+003;
2.1171875000e+000;5.1501284180e+003;5.3744873047e+003;5.4037177734e+003;5.2608974609e+003;5.3700000000e+003;5.3864101563e+003;5.3697436523e+003;5.3929487305e+003;5.3475639648e+003;5.3041025391e+003;5.3964101563e+003;5.3487177734e+003;5.3802563477e+003;5.4034614258e+003;
2.1250000000e+000;5.2032050781e+003;5.4326923828e+003;5.4510258789e+003;5.3079487305e+003;5.4132050781e+003;5.4262822266e+003;5.4080771484e+003;5.4524360352e+003;5.4048715820e+003;5.3675639648e+003;5.4552563477e+003;5.3998715820e+003;5.4347436523e+003;5.4589741211e+003;
2.1328125000e+000;5.2502563477e+003;5.4744873047e+003;5.4943588867e+003;5.3489741211e+003;5.4555126953e+003;5.4558974609e+003;5.4458974609e+003;5.4955126953e+003;5.4524360352e+003;5.4110258789e+003;5.4970512695e+003;5.4419228516e+003;5.4829487305e+003;5.4997436523e+003;
2.1406250000e+000;5.2479487305e+003;5.4707690430e+003;5.4920512695e+003;5.3461538086e+003;5.4503847656e+003;5.4478203125e+003;5.4387177734e+003;5.4934614258e+003;5.4532050781e+003;5.4108974609e+003;5.4937177734e+003;5.4393588867e+003;5.4773076172e+003;5.4984614258e+003;
2.1484375000e+000;5.1970512695e+003;5.4180771484e+003;5.4411538086e+003;5.2964101563e+003;5.3946152344e+003;5.3944873047e+003;5.3826923828e+003;5.4451284180e+003;5.4062822266e+003;5.3632050781e+003;5.4428203125e+003;5.3897436523e+003;5.4220512695e+003;5.4496152344e+003;
2.1562500000e+000;4.9471796875e+003;5.1551284180e+003;5.1889741211e+003;5.0521796875e+003;5.1292309570e+003;5.1479487305e+003;5.1273076172e+003;5.1947436523e+003;5.1573076172e+003;5.1051284180e+003;5.1861538086e+003;5.1397436523e+003;5.1615385742e+003;5.1989741211e+003;
2.1640625000e+000;4.8089741211e+003;5.0053847656e+003;5.0470512695e+003;4.9161538086e+003;4.9834614258e+003;5.0137177734e+003;4.9906411133e+003;5.0492309570e+003;5.0146152344e+003;4.9532050781e+003;5.0378203125e+003;4.9957690430e+003;5.0171796875e+003;5.0551284180e+003;
2.1718750000e+000;4.7042309570e+003;4.8882050781e+003;4.9365385742e+003;4.8119228516e+003;4.8730771484e+003;4.9137177734e+003;4.8898715820e+003;4.9350000000e+003;4.9038461914e+003;4.8323076172e+003;4.9203847656e+003;4.8817949219e+003;4.9052563477e+003;4.9425639648e+003;
2.1796875000e+000;4.6352563477e+003;4.8073076172e+003;4.8606411133e+003;4.7419228516e+003;4.8002563477e+003;4.8506411133e+003;4.8252563477e+003;4.8578203125e+003;4.8283334961e+003;4.7487177734e+003;4.8392309570e+003;4.8034614258e+003;4.8273076172e+003;4.8658974609e+003;
2.1875000000e+000;4.4424360352e+003;4.5769228516e+003;4.6388461914e+003;4.5419228516e+003;4.5962822266e+003;4.6710258789e+003;4.6341025391e+003;4.6441025391e+003;4.6042309570e+003;4.5184614258e+003;4.6160258789e+003;4.5824360352e+003;4.5955126953e+003;4.6469228516e+003;
2.1953125000e+000;4.3056411133e+003;4.3960258789e+003;4.4676923828e+003;4.3903847656e+003;4.4267949219e+003;4.5125639648e+003;4.4791025391e+003;4.4764101563e+003;4.4401284180e+003;4.3341025391e+003;4.4430771484e+003;4.4147436523e+003;4.4271796875e+003;4.4669228516e+003;
2.2031250000e+000;4.3135898438e+003;4.3862822266e+003;4.4552563477e+003;4.3892309570e+003;4.4103847656e+003;4.4988461914e+003;4.4596152344e+003;4.4698715820e+003;4.4197436523e+003;4.3201284180e+003;4.4298715820e+003;4.4048715820e+003;4.4161538086e+003;4.4528203125e+003;
2.2109375000e+000;4.2955126953e+003;4.3598715820e+003;4.4292309570e+003;4.3662822266e+003;4.3821796875e+003;4.4717949219e+003;4.4324360352e+003;4.4456411133e+003;4.3924360352e+003;4.2937177734e+003;4.4050000000e+003;4.3812822266e+003;4.3888461914e+003;4.4278203125e+003;
2.2187500000e+000;4.2366665039e+003;4.2702563477e+003;4.3473076172e+003;4.2874360352e+003;4.3002563477e+003;4.3823076172e+003;4.3505126953e+003;4.3598715820e+003;4.3144873047e+003;4.2076923828e+003;4.3248715820e+003;4.2934614258e+003;4.3039741211e+003;4.3410258789e+003;
2.2265625000e+000;4.2346152344e+003;4.2615385742e+003;4.3394873047e+003;4.2817949219e+003;4.2903847656e+003;4.3700000000e+003;4.3378203125e+003;4.3503847656e+003;4.3075639648e+003;4.2011538086e+003;4.3144873047e+003;4.2829487305e+003;4.2967949219e+003;4.3306411133e+003;
2.2343750000e+000;4.2300000000e+003;4.2457690430e+003;4.3216665039e+003;4.2706411133e+003;4.2662822266e+003;4.3461538086e+003;4.3098715820e+003;4.3334614258e+003;4.2919228516e+003;4.1875639648e+003;4.2944873047e+003;4.2688461914e+003;4.2791025391e+003;4.3153847656e+003;
2.2421875000e+000;4.2256411133e+003;4.2361538086e+003;4.3096152344e+003;4.2610258789e+003;4.2544873047e+003;4.3332050781e+003;4.2964101563e+003;4.3251284180e+003;4.2844873047e+003;4.1784614258e+003;4.2862822266e+003;4.2605126953e+003;4.2688461914e+003;4.3074360352e+003;
2.2500000000e+000;4.1441025391e+003;4.1339741211e+003;4.2123076172e+003;4.1648715820e+003;4.1587177734e+003;4.2337177734e+003;4.1975639648e+003;4.2326923828e+003;4.2025639648e+003;4.0839743652e+003;4.1948715820e+003;4.1608974609e+003;4.1757690430e+003;4.2117949219e+003;
2.2578125000e+000;4.0969228516e+003;4.0789743652e+003;4.1602563477e+003;4.1155126953e+003;4.1039741211e+003;4.1814101563e+003;4.1442309570e+003;4.1771796875e+003;4.1500000000e+003;4.0297436523e+003;4.1379487305e+003;4.1062822266e+003;4.1208974609e+003;4.1569228516e+003;
2.2656250000e+000;4.0244870605e+003;3.9932050781e+003;4.0728205566e+003;4.0403845215e+003;4.0169230957e+003;4.0989741211e+003;4.0635898438e+003;4.0883332520e+003;4.0625642090e+003;3.9437180176e+003;4.0491025391e+003;4.0203845215e+003;4.0328205566e+003;4.0674357910e+003;
2.2734375000e+000;3.9929487305e+003;3.9542307129e+003;4.0325642090e+003;4.0065385742e+003;3.9802563477e+003;4.0644870605e+003;4.0314101563e+003;4.0507692871e+003;4.0247436523e+003;3.9052563477e+003;4.0137180176e+003;3.9838461914e+003;3.9964101563e+003;4.0285898438e+003;
2.2812500000e+000;3.8964101563e+003;3.8300000000e+003;3.9138461914e+003;3.8947436523e+003;3.8688461914e+003;3.9624357910e+003;3.9252563477e+003;3.9278205566e+003;3.9012819824e+003;3.7757692871e+003;3.8943588867e+003;3.8643588867e+003;3.8810256348e+003;3.9106411133e+003;
2.2890625000e+000;3.8697436523e+003;3.7975642090e+003;3.8820512695e+003;3.8637180176e+003;3.8369230957e+003;3.9356411133e+003;3.8930769043e+003;3.8930769043e+003;3.8647436523e+003;3.7406411133e+003;3.8570512695e+003;3.8301281738e+003;3.8443588867e+003;3.8762819824e+003;
2.2968750000e+000;3.8376923828e+003;3.7606411133e+003;3.8453845215e+003;3.8293588867e+003;3.7989743652e+003;3.9046154785e+003;3.8583332520e+003;3.8550000000e+003;3.8244870605e+003;3.7017949219e+003;3.8164101563e+003;3.7934614258e+003;3.8028205566e+003;3.8369230957e+003;
2.3046875000e+000;3.8029487305e+003;3.7198718262e+003;3.8053845215e+003;3.7929487305e+003;3.7570512695e+003;3.8702563477e+003;3.8239743652e+003;3.8144870605e+003;3.7824357910e+003;3.6592307129e+003;3.7746154785e+003;3.7558974609e+003;3.7606411133e+003;3.7955129395e+003;
2.3125000000e+000;3.7948718262e+003;3.6834614258e+003;3.7693588867e+003;3.7700000000e+003;3.7260256348e+003;3.8424357910e+003;3.7957692871e+003;3.7828205566e+003;3.7421794434e+003;3.6215385742e+003;3.7406411133e+003;3.7262819824e+003;3.7253845215e+003;3.7673076172e+003;
2.3203125000e+000;3.7779487305e+003;3.6619230957e+003;3.7484614258e+003;3.7506411133e+003;3.7048718262e+003;3.8223076172e+003;3.7732050781e+003;3.7639743652e+003;3.7216667480e+003;3.6025642090e+003;3.7207692871e+003;3.7064101563e+003;3.6998718262e+003;3.7484614258e+003;
2.3281250000e+000;3.7530769043e+003;3.6234614258e+003;3.7075642090e+003;3.7134614258e+003;3.6650000000e+003;3.7825642090e+003;3.7412819824e+003;3.7307692871e+003;3.6903845215e+003;3.5674357910e+003;3.6857692871e+003;3.6652563477e+003;3.6750000000e+003;3.7124357910e+003;
2.3359375000e+000;3.7900000000e+003;3.6383332520e+003;3.7264101563e+003;3.7298718262e+003;3.6782050781e+003;3.7873076172e+003;3.7432050781e+003;3.7475642090e+003;3.7094870605e+003;3.5871794434e+003;3.7010256348e+003;3.6880769043e+003;3.6950000000e+003;3.7338461914e+003;
2.3437500000e+000;3.7815385742e+003;3.6238461914e+003;3.7112819824e+003;3.7171794434e+003;3.6605129395e+003;3.7678205566e+003;3.7237180176e+003;3.7305129395e+003;3.6960256348e+003;3.5735898438e+003;3.6862819824e+003;3.6741025391e+003;3.6756411133e+003;3.7203845215e+003;
2.3515625000e+000;3.7652563477e+003;3.6044870605e+003;3.6838461914e+003;3.7033332520e+003;3.6329487305e+003;3.7306411133e+003;3.6952563477e+003;3.7070512695e+003;3.6821794434e+003;3.5608974609e+003;3.6676923828e+003;3.6494870605e+003;3.6560256348e+003;3.7033332520e+003;
2.3593750000e+000;3.7717949219e+003;3.5946154785e+003;3.6843588867e+003;3.6941025391e+003;3.6267949219e+003;3.7166667480e+003;3.6843588867e+003;3.6996154785e+003;3.6803845215e+003;3.5556411133e+003;3.6611538086e+003;3.6398718262e+003;3.6474357910e+003;3.6926923828e+003;
2.3671875000e+000;3.7770512695e+003;3.5969230957e+003;3.6852563477e+003;3.6938461914e+003;3.6261538086e+003;3.7174357910e+003;3.6850000000e+003;3.6989743652e+003;3.6826923828e+003;3.5576923828e+003;3.6626923828e+003;3.6392307129e+003;3.6479487305e+003;3.6921794434e+003;
2.3750000000e+000;3.7829487305e+003;3.6065385742e+003;3.6785898438e+003;3.7023076172e+003;3.6283332520e+003;3.7233332520e+003;3.6930769043e+003;3.6934614258e+003;3.6652563477e+003;3.5580769043e+003;3.6578205566e+003;3.6379487305e+003;3.6497436523e+003;3.6950000000e+003;
2.3828125000e+000;3.7993588867e+003;3.6215385742e+003;3.6911538086e+003;3.7171794434e+003;3.6461538086e+003;3.7410256348e+003;3.7101281738e+003;3.7062819824e+003;3.6743588867e+003;3.5712819824e+003;3.6701281738e+003;3.6501281738e+003;3.6611538086e+003;3.7064101563e+003;
2.3906250000e+000;3.8173076172e+003;3.6280769043e+003;3.7066667480e+003;3.7262819824e+003;3.6617949219e+003;3.7638461914e+003;3.7287180176e+003;3.7167949219e+003;3.6884614258e+003;3.5808974609e+003;3.6825642090e+003;3.6587180176e+003;3.6656411133e+003;3.7123076172e+003;
2.3984375000e+000;3.8216667480e+003;3.6275642090e+003;3.7108974609e+003;3.7271794434e+003;3.6632050781e+003;3.7706411133e+003;3.7332050781e+003;3.7167949219e+003;3.6901281738e+003;3.5808974609e+003;3.6839743652e+003;3.6596154785e+003;3.6656411133e+003;3.7138461914e+003;
2.4062500000e+000;3.9005129395e+003;3.7091025391e+003;3.7832050781e+003;3.8005129395e+003;3.7402563477e+003;3.8435898438e+003;3.8071794434e+003;3.7894870605e+003;3.7564101563e+003;3.6605129395e+003;3.7524357910e+003;3.7361538086e+003;3.7467949219e+003;3.7938461914e+003;
2.4140625000e+000;3.9020512695e+003;3.7097436523e+003;3.7832050781e+003;3.8000000000e+003;3.7410256348e+003;3.8416667480e+003;3.8070512695e+003;3.7916667480e+003;3.7570512695e+003;3.6624357910e+003;3.7528205566e+003;3.7392307129e+003;3.7489743652e+003;3.7958974609e+003;
2.4218750000e+000;3.8778205566e+003;3.6814101563e+003;3.7585898438e+003;3.7738461914e+003;3.7150000000e+003;3.8153845215e+003;3.7814101563e+003;3.7665385742e+003;3.7317949219e+003;3.6338461914e+003;3.7278205566e+003;3.7153845215e+003;3.7229487305e+003;3.7706411133e+003;
2.4296875000e+000;3.8497436523e+003;3.6484614258e+003;3.7297436523e+003;3.7443588867e+003;3.6848718262e+003;3.7861538086e+003;3.7515385742e+003;3.7355129395e+003;3.7008974609e+003;3.5980769043e+003;3.6983332520e+003;3.6857692871e+003;3.6914101563e+003;3.7396154785e+003;
2.4375000000e+000;3.8910256348e+003;3.6841025391e+003;3.7633332520e+003;3.7746154785e+003;3.7126923828e+003;3.8110256348e+003;3.7778205566e+003;3.7705129395e+003;3.7306411133e+003;3.6375642090e+003;3.7306411133e+003;3.7261538086e+003;3.7239743652e+003;3.7708974609e+003;
2.4453125000e+000;3.8908974609e+003;3.6796154785e+003;3.7614101563e+003;3.7696154785e+003;3.7065385742e+003;3.8016667480e+003;3.7702563477e+003;3.7666667480e+003;3.7288461914e+003;3.6364101563e+003;3.7280769043e+003;3.7239743652e+003;3.7237180176e+003;3.7698718262e+003;
2.4531250000e+000;3.8426923828e+003;3.6225642090e+003;3.7108974609e+003;3.7164101563e+003;3.6497436523e+003;3.7369230957e+003;3.7074357910e+003;3.7076923828e+003;3.6793588867e+003;3.5793588867e+003;3.6771794434e+003;3.6714101563e+003;3.6780769043e+003;3.7200000000e+003;
2.4609375000e+000;3.8471794434e+003;3.6342307129e+003;3.7143588867e+003;3.7183332520e+003;3.6530769043e+003;3.7338461914e+003;3.7070512695e+003;3.7234614258e+003;3.6950000000e+003;3.5971794434e+003;3.6838461914e+003;3.6789743652e+003;3.6823076172e+003;3.7232050781e+003;
2.4687500000e+000;3.8551281738e+003;3.6401281738e+003;3.7187180176e+003;3.7230769043e+003;3.6566667480e+003;3.7333332520e+003;3.7094870605e+003;3.7291025391e+003;3.7029487305e+003;3.6070512695e+003;3.6924357910e+003;3.6834614258e+003;3.6880769043e+003;3.7287180176e+003;
2.4765625000e+000;3.8189743652e+003;3.5932050781e+003;3.6744870605e+003;3.6810256348e+003;3.6096154785e+003;3.6856411133e+003;3.6582050781e+003;3.6684614258e+003;3.6538461914e+003;3.5552563477e+003;3.6493588867e+003;3.6411538086e+003;3.6420512695e+003;3.6864101563e+003;
2.4843750000e+000;3.8788461914e+003;3.6584614258e+003;3.7279487305e+003;3.7415385742e+003;3.6842307129e+003;3.7635898438e+003;3.7232050781e+003;3.7346154785e+003;3.7178205566e+003;3.6230769043e+003;3.7066667480e+003;3.6970512695e+003;3.7078205566e+003;3.7461538086e+003;
2.4921875000e+000;3.8924357910e+003;3.6711538086e+003;3.7398718262e+003;3.7546154785e+003;3.7000000000e+003;3.7806411133e+003;3.7417949219e+003;3.7492307129e+003;3.7308974609e+003;3.6383332520e+003;3.7200000000e+003;3.7075642090e+003;3.7226923828e+003;3.7587180176e+003;
2.5000000000e+000;3.9224357910e+003;3.7020512695e+003;3.7667949219e+003;3.7838461914e+003;3.7338461914e+003;3.8170512695e+003;3.7842307129e+003;3.7653845215e+003;3.7526923828e+003;3.6597436523e+003;3.7456411133e+003;3.7305129395e+003;3.7476923828e+003;3.7792307129e+003;
2.5078125000e+000;3.9223076172e+003;3.7065385742e+003;3.7679487305e+003;3.7874357910e+003;3.7385898438e+003;3.8243588867e+003;3.7891025391e+003;3.7682050781e+003;3.7541025391e+003;3.6632050781e+003;3.7474357910e+003;3.7343588867e+003;3.7479487305e+003;3.7789743652e+003;
2.5156250000e+000;3.8798718262e+003;3.6671794434e+003;3.7275642090e+003;3.7501281738e+003;3.7029487305e+003;3.7961538086e+003;3.7576923828e+003;3.7365385742e+003;3.7120512695e+003;3.6297436523e+003;3.7101281738e+003;3.6994870605e+003;3.7102563477e+003;3.7403845215e+003;
2.5234375000e+000;3.8666667480e+003;3.6517949219e+003;3.7132050781e+003;3.7348718262e+003;3.6907692871e+003;3.7838461914e+003;3.7474357910e+003;3.7238461914e+003;3.6958974609e+003;3.6166667480e+003;3.6980769043e+003;3.6851281738e+003;3.6996154785e+003;3.7280769043e+003;
2.5312500000e+000;3.9010256348e+003;3.6775642090e+003;3.7441025391e+003;3.7580769043e+003;3.7230769043e+003;3.8055129395e+003;3.7705129395e+003;3.7407692871e+003;3.7212819824e+003;3.6371794434e+003;3.7247436523e+003;3.7105129395e+003;3.7310256348e+003;3.7573076172e+003;
2.5390625000e+000;3.9101281738e+003;3.6861538086e+003;3.7523076172e+003;3.7655129395e+003;3.7284614258e+003;3.8097436523e+003;3.7725642090e+003;3.7435898438e+003;3.7261538086e+003;3.6424357910e+003;3.7297436523e+003;3.7180769043e+003;3.7357692871e+003;3.7643588867e+003;
2.5468750000e+000;3.9158974609e+003;3.6932050781e+003;3.7565385742e+003;3.7705129395e+003;3.7300000000e+003;3.8111538086e+003;3.7729487305e+003;3.7469230957e+003;3.7292307129e+003;3.6488461914e+003;3.7344870605e+003;3.7233332520e+003;3.7389743652e+003;3.7697436523e+003;
2.5546875000e+000;3.9147436523e+003;3.6942307129e+003;3.7541025391e+003;3.7697436523e+003;3.7258974609e+003;3.8070512695e+003;3.7694870605e+003;3.7484614258e+003;3.7302563477e+003;3.6532050781e+003;3.7361538086e+003;3.7233332520e+003;3.7389743652e+003;3.7701281738e+003;
2.5625000000e+000;3.9152563477e+003;3.6950000000e+003;3.7578205566e+003;3.7755129395e+003;3.7273076172e+003;3.7989743652e+003;3.7680769043e+003;3.7653845215e+003;3.7525642090e+003;3.6662819824e+003;3.7458974609e+003;3.7291025391e+003;3.7510256348e+003;3.7730769043e+003;
2.5703125000e+000;3.9675642090e+003;3.7487180176e+003;3.8083332520e+003;3.8258974609e+003;3.7802563477e+003;3.8442307129e+003;3.8147436523e+003;3.8193588867e+003;3.8056411133e+003;3.7211538086e+003;3.7980769043e+003;3.7794870605e+003;3.8033332520e+003;3.8251281738e+003;
2.5781250000e+000;4.0056411133e+003;3.7926923828e+003;3.8444870605e+003;3.8606411133e+003;3.8169230957e+003;3.8724357910e+003;3.8497436523e+003;3.8684614258e+003;3.8547436523e+003;3.7744870605e+003;3.8430769043e+003;3.8243588867e+003;3.8414101563e+003;3.8669230957e+003;
2.5859375000e+000;4.0016667480e+003;3.7858974609e+003;3.8403845215e+003;3.8521794434e+003;3.8093588867e+003;3.8651281738e+003;3.8439743652e+003;3.8564101563e+003;3.8530769043e+003;3.7701281738e+003;3.8412819824e+003;3.8132050781e+003;3.8351281738e+003;3.8564101563e+003;
2.5937500000e+000;4.0198718262e+003;3.8046154785e+003;3.8591025391e+003;3.8716667480e+003;3.8270512695e+003;3.8848718262e+003;3.8608974609e+003;3.8733332520e+003;3.8696154785e+003;3.7883332520e+003;3.8596154785e+003;3.8293588867e+003;3.8553845215e+003;3.8760256348e+003;
2.6015625000e+000;4.0208974609e+003;3.8237180176e+003;3.8678205566e+003;3.8866667480e+003;3.8453845215e+003;3.9101281738e+003;3.8784614258e+003;3.8835898438e+003;3.8751281738e+003;3.8002563477e+003;3.8655129395e+003;3.8376923828e+003;3.8726923828e+003;3.8858974609e+003;
2.6093750000e+000;3.9241025391e+003;3.7211538086e+003;3.7706411133e+003;3.7930769043e+003;3.7560256348e+003;3.8288461914e+003;3.7866667480e+003;3.7797436523e+003;3.7685898438e+003;3.6970512695e+003;3.7585898438e+003;3.7388461914e+003;3.7616667480e+003;3.7865385742e+003;
2.6171875000e+000;3.9105129395e+003;3.7025642090e+003;3.7561538086e+003;3.7787180176e+003;3.7415385742e+003;3.8171794434e+003;3.7752563477e+003;3.7637180176e+003;3.7502563477e+003;3.6762819824e+003;3.7424357910e+003;3.7216667480e+003;3.7453845215e+003;3.7717949219e+003;
2.6250000000e+000;3.9084614258e+003;3.7028205566e+003;3.7574357910e+003;3.7812819824e+003;3.7443588867e+003;3.8275642090e+003;3.7887180176e+003;3.7715385742e+003;3.7564101563e+003;3.6814101563e+003;3.7461538086e+003;3.7238461914e+003;3.7511538086e+003;3.7678205566e+003;
2.6328125000e+000;3.8817949219e+003;3.6738461914e+003;3.7292307129e+003;3.7546154785e+003;3.7164101563e+003;3.8020512695e+003;3.7629487305e+003;3.7417949219e+003;3.7284614258e+003;3.6552563477e+003;3.7180769043e+003;3.6988461914e+003;3.7208974609e+003;3.7398718262e+003;
2.6406250000e+000;3.8562819824e+003;3.6411538086e+003;3.6969230957e+003;3.7255129395e+003;3.6855129395e+003;3.7683332520e+003;3.7301281738e+003;3.7032050781e+003;3.6914101563e+003;3.6210256348e+003;3.6861538086e+003;3.6685898438e+003;3.6865385742e+003;3.7111538086e+003;
2.6484375000e+000;3.8803845215e+003;3.6656411133e+003;3.7194870605e+003;3.7492307129e+003;3.7074357910e+003;3.7862819824e+003;3.7494870605e+003;3.7252563477e+003;3.7111538086e+003;3.6428205566e+003;3.7098718262e+003;3.6911538086e+003;3.7114101563e+003;3.7342307129e+003;
2.6562500000e+000;3.9208974609e+003;3.7092307129e+003;3.7603845215e+003;3.7908974609e+003;3.7456411133e+003;3.8207692871e+003;3.7860256348e+003;3.7675642090e+003;3.7498718262e+003;3.6846154785e+003;3.7519230957e+003;3.7329487305e+003;3.7546154785e+003;3.7741025391e+003;
2.6640625000e+000;3.9989743652e+003;3.7912819824e+003;3.8391025391e+003;3.8676923828e+003;3.8174357910e+003;3.8833332520e+003;3.8541025391e+003;3.8501281738e+003;3.8291025391e+003;3.7676923828e+003;3.8316667480e+003;3.8129487305e+003;3.8329487305e+003;3.8508974609e+003;
2.6718750000e+000;4.0170512695e+003;3.8084614258e+003;3.8569230957e+003;3.8825642090e+003;3.8334614258e+003;3.8933332520e+003;3.8664101563e+003;3.8693588867e+003;3.8503845215e+003;3.7870512695e+003;3.8496154785e+003;3.8296154785e+003;3.8493588867e+003;3.8689743652e+003;
2.6796875000e+000;4.0158974609e+003;3.8062819824e+003;3.8565385742e+003;3.8793588867e+003;3.8325642090e+003;3.8870512695e+003;3.8617949219e+003;3.8710256348e+003;3.8543588867e+003;3.7871794434e+003;3.8494870605e+003;3.8285898438e+003;3.8484614258e+003;3.8692307129e+003;
2.6875000000e+000;4.0773076172e+003;3.8832050781e+003;3.9208974609e+003;3.9443588867e+003;3.9043588867e+003;3.9512819824e+003;3.9297436523e+003;3.9526923828e+003;3.9346154785e+003;3.8708974609e+003;3.9244870605e+003;3.9023076172e+003;3.9183332520e+003;3.9320512695e+003;
2.6953125000e+000;4.0805129395e+003;3.8896154785e+003;3.9271794434e+003;3.9493588867e+003;3.9120512695e+003;3.9579487305e+003;3.9387180176e+003;3.9605129395e+003;3.9467949219e+003;3.8830769043e+003;3.9373076172e+003;3.9108974609e+003;3.9257692871e+003;3.9402563477e+003;
2.7031250000e+000;4.0469230957e+003;3.8583332520e+003;3.9056411133e+003;3.9269230957e+003;3.8862819824e+003;3.9403845215e+003;3.9142307129e+003;3.9324357910e+003;3.9207692871e+003;3.8606411133e+003;3.9133332520e+003;3.8870512695e+003;3.9035898438e+003;3.9200000000e+003;
2.7109375000e+000;4.0348718262e+003;3.8433332520e+003;3.8887180176e+003;3.9135898438e+003;3.8693588867e+003;3.9310256348e+003;3.8989743652e+003;3.9051281738e+003;3.8923076172e+003;3.8417949219e+003;3.8921794434e+003;3.8707692871e+003;3.8902563477e+003;3.8965385742e+003;
2.7187500000e+000;4.0212819824e+003;3.8296154785e+003;3.8757692871e+003;3.8997436523e+003;3.8580769043e+003;3.9184614258e+003;3.8887180176e+003;3.8860256348e+003;3.8751281738e+003;3.8239743652e+003;3.8783332520e+003;3.8576923828e+003;3.8755129395e+003;3.8825642090e+003;
2.7265625000e+000;4.0539743652e+003;3.8737180176e+003;3.9160256348e+003;3.9384614258e+003;3.9048718262e+003;3.9624357910e+003;3.9328205566e+003;3.9197436523e+003;3.9061538086e+003;3.8603845215e+003;3.9152563477e+003;3.8944870605e+003;3.9112819824e+003;3.9267949219e+003;
2.7343750000e+000;3.9958974609e+003;3.8142307129e+003;3.8588461914e+003;3.8808974609e+003;3.8398718262e+003;3.9043588867e+003;3.8760256348e+003;3.8621794434e+003;3.8453845215e+003;3.7980769043e+003;3.8570512695e+003;3.8425642090e+003;3.8501281738e+003;3.8682050781e+003;
2.7421875000e+000;3.9628205566e+003;3.7782050781e+003;3.8255129395e+003;3.8457692871e+003;3.8041025391e+003;3.8680769043e+003;3.8388461914e+003;3.8253845215e+003;3.8098718262e+003;3.7601281738e+003;3.8234614258e+003;3.8092307129e+003;3.8132050781e+003;3.8316667480e+003;
2.7500000000e+000;3.9320512695e+003;3.7447436523e+003;3.7947436523e+003;3.8134614258e+003;3.7715385742e+003;3.8351281738e+003;3.8028205566e+003;3.7911538086e+003;3.7765385742e+003;3.7255129395e+003;3.7902563477e+003;3.7755129395e+003;3.7788461914e+003;3.7976923828e+003;
2.7578125000e+000;3.8943588867e+003;3.7046154785e+003;3.7535898438e+003;3.7758974609e+003;3.7319230957e+003;3.7961538086e+003;3.7576923828e+003;3.7498718262e+003;3.7376923828e+003;3.6857692871e+003;3.7426923828e+003;3.7253845215e+003;3.7385898438e+003;3.7542307129e+003;
2.7656250000e+000;3.8538461914e+003;3.6629487305e+003;3.7044870605e+003;3.7373076172e+003;3.6876923828e+003;3.7484614258e+003;3.7135898438e+003;3.7193588867e+003;3.7079487305e+003;3.6520512695e+003;3.7010256348e+003;3.6821794434e+003;3.6992307129e+003;3.7138461914e+003;
2.7734375000e+000;3.8212819824e+003;3.6267949219e+003;3.6726923828e+003;3.7038461914e+003;3.6517949219e+003;3.7119230957e+003;3.6774357910e+003;3.6867949219e+003;3.6750000000e+003;3.6153845215e+003;3.6675642090e+003;3.6519230957e+003;3.6605129395e+003;3.6828205566e+003;
2.7812500000e+000;3.8061538086e+003;3.6074357910e+003;3.6580769043e+003;3.6874357910e+003;3.6330769043e+003;3.6923076172e+003;3.6575642090e+003;3.6669230957e+003;3.6567949219e+003;3.5934614258e+003;3.6485898438e+003;3.6351281738e+003;3.6379487305e+003;3.6671794434e+003;
2.7890625000e+000;3.8843588867e+003;3.6820512695e+003;3.7332050781e+003;3.7624357910e+003;3.7085898438e+003;3.7612819824e+003;3.7287180176e+003;3.7369230957e+003;3.7315385742e+003;3.6693588867e+003;3.7197436523e+003;3.7035898438e+003;3.7117949219e+003;3.7391025391e+003;
2.7968750000e+000;3.9412819824e+003;3.7411538086e+003;3.7898718262e+003;3.8188461914e+003;3.7673076172e+003;3.8167949219e+003;3.7864101563e+003;3.7984614258e+003;3.7916667480e+003;3.7346154785e+003;3.7789743652e+003;3.7612819824e+003;3.7732050781e+003;3.7946154785e+003;
2.8046875000e+000;3.9698718262e+003;3.7729487305e+003;3.8201281738e+003;3.8476923828e+003;3.7989743652e+003;3.8465385742e+003;3.8180769043e+003;3.8356411133e+003;3.8251281738e+003;3.7729487305e+003;3.8133332520e+003;3.7960256348e+003;3.8065385742e+003;3.8246154785e+003;
2.8125000000e+000;3.8793588867e+003;3.6748718262e+003;3.7288461914e+003;3.7567949219e+003;3.7139743652e+003;3.7708974609e+003;3.7408974609e+003;3.7417949219e+003;3.7380769043e+003;3.6764101563e+003;3.7202563477e+003;3.7087180176e+003;3.7102563477e+003;3.7338461914e+003;
2.8203125000e+000;3.8905129395e+003;3.6876923828e+003;3.7401281738e+003;3.7707692871e+003;3.7274357910e+003;3.7861538086e+003;3.7553845215e+003;3.7523076172e+003;3.7480769043e+003;3.6867949219e+003;3.7275642090e+003;3.7192307129e+003;3.7214101563e+003;3.7419230957e+003;
2.8281250000e+000;3.8229487305e+003;3.6250000000e+003;3.6697436523e+003;3.7087180176e+003;3.6648718262e+003;3.7287180176e+003;3.6915385742e+003;3.6903845215e+003;3.6828205566e+003;3.6235898438e+003;3.6620512695e+003;3.6505129395e+003;3.6571794434e+003;3.6692307129e+003;
2.8359375000e+000;3.7591025391e+003;3.5511538086e+003;3.5971794434e+003;3.6457692871e+003;3.5978205566e+003;3.6698718262e+003;3.6310256348e+003;3.6066667480e+003;3.5973076172e+003;3.5312819824e+003;3.5891025391e+003;3.5762819824e+003;3.5816667480e+003;3.5902563477e+003;
2.8437500000e+000;3.8403845215e+003;3.6350000000e+003;3.6764101563e+003;3.7260256348e+003;3.6823076172e+003;3.7484614258e+003;3.7110256348e+003;3.6847436523e+003;3.6733332520e+003;3.6130769043e+003;3.6688461914e+003;3.6555129395e+003;3.6614101563e+003;3.6673076172e+003;
2.8515625000e+000;3.9776923828e+003;3.7785898438e+003;3.8184614258e+003;3.8594870605e+003;3.8229487305e+003;3.8789743652e+003;3.8401281738e+003;3.8269230957e+003;3.8170512695e+003;3.7693588867e+003;3.8146154785e+003;3.7971794434e+003;3.8055129395e+003;3.8092307129e+003;
2.8593750000e+000;3.9596154785e+003;3.7661538086e+003;3.7956411133e+003;3.8420512695e+003;3.8057692871e+003;3.8519230957e+003;3.8183332520e+003;3.8141025391e+003;3.8056411133e+003;3.7553845215e+003;3.8032050781e+003;3.7887180176e+003;3.7941025391e+003;3.7894870605e+003;
2.8671875000e+000;3.9730769043e+003;3.7839743652e+003;3.8087180176e+003;3.8592307129e+003;3.8192307129e+003;3.8614101563e+003;3.8302563477e+003;3.8302563477e+003;3.8223076172e+003;3.7757692871e+003;3.8174357910e+003;3.8067949219e+003;3.8102563477e+003;3.8041025391e+003;
2.8750000000e+000;3.9865385742e+003;3.7996154785e+003;3.8241025391e+003;3.8746154785e+003;3.8306411133e+003;3.8703845215e+003;3.8416667480e+003;3.8457692871e+003;3.8398718262e+003;3.7952563477e+003;3.8311538086e+003;3.8221794434e+003;3.8266667480e+003;3.8201281738e+003;
2.8828125000e+000;4.0156411133e+003;3.8262819824e+003;3.8594870605e+003;3.8985898438e+003;3.8560256348e+003;3.8903845215e+003;3.8661538086e+003;3.8797436523e+003;3.8776923828e+003;3.8296154785e+003;3.8617949219e+003;3.8476923828e+003;3.8608974609e+003;3.8537180176e+003;
2.8906250000e+000;4.0382050781e+003;3.8469230957e+003;3.8847436523e+003;3.9211538086e+003;3.8835898438e+003;3.9096154785e+003;3.8870512695e+003;3.9065385742e+003;3.9014101563e+003;3.8573076172e+003;3.8815385742e+003;3.8717949219e+003;3.8808974609e+003;3.8762819824e+003;
2.8984375000e+000;4.0306411133e+003;3.8420512695e+003;3.8765385742e+003;3.9179487305e+003;3.8769230957e+003;3.9038461914e+003;3.8814101563e+003;3.8991025391e+003;3.8932050781e+003;3.8517949219e+003;3.8733332520e+003;3.8655129395e+003;3.8734614258e+003;3.8694870605e+003;
2.9062500000e+000;4.0223076172e+003;3.8376923828e+003;3.8684614258e+003;3.9128205566e+003;3.8689743652e+003;3.8984614258e+003;3.8765385742e+003;3.8914101563e+003;3.8867949219e+003;3.8457692871e+003;3.8670512695e+003;3.8571794434e+003;3.8670512695e+003;3.8633332520e+003;
2.9140625000e+000;4.0119230957e+003;3.8326923828e+003;3.8610256348e+003;3.9015385742e+003;3.8575642090e+003;3.8938461914e+003;3.8725642090e+003;3.8815385742e+003;3.8820512695e+003;3.8380769043e+003;3.8641025391e+003;3.8457692871e+003;3.8608974609e+003;3.8582050781e+003;
2.9218750000e+000;4.0061538086e+003;3.8273076172e+003;3.8561538086e+003;3.8939743652e+003;3.8519230957e+003;3.8906411133e+003;3.8675642090e+003;3.8744870605e+003;3.8764101563e+003;3.8323076172e+003;3.8602563477e+003;3.8406411133e+003;3.8562819824e+003;3.8543588867e+003;
2.9296875000e+000;3.9988461914e+003;3.8212819824e+003;3.8484614258e+003;3.8865385742e+003;3.8464101563e+003;3.8864101563e+003;3.8601281738e+003;3.8655129395e+003;3.8673076172e+003;3.8251281738e+003;3.8537180176e+003;3.8342307129e+003;3.8507692871e+003;3.8482050781e+003;
2.9375000000e+000;4.0330769043e+003;3.8639743652e+003;3.8839743652e+003;3.9223076172e+003;3.8919230957e+003;3.9329487305e+003;3.9025642090e+003;3.8926923828e+003;3.8843588867e+003;3.8519230957e+003;3.8801281738e+003;3.8701281738e+003;3.8894870605e+003;3.8773076172e+003;
2.9453125000e+000;4.0844870605e+003;3.9142307129e+003;3.9333332520e+003;3.9684614258e+003;3.9455129395e+003;3.9814101563e+003;3.9512819824e+003;3.9398718262e+003;3.9319230957e+003;3.9029487305e+003;3.9298718262e+003;3.9189743652e+003;3.9387180176e+003;3.9269230957e+003;
2.9531250000e+000;4.1501284180e+003;3.9971794434e+003;4.0094870605e+003;4.0457692871e+003;4.0293588867e+003;4.0602563477e+003;4.0285898438e+003;4.0164101563e+003;4.0071794434e+003;3.9876923828e+003;4.0111538086e+003;4.0002563477e+003;4.0169230957e+003;4.0060256348e+003;
2.9609375000e+000;4.1506411133e+003;4.0123076172e+003;4.0233332520e+003;4.0630769043e+003;4.0385898438e+003;4.0651281738e+003;4.0321794434e+003;4.0212819824e+003;4.0135898438e+003;3.9923076172e+003;4.0225642090e+003;4.0128205566e+003;4.0266667480e+003;4.0146154785e+003;
2.9687500000e+000;4.1479487305e+003;4.0082050781e+003;4.0221794434e+003;4.0585898438e+003;4.0338461914e+003;4.0598718262e+003;4.0261538086e+003;4.0207692871e+003;4.0150000000e+003;3.9939743652e+003;4.0235898438e+003;4.0123076172e+003;4.0247436523e+003;4.0151281738e+003;
2.9765625000e+000;4.1184614258e+003;3.9733332520e+003;3.9915385742e+003;4.0191025391e+003;3.9983332520e+003;4.0202563477e+003;3.9930769043e+003;4.0017949219e+003;3.9967949219e+003;3.9760256348e+003;3.9970512695e+003;3.9841025391e+003;3.9984614258e+003;3.9902563477e+003;
2.9843750000e+000;4.1130771484e+003;3.9706411133e+003;3.9873076172e+003;4.0157692871e+003;3.9908974609e+003;4.0038461914e+003;3.9852563477e+003;4.0016667480e+003;3.9976923828e+003;3.9691025391e+003;3.9937180176e+003;3.9814101563e+003;3.9966667480e+003;3.9847436523e+003;
2.9921875000e+000;4.1062822266e+003;3.9674357910e+003;3.9816667480e+003;4.0111538086e+003;3.9850000000e+003;3.9962819824e+003;3.9780769043e+003;3.9951281738e+003;3.9914101563e+003;3.9633332520e+003;3.9919230957e+003;3.9784614258e+003;3.9912819824e+003;3.9837180176e+003;
3.0000000000e+000;4.1176923828e+003;3.9842307129e+003;3.9930769043e+003;4.0238461914e+003;3.9991025391e+003;4.0070512695e+003;3.9885898438e+003;4.0070512695e+003;4.0043588867e+003;3.9787180176e+003;4.0073076172e+003;3.9914101563e+003;4.0047436523e+003;4.0008974609e+003;
3.0078125000e+000;4.1626923828e+003;4.0371794434e+003;4.0375642090e+003;4.0708974609e+003;4.0507692871e+003;4.0553845215e+003;4.0342307129e+003;4.0608974609e+003;4.0588461914e+003;4.0373076172e+003;4.0538461914e+003;4.0347436523e+003;4.0565385742e+003;4.0519230957e+003;
3.0156250000e+000;4.1632050781e+003;4.0369230957e+003;4.0387180176e+003;4.0728205566e+003;4.0529487305e+003;4.0603845215e+003;4.0384614258e+003;4.0673076172e+003;4.0635898438e+003;4.0421794434e+003;4.0532050781e+003;4.0335898438e+003;4.0605129395e+003;4.0529487305e+003;
3.0234375000e+000;4.1357690430e+003;4.0064101563e+003;4.0153845215e+003;4.0489743652e+003;4.0279487305e+003;4.0407692871e+003;4.0214101563e+003;4.0439743652e+003;4.0366667480e+003;4.0169230957e+003;4.0265385742e+003;4.0043588867e+003;4.0391025391e+003;4.0257692871e+003;
3.0312500000e+000;4.1338461914e+003;4.0064101563e+003;4.0162819824e+003;4.0496154785e+003;4.0291025391e+003;4.0410256348e+003;4.0229487305e+003;4.0401281738e+003;4.0339743652e+003;4.0158974609e+003;4.0273076172e+003;4.0046154785e+003;4.0385898438e+003;4.0243588867e+003;
3.0390625000e+000;4.1866665039e+003;4.0687180176e+003;4.0729487305e+003;4.1082050781e+003;4.0923076172e+003;4.1030771484e+003;4.0789743652e+003;4.0832050781e+003;4.0834614258e+003;4.0687180176e+003;4.0816667480e+003;4.0594870605e+003;4.0824357910e+003;4.0785898438e+003;
3.0468750000e+000;4.2206411133e+003;4.1041025391e+003;4.1057690430e+003;4.1414101563e+003;4.1285898438e+003;4.1391025391e+003;4.1138461914e+003;4.1141025391e+003;4.1133334961e+003;4.1019228516e+003;4.1143588867e+003;4.0865385742e+003;4.1147436523e+003;4.1114101563e+003;
3.0546875000e+000;4.2496152344e+003;4.1341025391e+003;4.1339741211e+003;4.1694873047e+003;4.1594873047e+003;4.1692309570e+003;4.1439741211e+003;4.1412822266e+003;4.1382050781e+003;4.1314101563e+003;4.1426923828e+003;4.1096152344e+003;4.1450000000e+003;4.1385898438e+003;
3.0625000000e+000;4.2578203125e+003;4.1434614258e+003;4.1429487305e+003;4.1784614258e+003;4.1692309570e+003;4.1788461914e+003;4.1541025391e+003;4.1491025391e+003;4.1437177734e+003;4.1407690430e+003;4.1506411133e+003;4.1171796875e+003;4.1557690430e+003;4.1457690430e+003;
3.0703125000e+000;4.2197436523e+003;4.1161538086e+003;4.1150000000e+003;4.1517949219e+003;4.1429487305e+003;4.1619228516e+003;4.1287177734e+003;4.1201284180e+003;4.1089741211e+003;4.1085898438e+003;4.1197436523e+003;4.1075639648e+003;4.1202563477e+003;4.1211538086e+003;
3.0781250000e+000;4.2800000000e+003;4.1753847656e+003;4.1835898438e+003;4.2126923828e+003;4.2053847656e+003;4.2110258789e+003;4.1857690430e+003;4.1853847656e+003;4.1787177734e+003;4.1791025391e+003;4.1855126953e+003;4.1689741211e+003;4.1901284180e+003;4.1825639648e+003;
3.0859375000e+000;4.2985898438e+003;4.1952563477e+003;4.2048715820e+003;4.2335898438e+003;4.2246152344e+003;4.2253847656e+003;4.2033334961e+003;4.2073076172e+003;4.2034614258e+003;4.2035898438e+003;4.2047436523e+003;4.1912822266e+003;4.2115385742e+003;4.2019228516e+003;
3.0937500000e+000;4.2829487305e+003;4.1873076172e+003;4.1978203125e+003;4.2225639648e+003;4.2105126953e+003;4.2101284180e+003;4.1879487305e+003;4.2071796875e+003;4.2011538086e+003;4.2028203125e+003;4.1993588867e+003;4.1887177734e+003;4.2033334961e+003;4.1965385742e+003;
3.1015625000e+000;4.1653847656e+003;4.0730769043e+003;4.0855129395e+003;4.1093588867e+003;4.0871794434e+003;4.0946154785e+003;4.0732050781e+003;4.1034614258e+003;4.0866667480e+003;4.0793588867e+003;4.0907692871e+003;4.0769230957e+003;4.0879487305e+003;4.0839743652e+003;
3.1093750000e+000;4.1505126953e+003;4.0561538086e+003;4.0721794434e+003;4.0965385742e+003;4.0730769043e+003;4.0815385742e+003;4.0607692871e+003;4.0900000000e+003;4.0703845215e+003;4.0629487305e+003;4.0752563477e+003;4.0679487305e+003;4.0717949219e+003;4.0715385742e+003;
3.1171875000e+000;4.1387177734e+003;4.0398718262e+003;4.0619230957e+003;4.0843588867e+003;4.0661538086e+003;4.0757692871e+003;4.0552563477e+003;4.0741025391e+003;4.0530769043e+003;4.0464101563e+003;4.0594870605e+003;4.0594870605e+003;4.0556411133e+003;4.0610256348e+003;
3.1250000000e+000;4.1493588867e+003;4.0494870605e+003;4.0707692871e+003;4.0937180176e+003;4.0802563477e+003;4.0894870605e+003;4.0696154785e+003;4.0814101563e+003;4.0625642090e+003;4.0555129395e+003;4.0680769043e+003;4.0642307129e+003;4.0653845215e+003;4.0682050781e+003;
3.1328125000e+000;4.1448715820e+003;4.0474357910e+003;4.0687180176e+003;4.0958974609e+003;4.0828205566e+003;4.0985898438e+003;4.0757692871e+003;4.0756411133e+003;4.0623076172e+003;4.0507692871e+003;4.0635898438e+003;4.0508974609e+003;4.0626923828e+003;4.0584614258e+003;
3.1406250000e+000;4.1229487305e+003;4.0288461914e+003;4.0497436523e+003;4.0779487305e+003;4.0625642090e+003;4.0811538086e+003;4.0562819824e+003;4.0555129395e+003;4.0420512695e+003;4.0297436523e+003;4.0432050781e+003;4.0337180176e+003;4.0405129395e+003;4.0408974609e+003;
3.1484375000e+000;4.0770512695e+003;3.9898718262e+003;4.0043588867e+003;4.0411538086e+003;4.0215385742e+003;4.0447436523e+003;4.0170512695e+003;4.0151281738e+003;4.0016667480e+003;3.9910256348e+003;4.0039743652e+003;3.9966667480e+003;3.9970512695e+003;4.0058974609e+003;
3.1562500000e+000;4.0564101563e+003;3.9687180176e+003;3.9814101563e+003;4.0246154785e+003;4.0025642090e+003;4.0292307129e+003;4.0006411133e+003;3.9952563477e+003;3.9833332520e+003;3.9728205566e+003;3.9851281738e+003;3.9765385742e+003;3.9787180176e+003;3.9876923828e+003;
3.1640625000e+000;4.0415385742e+003;3.9425642090e+003;3.9605129395e+003;4.0079487305e+003;3.9875642090e+003;4.0162819824e+003;3.9833332520e+003;3.9682050781e+003;3.9667949219e+003;3.9507692871e+003;3.9601281738e+003;3.9514101563e+003;3.9624357910e+003;3.9651281738e+003;
3.1718750000e+000;4.0298718262e+003;3.9296154785e+003;3.9500000000e+003;3.9966667480e+003;3.9747436523e+003;4.0026923828e+003;3.9676923828e+003;3.9543588867e+003;3.9542307129e+003;3.9376923828e+003;3.9456411133e+003;3.9402563477e+003;3.9474357910e+003;3.9532050781e+003;
3.1796875000e+000;4.0007692871e+003;3.8993588867e+003;3.9220512695e+003;3.9716667480e+003;3.9429487305e+003;3.9724357910e+003;3.9364101563e+003;3.9253845215e+003;3.9242307129e+003;3.9079487305e+003;3.9160256348e+003;3.9139743652e+003;3.9158974609e+003;3.9260256348e+003;
3.1875000000e+000;3.9661538086e+003;3.8626923828e+003;3.8864101563e+003;3.9429487305e+003;3.9046154785e+003;3.9370512695e+003;3.9016667480e+003;3.8916667480e+003;3.8888461914e+003;3.8724357910e+003;3.8824357910e+003;3.8817949219e+003;3.8810256348e+003;3.8928205566e+003;
3.1953125000e+000;3.9629487305e+003;3.8566667480e+003;3.8748718262e+003;3.9392307129e+003;3.8920512695e+003;3.9256411133e+003;3.8997436523e+003;3.8962819824e+003;3.8967949219e+003;3.8673076172e+003;3.8808974609e+003;3.8774357910e+003;3.8762819824e+003;3.8843588867e+003;
3.2031250000e+000;3.9660256348e+003;3.8594870605e+003;3.8779487305e+003;3.9396154785e+003;3.8900000000e+003;3.9241025391e+003;3.8991025391e+003;3.9008974609e+003;3.8991025391e+003;3.8678205566e+003;3.8779487305e+003;3.8798718262e+003;3.8734614258e+003;3.8864101563e+003;
3.2109375000e+000;3.9630769043e+003;3.8535898438e+003;3.8738461914e+003;3.9361538086e+003;3.8817949219e+003;3.9091025391e+003;3.8898718262e+003;3.9060256348e+003;3.8958974609e+003;3.8737180176e+003;3.8750000000e+003;3.8729487305e+003;3.8744870605e+003;3.8824357910e+003;
3.2187500000e+000;3.9356411133e+003;3.8217949219e+003;3.8425642090e+003;3.9051281738e+003;3.8516667480e+003;3.8780769043e+003;3.8632050781e+003;3.8669230957e+003;3.8607692871e+003;3.8365385742e+003;3.8501281738e+003;3.8474357910e+003;3.8426923828e+003;3.8558974609e+003;
3.2265625000e+000;4.0647436523e+003;3.9639743652e+003;3.9743588867e+003;4.0319230957e+003;3.9846154785e+003;4.0023076172e+003;3.9843588867e+003;3.9942307129e+003;3.9857692871e+003;3.9806411133e+003;3.9785898438e+003;3.9817949219e+003;3.9874357910e+003;3.9966667480e+003;
3.2343750000e+000;4.0416667480e+003;3.9412819824e+003;3.9534614258e+003;4.0092307129e+003;3.9643588867e+003;3.9838461914e+003;3.9648718262e+003;3.9701281738e+003;3.9664101563e+003;3.9607692871e+003;3.9583332520e+003;3.9628205566e+003;3.9657692871e+003;3.9756411133e+003;
3.2421875000e+000;4.0026923828e+003;3.9000000000e+003;3.9121794434e+003;3.9678205566e+003;3.9276923828e+003;3.9534614258e+003;3.9279487305e+003;3.9237180176e+003;3.9323076172e+003;3.9176923828e+003;3.9175642090e+003;3.9203845215e+003;3.9196154785e+003;3.9300000000e+003;
3.2500000000e+000;3.9911538086e+003;3.8866667480e+003;3.9006411133e+003;3.9558974609e+003;3.9171794434e+003;3.9470512695e+003;3.9179487305e+003;3.9135898438e+003;3.9255129395e+003;3.9065385742e+003;3.9060256348e+003;3.9079487305e+003;3.9064101563e+003;3.9169230957e+003;
3.2578125000e+000;3.9633332520e+003;3.8532050781e+003;3.8782050781e+003;3.9287180176e+003;3.8912819824e+003;3.9305129395e+003;3.9030769043e+003;3.8946154785e+003;3.9069230957e+003;3.8866667480e+003;3.8850000000e+003;3.8866667480e+003;3.8789743652e+003;3.8947436523e+003;
3.2656250000e+000;3.9707692871e+003;3.8617949219e+003;3.8833332520e+003;3.9342307129e+003;3.8967949219e+003;3.9362819824e+003;3.9107692871e+003;3.8978205566e+003;3.9124357910e+003;3.8930769043e+003;3.8926923828e+003;3.8939743652e+003;3.8848718262e+003;3.9005129395e+003;
3.2734375000e+000;3.9701281738e+003;3.8643588867e+003;3.8775642090e+003;3.9294870605e+003;3.8889743652e+003;3.9284614258e+003;3.9023076172e+003;3.8860256348e+003;3.9026923828e+003;3.8828205566e+003;3.8858974609e+003;3.8897436523e+003;3.8812819824e+003;3.8938461914e+003;
3.2812500000e+000;3.9620512695e+003;3.8552563477e+003;3.8685898438e+003;3.9189743652e+003;3.8765385742e+003;3.9161538086e+003;3.8893588867e+003;3.8747436523e+003;3.8876923828e+003;3.8680769043e+003;3.8724357910e+003;3.8778205566e+003;3.8724357910e+003;3.8839743652e+003;
3.2890625000e+000;4.1121796875e+003;4.0034614258e+003;4.0156411133e+003;4.0569230957e+003;4.0242307129e+003;4.0479487305e+003;4.0283332520e+003;4.0234614258e+003;4.0200000000e+003;4.0142307129e+003;4.0175642090e+003;4.0153845215e+003;4.0225642090e+003;4.0326923828e+003;
3.2968750000e+000;4.2212822266e+003;4.1167949219e+003;4.1251284180e+003;4.1626923828e+003;4.1369228516e+003;4.1500000000e+003;4.1350000000e+003;4.1334614258e+003;4.1300000000e+003;4.1291025391e+003;4.1323076172e+003;4.1275639648e+003;4.1344873047e+003;4.1434614258e+003;
3.3046875000e+000;4.3146152344e+003;4.2171796875e+003;4.2219228516e+003;4.2550000000e+003;4.2353847656e+003;4.2385898438e+003;4.2278203125e+003;4.2308974609e+003;4.2296152344e+003;4.2326923828e+003;4.2347436523e+003;4.2294873047e+003;4.2338461914e+003;4.2414101563e+003;
3.3125000000e+000;4.3565385742e+003;4.2674360352e+003;4.2698715820e+003;4.2983334961e+003;4.2826923828e+003;4.2797436523e+003;4.2715385742e+003;4.2819228516e+003;4.2816665039e+003;4.2884614258e+003;4.2869228516e+003;4.2829487305e+003;4.2846152344e+003;4.2908974609e+003;
3.3203125000e+000;4.1134614258e+003;4.0352563477e+003;4.0423076172e+003;4.0733332520e+003;4.0414101563e+003;4.0519230957e+003;4.0383332520e+003;4.0628205566e+003;4.0460256348e+003;4.0528205566e+003;4.0461538086e+003;4.0489743652e+003;4.0561538086e+003;4.0594870605e+003;
3.3281250000e+000;4.1274360352e+003;4.0480769043e+003;4.0548718262e+003;4.0876923828e+003;4.0533332520e+003;4.0619230957e+003;4.0491025391e+003;4.0691025391e+003;4.0538461914e+003;4.0576923828e+003;4.0543588867e+003;4.0557692871e+003;4.0635898438e+003;4.0682050781e+003;
3.3359375000e+000;4.2179487305e+003;4.1461538086e+003;4.1534614258e+003;4.1791025391e+003;4.1516665039e+003;4.1491025391e+003;4.1408974609e+003;4.1535898438e+003;4.1576923828e+003;4.1587177734e+003;4.1505126953e+003;4.1519228516e+003;4.1487177734e+003;4.1641025391e+003;
3.3437500000e+000;4.2162822266e+003;4.1492309570e+003;4.1578203125e+003;4.1829487305e+003;4.1608974609e+003;4.1602563477e+003;4.1493588867e+003;4.1562822266e+003;4.1625639648e+003;4.1591025391e+003;4.1497436523e+003;4.1524360352e+003;4.1556411133e+003;4.1657690430e+003;
3.3515625000e+000;4.2301284180e+003;4.1630771484e+003;4.1719228516e+003;4.1984614258e+003;4.1776923828e+003;4.1782050781e+003;4.1641025391e+003;4.1674360352e+003;4.1760258789e+003;4.1714101563e+003;4.1637177734e+003;4.1637177734e+003;4.1669228516e+003;4.1788461914e+003;
3.3593750000e+000;4.1742309570e+003;4.1169228516e+003;4.1194873047e+003;4.1505126953e+003;4.1315385742e+003;4.1446152344e+003;4.1211538086e+003;4.1034614258e+003;4.1200000000e+003;4.1191025391e+003;4.1160258789e+003;4.1147436523e+003;4.1067949219e+003;4.1324360352e+003;
3.3671875000e+000;4.1666665039e+003;4.1139741211e+003;4.1125639648e+003;4.1448715820e+003;4.1280771484e+003;4.1429487305e+003;4.1191025391e+003;4.0998715820e+003;4.1133334961e+003;4.1150000000e+003;4.1107690430e+003;4.1108974609e+003;4.1061538086e+003;4.1274360352e+003;
3.3750000000e+000;4.1932050781e+003;4.1388461914e+003;4.1383334961e+003;4.1684614258e+003;4.1565385742e+003;4.1697436523e+003;4.1461538086e+003;4.1333334961e+003;4.1351284180e+003;4.1402563477e+003;4.1329487305e+003;4.1346152344e+003;4.1408974609e+003;4.1480771484e+003;
3.3828125000e+000;4.2132050781e+003;4.1546152344e+003;4.1567949219e+003;4.1846152344e+003;4.1748715820e+003;4.1857690430e+003;4.1616665039e+003;4.1500000000e+003;4.1491025391e+003;4.1538461914e+003;4.1485898438e+003;4.1488461914e+003;4.1575639648e+003;4.1616665039e+003;
3.3906250000e+000;4.2358974609e+003;4.1753847656e+003;4.1779487305e+003;4.2044873047e+003;4.1966665039e+003;4.2051284180e+003;4.1805126953e+003;4.1675639648e+003;4.1676923828e+003;4.1712822266e+003;4.1705126953e+003;4.1673076172e+003;4.1760258789e+003;4.1807690430e+003;
3.3984375000e+000;4.3146152344e+003;4.2738461914e+003;4.2687177734e+003;4.2898715820e+003;4.2885898438e+003;4.2901284180e+003;4.2793588867e+003;4.2810258789e+003;4.2682050781e+003;4.2815385742e+003;4.2752563477e+003;4.2707690430e+003;4.2767949219e+003;4.2842309570e+003;
3.4062500000e+000;4.3374360352e+003;4.2980771484e+003;4.2905126953e+003;4.3111538086e+003;4.3144873047e+003;4.3083334961e+003;4.3005126953e+003;4.3058974609e+003;4.2911538086e+003;4.3064101563e+003;4.2975639648e+003;4.2894873047e+003;4.3014101563e+003;4.3041025391e+003;
3.4140625000e+000;4.3926923828e+003;4.3601284180e+003;4.3515385742e+003;4.3673076172e+003;4.3679487305e+003;4.3558974609e+003;4.3471796875e+003;4.3585898438e+003;4.3466665039e+003;4.3628203125e+003;4.3537177734e+003;4.3475639648e+003;4.3514101563e+003;4.3579487305e+003;
3.4218750000e+000;4.4291025391e+003;4.4100000000e+003;4.4002563477e+003;4.4106411133e+003;4.4162822266e+003;4.3905126953e+003;4.3810258789e+003;4.4033334961e+003;4.3978203125e+003;4.4210258789e+003;4.3964101563e+003;4.3911538086e+003;4.4066665039e+003;4.4079487305e+003;
3.4296875000e+000;4.4106411133e+003;4.3937177734e+003;4.3824360352e+003;4.3950000000e+003;4.4032050781e+003;4.3744873047e+003;4.3632050781e+003;4.3861538086e+003;4.3858974609e+003;4.4066665039e+003;4.3823076172e+003;4.3738461914e+003;4.3916665039e+003;4.3925639648e+003;
