Time (s);AF3;F7;F3;FC5;T7;P7;O1;O2;P8;T8;FC6;F4;F8;AF4;Sampling Rate
0.0000000000e+000;3.8951281738e+003;3.7696154785e+003;3.7667949219e+003;3.8035898438e+003;3.8587180176e+003;3.8034614258e+003;3.7911538086e+003;3.8028205566e+003;3.8319230957e+003;3.8815385742e+003;3.7765385742e+003;3.7880769043e+003;3.7865385742e+003;3.7926923828e+003;128
7.8125000000e-003;3.9228205566e+003;3.7997436523e+003;3.7957692871e+003;3.8257692871e+003;3.8732050781e+003;3.8201281738e+003;3.8179487305e+003;3.8323076172e+003;3.8585898438e+003;3.9057692871e+003;3.8200000000e+003;3.8184614258e+003;3.8120512695e+003;3.8226923828e+003;
1.5625000000e-002;3.9565385742e+003;3.8373076172e+003;3.8315385742e+003;3.8582050781e+003;3.8938461914e+003;3.8460256348e+003;3.8503845215e+003;3.8679487305e+003;3.8908974609e+003;3.9423076172e+003;3.8639743652e+003;3.8574357910e+003;3.8483332520e+003;3.8605129395e+003;
2.3437500000e-002;3.9598718262e+003;3.8420512695e+003;3.8376923828e+003;3.8669230957e+003;3.8907692871e+003;3.8505129395e+003;3.8534614258e+003;3.8729487305e+003;3.8929487305e+003;3.9520512695e+003;3.8691025391e+003;3.8666667480e+003;3.8565385742e+003;3.8680769043e+003;
3.1250000000e-002;3.8939743652e+003;3.7730769043e+003;3.7726923828e+003;3.8243588867e+003;3.8542307129e+003;3.7938461914e+003;3.7803845215e+003;3.7941025391e+003;3.8092307129e+003;3.8661538086e+003;3.7993588867e+003;3.7957692871e+003;3.7776923828e+003;3.8002563477e+003;
3.9062500000e-002;3.8388461914e+003;3.7214101563e+003;3.7144870605e+003;3.7630769043e+003;3.7905129395e+003;3.7624357910e+003;3.7334614258e+003;3.7246154785e+003;3.7446154785e+003;3.8087180176e+003;3.7091025391e+003;3.7196154785e+003;3.7266667480e+003;3.7314101563e+003;
4.6875000000e-002;3.8602563477e+003;3.7385898438e+003;3.7369230957e+003;3.7848718262e+003;3.8108974609e+003;3.7802563477e+003;3.7506411133e+003;3.7402563477e+003;3.7623076172e+003;3.8223076172e+003;3.7305129395e+003;3.7396154785e+003;3.7410256348e+003;3.7485898438e+003;
5.4687500000e-002;3.8417949219e+003;3.7210256348e+003;3.7202563477e+003;3.7634614258e+003;3.7857692871e+003;3.7598718262e+003;3.7307692871e+003;3.7264101563e+003;3.7469230957e+003;3.7957692871e+003;3.7232050781e+003;3.7333332520e+003;3.7148718262e+003;3.7330769043e+003;
6.2500000000e-002;3.8250000000e+003;3.7039743652e+003;3.6975642090e+003;3.7400000000e+003;3.7737180176e+003;3.7475642090e+003;3.7239743652e+003;3.7150000000e+003;3.7282050781e+003;3.7856411133e+003;3.7151281738e+003;3.7114101563e+003;3.7042307129e+003;3.7175642090e+003;
7.0312500000e-002;3.8261538086e+003;3.7000000000e+003;3.7028205566e+003;3.7415385742e+003;3.7734614258e+003;3.7428205566e+003;3.7215385742e+003;3.7147436523e+003;3.7293588867e+003;3.7852563477e+003;3.7128205566e+003;3.7115385742e+003;3.7005129395e+003;3.7126923828e+003;
7.8125000000e-002;3.8493588867e+003;3.7241025391e+003;3.7267949219e+003;3.7642307129e+003;3.7934614258e+003;3.7529487305e+003;3.7373076172e+003;3.7364101563e+003;3.7539743652e+003;3.8030769043e+003;3.7256411133e+003;3.7360256348e+003;3.7214101563e+003;3.7311538086e+003;
8.5937500000e-002;3.8915385742e+003;3.7742307129e+003;3.7658974609e+003;3.8071794434e+003;3.8393588867e+003;3.7894870605e+003;3.7761538086e+003;3.7824357910e+003;3.7997436523e+003;3.8523076172e+003;3.7689743652e+003;3.7806411133e+003;3.7712819824e+003;3.7776923828e+003;
9.3750000000e-002;3.8924357910e+003;3.7775642090e+003;3.7698718262e+003;3.8147436523e+003;3.8362819824e+003;3.7883332520e+003;3.7728205566e+003;3.7875642090e+003;3.8000000000e+003;3.8669230957e+003;3.7878205566e+003;3.7797436523e+003;3.7800000000e+003;3.7829487305e+003;
1.0156250000e-001;3.8807692871e+003;3.7594870605e+003;3.7607692871e+003;3.8008974609e+003;3.8166667480e+003;3.7773076172e+003;3.7606411133e+003;3.7708974609e+003;3.7839743652e+003;3.8462819824e+003;3.7767949219e+003;3.7653845215e+003;3.7638461914e+003;3.7692307129e+003;
1.0937500000e-001;3.8903845215e+003;3.7671794434e+003;3.7712819824e+003;3.8076923828e+003;3.8216667480e+003;3.7850000000e+003;3.7688461914e+003;3.7792307129e+003;3.7946154785e+003;3.8502563477e+003;3.7873076172e+003;3.7778205566e+003;3.7739743652e+003;3.7820512695e+003;
1.1718750000e-001;3.9007692871e+003;3.7820512695e+003;3.7814101563e+003;3.8171794434e+003;3.8328205566e+003;3.7916667480e+003;3.7771794434e+003;3.7934614258e+003;3.8115385742e+003;3.8615385742e+003;3.8003845215e+003;3.7967949219e+003;3.7901281738e+003;3.8007692871e+003;
1.2500000000e-001;3.8879487305e+003;3.7802563477e+003;3.7696154785e+003;3.8075642090e+003;3.8532050781e+003;3.7971794434e+003;3.7734614258e+003;3.7839743652e+003;3.7969230957e+003;3.8506411133e+003;3.7732050781e+003;3.7855129395e+003;3.7733332520e+003;3.7819230957e+003;
1.3281250000e-001;3.8843588867e+003;3.7728205566e+003;3.7676923828e+003;3.8094870605e+003;3.8430769043e+003;3.8117949219e+003;3.7802563477e+003;3.7843588867e+003;3.7956411133e+003;3.8505129395e+003;3.7701281738e+003;3.7800000000e+003;3.7716667480e+003;3.7758974609e+003;
1.4062500000e-001;3.8517949219e+003;3.7366667480e+003;3.7346154785e+003;3.7767949219e+003;3.7458974609e+003;3.7888461914e+003;3.7707692871e+003;3.7592307129e+003;3.7608974609e+003;3.8048718262e+003;3.7542307129e+003;3.7547436523e+003;3.7396154785e+003;3.7503845215e+003;
1.4843750000e-001;3.9500000000e+003;3.8403845215e+003;3.8355129395e+003;3.8651281738e+003;3.9178205566e+003;3.8692307129e+003;3.8669230957e+003;3.8653845215e+003;3.8565385742e+003;3.9023076172e+003;3.8417949219e+003;3.8548718262e+003;3.8307692871e+003;3.8469230957e+003;
1.5625000000e-001;3.9214101563e+003;3.8155129395e+003;3.8114101563e+003;3.8507692871e+003;3.9176923828e+003;3.8520512695e+003;3.8450000000e+003;3.8428205566e+003;3.8358974609e+003;3.8792307129e+003;3.8120512695e+003;3.8291025391e+003;3.8088461914e+003;3.8239743652e+003;
1.6406250000e-001;3.9347436523e+003;3.8428205566e+003;3.8310256348e+003;3.8838461914e+003;3.9078205566e+003;3.8678205566e+003;3.8516667480e+003;3.8551281738e+003;3.8662819824e+003;3.9076923828e+003;3.8494870605e+003;3.8498718262e+003;3.8424357910e+003;3.8451281738e+003;
1.7187500000e-001;3.9325642090e+003;3.8405129395e+003;3.8206411133e+003;3.8623076172e+003;3.8944870605e+003;3.8561538086e+003;3.8410256348e+003;3.8470512695e+003;3.8593588867e+003;3.9067949219e+003;3.8589743652e+003;3.8525642090e+003;3.8425642090e+003;3.8412819824e+003;
1.7968750000e-001;3.9717949219e+003;3.8823076172e+003;3.8565385742e+003;3.8985898438e+003;3.9394870605e+003;3.8919230957e+003;3.8775642090e+003;3.8816667480e+003;3.8942307129e+003;3.9478205566e+003;3.8941025391e+003;3.8905129395e+003;3.8867949219e+003;3.8820512695e+003;
1.8750000000e-001;4.0224357910e+003;3.9357692871e+003;3.9089743652e+003;3.9502563477e+003;3.9911538086e+003;3.9347436523e+003;3.9214101563e+003;3.9278205566e+003;3.9417949219e+003;4.0015385742e+003;3.9407692871e+003;3.9400000000e+003;3.9426923828e+003;3.9332050781e+003;
1.9531250000e-001;4.0417949219e+003;3.9575642090e+003;3.9405129395e+003;3.9816667480e+003;4.0108974609e+003;3.9362819824e+003;3.9300000000e+003;3.9433332520e+003;3.9589743652e+003;4.0161538086e+003;3.9526923828e+003;3.9600000000e+003;3.9612819824e+003;3.9462819824e+003;
2.0312500000e-001;4.0251281738e+003;3.9429487305e+003;3.9248718262e+003;3.9682050781e+003;3.9983332520e+003;3.9167949219e+003;3.9157692871e+003;3.9285898438e+003;3.9451281738e+003;3.9926923828e+003;3.9334614258e+003;3.9464101563e+003;3.9400000000e+003;3.9267949219e+003;
2.1093750000e-001;4.0124357910e+003;3.9330769043e+003;3.9071794434e+003;3.9453845215e+003;3.9834614258e+003;3.9202563477e+003;3.9178205566e+003;3.9305129395e+003;3.9465385742e+003;3.9794870605e+003;3.9275642090e+003;3.9476923828e+003;3.9191025391e+003;3.9207692871e+003;
2.1875000000e-001;3.9879487305e+003;3.9050000000e+003;3.8861538086e+003;3.9179487305e+003;3.9539743652e+003;3.9108974609e+003;3.9005129395e+003;3.9144870605e+003;3.9271794434e+003;3.9601281738e+003;3.9117949219e+003;3.9303845215e+003;3.8914101563e+003;3.9021794434e+003;
2.2656250000e-001;3.9310256348e+003;3.8437180176e+003;3.8446154785e+003;3.8807692871e+003;3.9097436523e+003;3.8687180176e+003;3.8588461914e+003;3.8669230957e+003;3.8697436523e+003;3.9061538086e+003;3.8703845215e+003;3.8648718262e+003;3.8515385742e+003;3.8437180176e+003;
2.3437500000e-001;3.9512819824e+003;3.8687180176e+003;3.8638461914e+003;3.8965385742e+003;3.9308974609e+003;3.8874357910e+003;3.8848718262e+003;3.8925642090e+003;3.8948718262e+003;3.9282050781e+003;3.8867949219e+003;3.8835898438e+003;3.8852563477e+003;3.8634614258e+003;
2.4218750000e-001;3.9521794434e+003;3.8730769043e+003;3.8641025391e+003;3.8858974609e+003;3.9285898438e+003;3.8925642090e+003;3.8923076172e+003;3.9002563477e+003;3.9016667480e+003;3.9311538086e+003;3.8779487305e+003;3.8892307129e+003;3.8941025391e+003;3.8662819824e+003;
2.5000000000e-001;3.9188461914e+003;3.8496154785e+003;3.8310256348e+003;3.8873076172e+003;3.9114101563e+003;3.8751281738e+003;3.8541025391e+003;3.8596154785e+003;3.8619230957e+003;3.8915385742e+003;3.8576923828e+003;3.8601281738e+003;3.8301281738e+003;3.8360256348e+003;
2.5781250000e-001;3.8948718262e+003;3.8234614258e+003;3.8052563477e+003;3.8641025391e+003;3.8778205566e+003;3.8489743652e+003;3.8301281738e+003;3.8338461914e+003;3.8389743652e+003;3.8714101563e+003;3.8467949219e+003;3.8343588867e+003;3.8124357910e+003;3.8124357910e+003;
2.6562500000e-001;3.8920512695e+003;3.8010256348e+003;3.8050000000e+003;3.8230769043e+003;3.8601281738e+003;3.8252563477e+003;3.8123076172e+003;3.8125642090e+003;3.8242307129e+003;3.8587180176e+003;3.8039743652e+003;3.8321794434e+003;3.8162819824e+003;3.8037180176e+003;
2.7343750000e-001;3.8467949219e+003;3.7533332520e+003;3.7602563477e+003;3.7794870605e+003;3.8017949219e+003;3.7721794434e+003;3.7546154785e+003;3.7644870605e+003;3.7803845215e+003;3.8130769043e+003;3.7639743652e+003;3.7912819824e+003;3.7664101563e+003;3.7644870605e+003;
2.8125000000e-001;3.8608974609e+003;3.7673076172e+003;3.7725642090e+003;3.7957692871e+003;3.8088461914e+003;3.7791025391e+003;3.7661538086e+003;3.7761538086e+003;3.7917949219e+003;3.8305129395e+003;3.7964101563e+003;3.8037180176e+003;3.7852563477e+003;3.7801281738e+003;
2.8906250000e-001;3.9266667480e+003;3.8353845215e+003;3.8466667480e+003;3.8642307129e+003;3.8780769043e+003;3.8246154785e+003;3.8260256348e+003;3.8488461914e+003;3.8629487305e+003;3.8911538086e+003;3.8619230957e+003;3.8797436523e+003;3.8343588867e+003;3.8446154785e+003;
2.9687500000e-001;3.9130769043e+003;3.8235898438e+003;3.8326923828e+003;3.8460256348e+003;3.8614101563e+003;3.8169230957e+003;3.8175642090e+003;3.8382050781e+003;3.8520512695e+003;3.8706411133e+003;3.8329487305e+003;3.8638461914e+003;3.8128205566e+003;3.8287180176e+003;
3.0468750000e-001;3.9262819824e+003;3.8398718262e+003;3.8397436523e+003;3.8437180176e+003;3.8692307129e+003;3.8507692871e+003;3.8433332520e+003;3.8561538086e+003;3.8692307129e+003;3.8875642090e+003;3.8420512695e+003;3.8657692871e+003;3.8416667480e+003;3.8426923828e+003;
3.1250000000e-001;3.9270512695e+003;3.8380769043e+003;3.8417949219e+003;3.8430769043e+003;3.8737180176e+003;3.8584614258e+003;3.8475642090e+003;3.8601281738e+003;3.8723076172e+003;3.8951281738e+003;3.8511538086e+003;3.8660256348e+003;3.8567949219e+003;3.8456411133e+003;
3.2031250000e-001;3.8814101563e+003;3.7812819824e+003;3.8041025391e+003;3.8130769043e+003;3.8303845215e+003;3.8146154785e+003;3.8067949219e+003;3.8110256348e+003;3.8221794434e+003;3.8424357910e+003;3.7939743652e+003;3.8234614258e+003;3.8038461914e+003;3.7898718262e+003;
3.2812500000e-001;3.8975642090e+003;3.8034614258e+003;3.8180769043e+003;3.8308974609e+003;3.8458974609e+003;3.8362819824e+003;3.8261538086e+003;3.8291025391e+003;3.8408974609e+003;3.8621794434e+003;3.8060256348e+003;3.8411538086e+003;3.8144870605e+003;3.8051281738e+003;
3.3593750000e-001;3.8864101563e+003;3.8058974609e+003;3.8047436523e+003;3.8196154785e+003;3.8503845215e+003;3.8465385742e+003;3.8253845215e+003;3.8297436523e+003;3.8407692871e+003;3.8617949219e+003;3.8075642090e+003;3.8383332520e+003;3.8111538086e+003;3.8023076172e+003;
3.4375000000e-001;3.8724357910e+003;3.7911538086e+003;3.7903845215e+003;3.8041025391e+003;3.8462819824e+003;3.8352563477e+003;3.8133332520e+003;3.8144870605e+003;3.8253845215e+003;3.8412819824e+003;3.7998718262e+003;3.8237180176e+003;3.8026923828e+003;3.7900000000e+003;
3.5156250000e-001;3.9448718262e+003;3.8582050781e+003;3.8573076172e+003;3.8785898438e+003;3.9170512695e+003;3.8855129395e+003;3.8730769043e+003;3.8712819824e+003;3.8852563477e+003;3.9121794434e+003;3.8703845215e+003;3.8848718262e+003;3.8750000000e+003;3.8585898438e+003;
3.5937500000e-001;3.9326923828e+003;3.8493588867e+003;3.8455129395e+003;3.8712819824e+003;3.9012819824e+003;3.8757692871e+003;3.8611538086e+003;3.8602563477e+003;3.8746154785e+003;3.9108974609e+003;3.8567949219e+003;3.8752563477e+003;3.8594870605e+003;3.8469230957e+003;
3.6718750000e-001;3.9126923828e+003;3.8325642090e+003;3.8271794434e+003;3.8523076172e+003;3.8811538086e+003;3.8603845215e+003;3.8424357910e+003;3.8402563477e+003;3.8557692871e+003;3.8943588867e+003;3.8373076172e+003;3.8576923828e+003;3.8374357910e+003;3.8269230957e+003;
3.7500000000e-001;3.9911538086e+003;3.9185898438e+003;3.9214101563e+003;3.9269230957e+003;3.9552563477e+003;3.9306411133e+003;3.9120512695e+003;3.9228205566e+003;3.9329487305e+003;3.9607692871e+003;3.9174357910e+003;3.9416667480e+003;3.9398718262e+003;3.9106411133e+003;
3.8281250000e-001;3.9734614258e+003;3.9008974609e+003;3.9069230957e+003;3.9146154785e+003;3.9358974609e+003;3.9178205566e+003;3.8993588867e+003;3.9096154785e+003;3.9193588867e+003;3.9451281738e+003;3.8926923828e+003;3.9264101563e+003;3.9139743652e+003;3.8933332520e+003;
3.9062500000e-001;3.9876923828e+003;3.9135898438e+003;3.9217949219e+003;3.9116667480e+003;3.9497436523e+003;3.9250000000e+003;3.9180769043e+003;3.9401281738e+003;3.9552563477e+003;3.9761538086e+003;3.9314101563e+003;3.9523076172e+003;3.9296154785e+003;3.9193588867e+003;
3.9843750000e-001;3.9698718262e+003;3.8985898438e+003;3.8997436523e+003;3.8965385742e+003;3.9387180176e+003;3.9080769043e+003;3.9080769043e+003;3.9220512695e+003;3.9300000000e+003;3.9517949219e+003;3.9110256348e+003;3.9234614258e+003;3.9062819824e+003;3.8947436523e+003;
4.0625000000e-001;3.9710256348e+003;3.8984614258e+003;3.9033332520e+003;3.9058974609e+003;3.9451281738e+003;3.9170512695e+003;3.9141025391e+003;3.9261538086e+003;3.9334614258e+003;3.9506411133e+003;3.9021794434e+003;3.9246154785e+003;3.8996154785e+003;3.8947436523e+003;
4.1406250000e-001;3.9119230957e+003;3.8380769043e+003;3.8452563477e+003;3.8562819824e+003;3.8875642090e+003;3.8780769043e+003;3.8641025391e+003;3.8647436523e+003;3.8753845215e+003;3.8829487305e+003;3.8392307129e+003;3.8643588867e+003;3.8460256348e+003;3.8374357910e+003;
4.2187500000e-001;3.9414101563e+003;3.8748718262e+003;3.8707692871e+003;3.8797436523e+003;3.9114101563e+003;3.9053845215e+003;3.8884614258e+003;3.8879487305e+003;3.9005129395e+003;3.9124357910e+003;3.8757692871e+003;3.8893588867e+003;3.8815385742e+003;3.8666667480e+003;
4.2968750000e-001;3.9784614258e+003;3.9212819824e+003;3.9080769043e+003;3.9143588867e+003;3.9392307129e+003;3.9407692871e+003;3.9166667480e+003;3.9198718262e+003;3.9357692871e+003;3.9535898438e+003;3.9102563477e+003;3.9247436523e+003;3.9169230957e+003;3.9041025391e+003;
4.3750000000e-001;3.9521794434e+003;3.8914101563e+003;3.8852563477e+003;3.8933332520e+003;3.9138461914e+003;3.9170512695e+003;3.8911538086e+003;3.8923076172e+003;3.9096154785e+003;3.9265385742e+003;3.8739743652e+003;3.9000000000e+003;3.8865385742e+003;3.8767949219e+003;
4.4531250000e-001;3.9435898438e+003;3.8675642090e+003;3.8774357910e+003;3.8848718262e+003;3.9223076172e+003;3.9069230957e+003;3.8788461914e+003;3.8793588867e+003;3.9056411133e+003;3.9247436523e+003;3.8773076172e+003;3.9006411133e+003;3.8856411133e+003;3.8723076172e+003;
4.5312500000e-001;3.9355129395e+003;3.8605129395e+003;3.8680769043e+003;3.8743588867e+003;3.9135898438e+003;3.8961538086e+003;3.8658974609e+003;3.8716667480e+003;3.8985898438e+003;3.9191025391e+003;3.8792307129e+003;3.8967949219e+003;3.8778205566e+003;3.8687180176e+003;
4.6093750000e-001;3.8875642090e+003;3.8197436523e+003;3.8150000000e+003;3.8262819824e+003;3.8503845215e+003;3.8369230957e+003;3.8111538086e+003;3.8153845215e+003;3.8360256348e+003;3.8565385742e+003;3.8233332520e+003;3.8419230957e+003;3.8201281738e+003;3.8185898438e+003;
4.6875000000e-001;3.8971794434e+003;3.8329487305e+003;3.8217949219e+003;3.8350000000e+003;3.8543588867e+003;3.8397436523e+003;3.8191025391e+003;3.8215385742e+003;3.8379487305e+003;3.8596154785e+003;3.8269230957e+003;3.8455129395e+003;3.8282050781e+003;3.8243588867e+003;
4.7656250000e-001;3.9207692871e+003;3.8516667480e+003;3.8534614258e+003;3.8560256348e+003;3.8829487305e+003;3.8648718262e+003;3.8502563477e+003;3.8689743652e+003;3.8774357910e+003;3.9078205566e+003;3.8647436523e+003;3.8776923828e+003;3.8674357910e+003;3.8520512695e+003;
4.8437500000e-001;3.9130769043e+003;3.8364101563e+003;3.8500000000e+003;3.8475642090e+003;3.8678205566e+003;3.8582050781e+003;3.8471794434e+003;3.8670512695e+003;3.8755129395e+003;3.9051281738e+003;3.8551281738e+003;3.8706411133e+003;3.8626923828e+003;3.8438461914e+003;
4.9218750000e-001;3.9248718262e+003;3.8416667480e+003;3.8634614258e+003;3.8575642090e+003;3.8656411133e+003;3.8689743652e+003;3.8617949219e+003;3.8806411133e+003;3.8897436523e+003;3.9166667480e+003;3.8605129395e+003;3.8801281738e+003;3.8742307129e+003;3.8534614258e+003;
5.0000000000e-001;3.9037180176e+003;3.8358974609e+003;3.8411538086e+003;3.8306411133e+003;3.8764101563e+003;3.8637180176e+003;3.8508974609e+003;3.8612819824e+003;3.8698718262e+003;3.8847436523e+003;3.8397436523e+003;3.8700000000e+003;3.8389743652e+003;3.8356411133e+003;
5.0781250000e-001;3.9273076172e+003;3.8587180176e+003;3.8656411133e+003;3.8539743652e+003;3.9132050781e+003;3.8835898438e+003;3.8751281738e+003;3.8843588867e+003;3.8946154785e+003;3.9102563477e+003;3.8635898438e+003;3.8883332520e+003;3.8670512695e+003;3.8557692871e+003;
5.1562500000e-001;3.8767949219e+003;3.8073076172e+003;3.8112819824e+003;3.8207692871e+003;3.8434614258e+003;3.8460256348e+003;3.8338461914e+003;3.8380769043e+003;3.8480769043e+003;3.8616667480e+003;3.8330769043e+003;3.8326923828e+003;3.8085898438e+003;3.8050000000e+003;
5.2343750000e-001;3.9053845215e+003;3.8348718262e+003;3.8364101563e+003;3.8542307129e+003;3.8635898438e+003;3.8748718262e+003;3.8535898438e+003;3.8493588867e+003;3.8588461914e+003;3.8788461914e+003;3.8257692871e+003;3.8534614258e+003;3.8335898438e+003;3.8282050781e+003;
5.3125000000e-001;3.9082050781e+003;3.8371794434e+003;3.8384614258e+003;3.8552563477e+003;3.8687180176e+003;3.8755129395e+003;3.8523076172e+003;3.8458974609e+003;3.8569230957e+003;3.8833332520e+003;3.8183332520e+003;3.8508974609e+003;3.8444870605e+003;3.8291025391e+003;
5.3906250000e-001;3.9661538086e+003;3.9126923828e+003;3.8891025391e+003;3.9001281738e+003;3.9388461914e+003;3.9369230957e+003;3.9075642090e+003;3.9051281738e+003;3.9169230957e+003;3.9558974609e+003;3.9026923828e+003;3.9067949219e+003;3.9158974609e+003;3.8944870605e+003;
5.4687500000e-001;3.9697436523e+003;3.9167949219e+003;3.8933332520e+003;3.9000000000e+003;3.9384614258e+003;3.9375642090e+003;3.9088461914e+003;3.9111538086e+003;3.9215385742e+003;3.9603845215e+003;3.9139743652e+003;3.9142307129e+003;3.9162819824e+003;3.8998718262e+003;
5.5468750000e-001;3.9260256348e+003;3.8607692871e+003;3.8508974609e+003;3.8585898438e+003;3.8744870605e+003;3.8829487305e+003;3.8608974609e+003;3.8619230957e+003;3.8694870605e+003;3.9051281738e+003;3.8611538086e+003;3.8715385742e+003;3.8615385742e+003;3.8493588867e+003;
5.6250000000e-001;3.9387180176e+003;3.8725642090e+003;3.8616667480e+003;3.8770512695e+003;3.8846154785e+003;3.8910256348e+003;3.8732050781e+003;3.8737180176e+003;3.8808974609e+003;3.9161538086e+003;3.8676923828e+003;3.8830769043e+003;3.8729487305e+003;3.8600000000e+003;
5.7031250000e-001;3.9838461914e+003;3.9308974609e+003;3.9106411133e+003;3.9353845215e+003;3.9501281738e+003;3.9342307129e+003;3.9242307129e+003;3.9401281738e+003;3.9464101563e+003;3.9725642090e+003;3.9300000000e+003;3.9380769043e+003;3.9212819824e+003;3.9174357910e+003;
5.7812500000e-001;3.9598718262e+003;3.9035898438e+003;3.8900000000e+003;3.9053845215e+003;3.9247436523e+003;3.9082050781e+003;3.9006411133e+003;3.9160256348e+003;3.9226923828e+003;3.9430769043e+003;3.9102563477e+003;3.9139743652e+003;3.8958974609e+003;3.8925642090e+003;
5.8593750000e-001;3.9565385742e+003;3.8971794434e+003;3.8876923828e+003;3.8921794434e+003;3.9166667480e+003;3.9008974609e+003;3.8953845215e+003;3.9101281738e+003;3.9179487305e+003;3.9360256348e+003;3.9061538086e+003;3.9085898438e+003;3.8944870605e+003;3.8866667480e+003;
5.9375000000e-001;3.9769230957e+003;3.9198718262e+003;3.9082050781e+003;3.9058974609e+003;3.9335898438e+003;3.9193588867e+003;3.9139743652e+003;3.9328205566e+003;3.9419230957e+003;3.9605129395e+003;3.9233332520e+003;3.9293588867e+003;3.9221794434e+003;3.9071794434e+003;
6.0156250000e-001;3.9942307129e+003;3.9443588867e+003;3.9328205566e+003;3.9484614258e+003;3.9560256348e+003;3.9532050781e+003;3.9442307129e+003;3.9658974609e+003;3.9694870605e+003;3.9853845215e+003;3.9310256348e+003;3.9543588867e+003;3.9328205566e+003;3.9285898438e+003;
6.0937500000e-001;3.9910256348e+003;3.9460256348e+003;3.9317949219e+003;3.9443588867e+003;3.9730769043e+003;3.9664101563e+003;3.9425642090e+003;3.9558974609e+003;3.9650000000e+003;3.9908974609e+003;3.9584614258e+003;3.9547436523e+003;3.9262819824e+003;3.9321794434e+003;
6.1718750000e-001;3.9624357910e+003;3.9233332520e+003;3.9053845215e+003;3.9108974609e+003;3.9424357910e+003;3.9508974609e+003;3.9203845215e+003;3.9285898438e+003;3.9393588867e+003;3.9648718262e+003;3.9303845215e+003;3.9280769043e+003;3.9096154785e+003;3.9094870605e+003;
6.2500000000e-001;4.0361538086e+003;3.9952563477e+003;3.9824357910e+003;3.9879487305e+003;3.9942307129e+003;4.0182050781e+003;3.9905129395e+003;3.9874357910e+003;3.9939743652e+003;4.0335898438e+003;3.9860256348e+003;3.9976923828e+003;3.9996154785e+003;3.9853845215e+003;
6.3281250000e-001;4.0344870605e+003;3.9921794434e+003;3.9819230957e+003;3.9937180176e+003;4.0001281738e+003;4.0107692871e+003;3.9824357910e+003;3.9811538086e+003;3.9841025391e+003;4.0301281738e+003;3.9800000000e+003;3.9965385742e+003;3.9915385742e+003;3.9821794434e+003;
6.4062500000e-001;4.0011538086e+003;3.9779487305e+003;3.9478205566e+003;3.9556411133e+003;4.0078205566e+003;3.9833332520e+003;3.9528205566e+003;3.9526923828e+003;3.9532050781e+003;3.9915385742e+003;3.9569230957e+003;3.9715385742e+003;3.9578205566e+003;3.9582050781e+003;
6.4843750000e-001;4.0108974609e+003;3.9935898438e+003;3.9610256348e+003;3.9639743652e+003;4.0179487305e+003;3.9969230957e+003;3.9698718262e+003;3.9729487305e+003;3.9751281738e+003;4.0112819824e+003;3.9802563477e+003;3.9878205566e+003;3.9823076172e+003;3.9747436523e+003;
6.5625000000e-001;3.9641025391e+003;3.9432050781e+003;3.9237180176e+003;3.9291025391e+003;3.9600000000e+003;3.9567949219e+003;3.9376923828e+003;3.9455129395e+003;3.9466667480e+003;3.9825642090e+003;3.9498718262e+003;3.9519230957e+003;3.9528205566e+003;3.9321794434e+003;
6.6406250000e-001;3.9447436523e+003;3.9185898438e+003;3.9044870605e+003;3.9164101563e+003;3.9371794434e+003;3.9382050781e+003;3.9219230957e+003;3.9312819824e+003;3.9303845215e+003;3.9639743652e+003;3.9278205566e+003;3.9344870605e+003;3.9283332520e+003;3.9106411133e+003;
6.7187500000e-001;3.9524357910e+003;3.9229487305e+003;3.9096154785e+003;3.9267949219e+003;3.9417949219e+003;3.9446154785e+003;3.9302563477e+003;3.9434614258e+003;3.9416667480e+003;3.9715385742e+003;3.9302563477e+003;3.9441025391e+003;3.9282050781e+003;3.9176923828e+003;
6.7968750000e-001;3.9652563477e+003;3.9279487305e+003;3.9228205566e+003;3.9141025391e+003;3.9300000000e+003;3.9296154785e+003;3.9293588867e+003;3.9561538086e+003;3.9657692871e+003;3.9916667480e+003;3.9560256348e+003;3.9573076172e+003;3.9506411133e+003;3.9338461914e+003;
6.8750000000e-001;3.9882050781e+003;3.9442307129e+003;3.9460256348e+003;3.9323076172e+003;3.9517949219e+003;3.9470512695e+003;3.9448718262e+003;3.9739743652e+003;3.9821794434e+003;4.0074357910e+003;3.9776923828e+003;3.9785898438e+003;3.9660256348e+003;3.9534614258e+003;
6.9531250000e-001;3.9403845215e+003;3.8989743652e+003;3.9005129395e+003;3.9038461914e+003;3.9006411133e+003;3.9106411133e+003;3.9051281738e+003;3.9305129395e+003;3.9317949219e+003;3.9439743652e+003;3.9092307129e+003;3.9382050781e+003;3.9146154785e+003;3.9146154785e+003;
7.0312500000e-001;3.9517949219e+003;3.9201281738e+003;3.9115385742e+003;3.9207692871e+003;3.9225642090e+003;3.9283332520e+003;3.9224357910e+003;3.9439743652e+003;3.9441025391e+003;3.9601281738e+003;3.9208974609e+003;3.9487180176e+003;3.9353845215e+003;3.9288461914e+003;
7.1093750000e-001;3.9696154785e+003;3.9426923828e+003;3.9347436523e+003;3.9357692871e+003;3.9526923828e+003;3.9630769043e+003;3.9458974609e+003;3.9615385742e+003;3.9578205566e+003;3.9901281738e+003;3.9507692871e+003;3.9670512695e+003;3.9579487305e+003;3.9435898438e+003;
7.1875000000e-001;3.9462819824e+003;3.9124357910e+003;3.9151281738e+003;3.9094870605e+003;3.9246154785e+003;3.9462819824e+003;3.9239743652e+003;3.9334614258e+003;3.9278205566e+003;3.9630769043e+003;3.9267949219e+003;3.9434614258e+003;3.9270512695e+003;3.9150000000e+003;
7.2656250000e-001;3.9812819824e+003;3.9451281738e+003;3.9460256348e+003;3.9411538086e+003;3.9532050781e+003;3.9716667480e+003;3.9548718262e+003;3.9526923828e+003;3.9467949219e+003;3.9871794434e+003;3.9476923828e+003;3.9714101563e+003;3.9558974609e+003;3.9502563477e+003;
7.3437500000e-001;3.9684614258e+003;3.9421794434e+003;3.9330769043e+003;3.9328205566e+003;3.9447436523e+003;3.9714101563e+003;3.9485898438e+003;3.9337180176e+003;3.9262819824e+003;3.9811538086e+003;3.9391025391e+003;3.9607692871e+003;3.9548718262e+003;3.9482050781e+003;
7.4218750000e-001;3.9832050781e+003;3.9556411133e+003;3.9483332520e+003;3.9448718262e+003;3.9600000000e+003;3.9825642090e+003;3.9635898438e+003;3.9457692871e+003;3.9388461914e+003;3.9934614258e+003;3.9535898438e+003;3.9741025391e+003;3.9679487305e+003;3.9601281738e+003;
7.5000000000e-001;3.9657692871e+003;3.9316667480e+003;3.9362819824e+003;3.9274357910e+003;3.9555129395e+003;3.9524357910e+003;3.9421794434e+003;3.9480769043e+003;3.9407692871e+003;3.9810256348e+003;3.9498718262e+003;3.9660256348e+003;3.9460256348e+003;3.9457692871e+003;
7.5781250000e-001;3.9384614258e+003;3.9011538086e+003;3.9082050781e+003;3.9039743652e+003;3.9258974609e+003;3.9274357910e+003;3.9147436523e+003;3.9248718262e+003;3.9184614258e+003;3.9520512695e+003;3.9201281738e+003;3.9365385742e+003;3.9208974609e+003;3.9169230957e+003;
7.6562500000e-001;3.9451281738e+003;3.9065385742e+003;3.9134614258e+003;3.9123076172e+003;3.9238461914e+003;3.9339743652e+003;3.9205129395e+003;3.9325642090e+003;3.9288461914e+003;3.9587180176e+003;3.9220512695e+003;3.9385898438e+003;3.9333332520e+003;3.9211538086e+003;
7.7343750000e-001;3.9898718262e+003;3.9547436523e+003;3.9625642090e+003;3.9575642090e+003;3.9494870605e+003;3.9688461914e+003;3.9643588867e+003;3.9832050781e+003;3.9826923828e+003;4.0157692871e+003;3.9676923828e+003;3.9858974609e+003;3.9907692871e+003;3.9688461914e+003;
7.8125000000e-001;3.9601281738e+003;3.9237180176e+003;3.9394870605e+003;3.9307692871e+003;3.9265385742e+003;3.9275642090e+003;3.9378205566e+003;3.9615385742e+003;3.9557692871e+003;3.9842307129e+003;3.9498718262e+003;3.9661538086e+003;3.9466667480e+003;3.9437180176e+003;
7.8906250000e-001;3.9685898438e+003;3.9333332520e+003;3.9460256348e+003;3.9382050781e+003;3.9370512695e+003;3.9407692871e+003;3.9464101563e+003;3.9739743652e+003;3.9694870605e+003;3.9919230957e+003;3.9608974609e+003;3.9735898438e+003;3.9537180176e+003;3.9515385742e+003;
7.9687500000e-001;3.9607692871e+003;3.9291025391e+003;3.9373076172e+003;3.9298718262e+003;3.9320512695e+003;3.9447436523e+003;3.9420512695e+003;3.9721794434e+003;3.9687180176e+003;3.9874357910e+003;3.9542307129e+003;3.9664101563e+003;3.9489743652e+003;3.9446154785e+003;
8.0468750000e-001;3.9312819824e+003;3.9037180176e+003;3.9088461914e+003;3.9014101563e+003;3.9093588867e+003;3.9308974609e+003;3.9197436523e+003;3.9466667480e+003;3.9423076172e+003;3.9617949219e+003;3.9229487305e+003;3.9385898438e+003;3.9234614258e+003;3.9165385742e+003;
8.1250000000e-001;3.9544870605e+003;3.9230769043e+003;3.9383332520e+003;3.9380769043e+003;3.9402563477e+003;3.9676923828e+003;3.9501281738e+003;3.9588461914e+003;3.9507692871e+003;3.9824357910e+003;3.9341025391e+003;3.9547436523e+003;3.9425642090e+003;3.9319230957e+003;
8.2031250000e-001;3.9402563477e+003;3.9083332520e+003;3.9241025391e+003;3.9274357910e+003;3.9220512695e+003;3.9512819824e+003;3.9366667480e+003;3.9458974609e+003;3.9376923828e+003;3.9660256348e+003;3.9241025391e+003;3.9402563477e+003;3.9247436523e+003;3.9157692871e+003;
8.2812500000e-001;3.9353845215e+003;3.9233332520e+003;3.9114101563e+003;3.9180769043e+003;3.9579487305e+003;3.9607692871e+003;3.9383332520e+003;3.9344870605e+003;3.9247436523e+003;3.9558974609e+003;3.9250000000e+003;3.9314101563e+003;3.9225642090e+003;3.9117949219e+003;
8.3593750000e-001;3.9606411133e+003;3.9491025391e+003;3.9393588867e+003;3.9478205566e+003;3.9752563477e+003;3.9789743652e+003;3.9562819824e+003;3.9457692871e+003;3.9379487305e+003;3.9807692871e+003;3.9326923828e+003;3.9551281738e+003;3.9579487305e+003;3.9337180176e+003;
8.4375000000e-001;3.9823076172e+003;3.9661538086e+003;3.9614101563e+003;3.9707692871e+003;3.9810256348e+003;3.9893588867e+003;3.9758974609e+003;3.9621794434e+003;3.9553845215e+003;3.9965385742e+003;3.9519230957e+003;3.9756411133e+003;3.9738461914e+003;3.9517949219e+003;
8.5156250000e-001;4.0087180176e+003;3.9928205566e+003;3.9903845215e+003;3.9921794434e+003;4.0052563477e+003;4.0123076172e+003;4.0017949219e+003;3.9980769043e+003;3.9965385742e+003;4.0273076172e+003;3.9957692871e+003;4.0147436523e+003;3.9921794434e+003;3.9870512695e+003;
8.5937500000e-001;3.9974357910e+003;3.9838461914e+003;3.9782050781e+003;3.9691025391e+003;4.0025642090e+003;3.9885898438e+003;3.9901281738e+003;4.0034614258e+003;4.0033332520e+003;4.0197436523e+003;3.9915385742e+003;4.0058974609e+003;3.9933332520e+003;3.9729487305e+003;
8.6718750000e-001;4.0126923828e+003;3.9971794434e+003;3.9946154785e+003;3.9855129395e+003;4.0156411133e+003;3.9962819824e+003;4.0033332520e+003;4.0253845215e+003;4.0235898438e+003;4.0403845215e+003;4.0017949219e+003;4.0226923828e+003;4.0129487305e+003;3.9871794434e+003;
8.7500000000e-001;3.9903845215e+003;3.9682050781e+003;3.9733332520e+003;3.9746154785e+003;3.9756411133e+003;3.9773076172e+003;3.9785898438e+003;4.0064101563e+003;4.0020512695e+003;4.0221794434e+003;3.9705129395e+003;4.0029487305e+003;3.9829487305e+003;3.9676923828e+003;
8.8281250000e-001;4.0252563477e+003;4.0028205566e+003;4.0053845215e+003;4.0066667480e+003;4.0079487305e+003;4.0112819824e+003;4.0098718262e+003;4.0376923828e+003;4.0344870605e+003;4.0546154785e+003;4.0115385742e+003;4.0364101563e+003;4.0138461914e+003;4.0032050781e+003;
8.9062500000e-001;4.0544870605e+003;4.0307692871e+003;4.0337180176e+003;4.0329487305e+003;4.0371794434e+003;4.0407692871e+003;4.0364101563e+003;4.0655129395e+003;4.0626923828e+003;4.0816667480e+003;4.0474357910e+003;4.0662819824e+003;4.0423076172e+003;4.0329487305e+003;
8.9843750000e-001;4.0206411133e+003;3.9937180176e+003;4.0034614258e+003;4.0026923828e+003;4.0060256348e+003;4.0191025391e+003;4.0082050781e+003;4.0305129395e+003;4.0225642090e+003;4.0407692871e+003;4.0112819824e+003;4.0348718262e+003;4.0106411133e+003;3.9973076172e+003;
9.0625000000e-001;4.0271794434e+003;4.0178205566e+003;4.0102563477e+003;4.0085898438e+003;4.0287180176e+003;4.0311538086e+003;4.0238461914e+003;4.0324357910e+003;4.0270512695e+003;4.0579487305e+003;4.0065385742e+003;4.0407692871e+003;4.0217949219e+003;4.0028205566e+003;
9.1406250000e-001;4.0165385742e+003;4.0103845215e+003;4.0005129395e+003;3.9982050781e+003;4.0203845215e+003;4.0225642090e+003;4.0129487305e+003;4.0214101563e+003;4.0193588867e+003;4.0484614258e+003;3.9979487305e+003;4.0311538086e+003;4.0120512695e+003;3.9939743652e+003;
9.2187500000e-001;3.9892307129e+003;3.9819230957e+003;3.9735898438e+003;3.9738461914e+003;3.9912819824e+003;3.9997436523e+003;3.9851281738e+003;3.9896154785e+003;3.9887180176e+003;4.0133332520e+003;3.9708974609e+003;4.0028205566e+003;3.9828205566e+003;3.9662819824e+003;
9.2968750000e-001;3.9756411133e+003;3.9647436523e+003;3.9585898438e+003;3.9629487305e+003;3.9743588867e+003;3.9893588867e+003;3.9700000000e+003;3.9673076172e+003;3.9650000000e+003;3.9878205566e+003;3.9552563477e+003;3.9862819824e+003;3.9653845215e+003;3.9496154785e+003;
9.3750000000e-001;4.0482050781e+003;4.0300000000e+003;4.0293588867e+003;4.0207692871e+003;4.0475642090e+003;4.0405129395e+003;4.0384614258e+003;4.0283332520e+003;4.0187180176e+003;4.0624357910e+003;4.0223076172e+003;4.0542307129e+003;4.0329487305e+003;4.0165385742e+003;
9.4531250000e-001;4.0880769043e+003;4.0729487305e+003;4.0680769043e+003;4.0578205566e+003;4.0851281738e+003;4.0765385742e+003;4.0793588867e+003;4.0685898438e+003;4.0625642090e+003;4.1073076172e+003;4.0651281738e+003;4.0933332520e+003;4.0760256348e+003;4.0574357910e+003;
9.5312500000e-001;4.2167949219e+003;4.2167949219e+003;4.1958974609e+003;4.1975639648e+003;4.2082050781e+003;4.2060258789e+003;4.2048715820e+003;4.2116665039e+003;4.2106411133e+003;4.2550000000e+003;4.2132050781e+003;4.2308974609e+003;4.2192309570e+003;4.1958974609e+003;
9.6093750000e-001;4.2097436523e+003;4.2102563477e+003;4.2007690430e+003;4.1876923828e+003;4.1987177734e+003;4.1897436523e+003;4.2019228516e+003;4.2220512695e+003;4.2150000000e+003;4.2526923828e+003;4.2153847656e+003;4.2330771484e+003;4.2208974609e+003;4.1961538086e+003;
9.6875000000e-001;4.2405126953e+003;4.2444873047e+003;4.2342309570e+003;4.2164101563e+003;4.2312822266e+003;4.2180771484e+003;4.2320512695e+003;4.2606411133e+003;4.2539741211e+003;4.2912822266e+003;4.2557690430e+003;4.2716665039e+003;4.2564101563e+003;4.2339741211e+003;
9.7656250000e-001;4.2047436523e+003;4.2201284180e+003;4.2102563477e+003;4.1906411133e+003;4.2208974609e+003;4.1923076172e+003;4.2026923828e+003;4.2423076172e+003;4.2320512695e+003;4.2646152344e+003;4.2217949219e+003;4.2479487305e+003;4.2210258789e+003;4.2060258789e+003;
9.8437500000e-001;4.2424360352e+003;4.2578203125e+003;4.2567949219e+003;4.2292309570e+003;4.2575639648e+003;4.2457690430e+003;4.2494873047e+003;4.2782050781e+003;4.2666665039e+003;4.3058974609e+003;4.2653847656e+003;4.2853847656e+003;4.2693588867e+003;4.2458974609e+003;
9.9218750000e-001;4.2270512695e+003;4.2432050781e+003;4.2410258789e+003;4.2206411133e+003;4.2442309570e+003;4.2388461914e+003;4.2379487305e+003;4.2615385742e+003;4.2488461914e+003;4.2892309570e+003;4.2584614258e+003;4.2723076172e+003;4.2528203125e+003;4.2326923828e+003;
1.0000000000e+000;4.2473076172e+003;4.2846152344e+003;4.2628203125e+003;4.2551284180e+003;4.2934614258e+003;4.2741025391e+003;4.2693588867e+003;4.2820512695e+003;4.2656411133e+003;4.3098715820e+003;4.2702563477e+003;4.2917949219e+003;4.2643588867e+003;4.2517949219e+003;
1.0078125000e+000;4.2414101563e+003;4.2842309570e+003;4.2626923828e+003;4.2496152344e+003;4.2903847656e+003;4.2758974609e+003;4.2683334961e+003;4.2787177734e+003;4.2610258789e+003;4.3097436523e+003;4.2592309570e+003;4.2876923828e+003;4.2616665039e+003;4.2483334961e+003;
1.0156250000e+000;4.2107690430e+003;4.2519228516e+003;4.2366665039e+003;4.2192309570e+003;4.2566665039e+003;4.2533334961e+003;4.2423076172e+003;4.2461538086e+003;4.2270512695e+003;4.2778203125e+003;4.2282050781e+003;4.2569228516e+003;4.2333334961e+003;4.2192309570e+003;
1.0234375000e+000;4.2033334961e+003;4.2333334961e+003;4.2266665039e+003;4.2142309570e+003;4.2442309570e+003;4.2482050781e+003;4.2380771484e+003;4.2258974609e+003;4.2052563477e+003;4.2519228516e+003;4.2347436523e+003;4.2441025391e+003;4.2241025391e+003;4.2098715820e+003;
1.0312500000e+000;4.2671796875e+003;4.3119228516e+003;4.2875639648e+003;4.2887177734e+003;4.3210258789e+003;4.3066665039e+003;4.3096152344e+003;4.2983334961e+003;4.2788461914e+003;4.3389741211e+003;4.3047436523e+003;4.3167949219e+003;4.3014101563e+003;4.2814101563e+003;
1.0390625000e+000;4.2515385742e+003;4.3010258789e+003;4.2735898438e+003;4.2721796875e+003;4.3079487305e+003;4.2952563477e+003;4.2978203125e+003;4.2870512695e+003;4.2689741211e+003;4.3312822266e+003;4.2819228516e+003;4.3010258789e+003;4.2905126953e+003;4.2674360352e+003;
1.0468750000e+000;4.2474360352e+003;4.2978203125e+003;4.2701284180e+003;4.2626923828e+003;4.3021796875e+003;4.2939741211e+003;4.2934614258e+003;4.2861538086e+003;4.2700000000e+003;4.3279487305e+003;4.2733334961e+003;4.2939741211e+003;4.2866665039e+003;4.2629487305e+003;
1.0546875000e+000;4.2535898438e+003;4.3012822266e+003;4.2761538086e+003;4.2617949219e+003;4.3010258789e+003;4.3000000000e+003;4.2958974609e+003;4.2961538086e+003;4.2823076172e+003;4.3320512695e+003;4.2816665039e+003;4.2985898438e+003;4.2894873047e+003;4.2687177734e+003;
1.0625000000e+000;4.2444873047e+003;4.2838461914e+003;4.2656411133e+003;4.2598715820e+003;4.2738461914e+003;4.2660258789e+003;4.2770512695e+003;4.2958974609e+003;4.2907690430e+003;4.3351284180e+003;4.2985898438e+003;4.2976923828e+003;4.2905126953e+003;4.2717949219e+003;
1.0703125000e+000;4.2751284180e+003;4.3208974609e+003;4.2964101563e+003;4.2961538086e+003;4.3150000000e+003;4.2887177734e+003;4.3029487305e+003;4.3297436523e+003;4.3262822266e+003;4.3714101563e+003;4.3279487305e+003;4.3293588867e+003;4.3306411133e+003;4.3057690430e+003;
1.0781250000e+000;4.2347436523e+003;4.2865385742e+003;4.2607690430e+003;4.2603847656e+003;4.2769228516e+003;4.2565385742e+003;4.2625639648e+003;4.2967949219e+003;4.2929487305e+003;4.3251284180e+003;4.2846152344e+003;4.2971796875e+003;4.2870512695e+003;4.2666665039e+003;
1.0859375000e+000;4.2837177734e+003;4.3387177734e+003;4.3134614258e+003;4.3100000000e+003;4.3238461914e+003;4.3228203125e+003;4.3211538086e+003;4.3492309570e+003;4.3446152344e+003;4.3912822266e+003;4.3497436523e+003;4.3452563477e+003;4.3412822266e+003;4.3212822266e+003;
1.0937500000e+000;4.2814101563e+003;4.3373076172e+003;4.3133334961e+003;4.3125639648e+003;4.3233334961e+003;4.3267949219e+003;4.3221796875e+003;4.3487177734e+003;4.3441025391e+003;4.3910258789e+003;4.3423076172e+003;4.3432050781e+003;4.3419228516e+003;4.3201284180e+003;
1.1015625000e+000;4.3015385742e+003;4.3571796875e+003;4.3338461914e+003;4.3306411133e+003;4.3543588867e+003;4.3569228516e+003;4.3483334961e+003;4.3514101563e+003;4.3450000000e+003;4.3767949219e+003;4.3496152344e+003;4.3570512695e+003;4.3452563477e+003;4.3307690430e+003;
1.1093750000e+000;4.2911538086e+003;4.3569228516e+003;4.3352563477e+003;4.3287177734e+003;4.3603847656e+003;4.3633334961e+003;4.3515385742e+003;4.3456411133e+003;4.3270512695e+003;4.3782050781e+003;4.3467949219e+003;4.3521796875e+003;4.3491025391e+003;4.3306411133e+003;
1.1171875000e+000;4.3052563477e+003;4.3728203125e+003;4.3471796875e+003;4.3446152344e+003;4.3716665039e+003;4.3753847656e+003;4.3670512695e+003;4.3584614258e+003;4.3370512695e+003;4.3947436523e+003;4.3537177734e+003;4.3629487305e+003;4.3697436523e+003;4.3448715820e+003;
1.1250000000e+000;4.3775639648e+003;4.4517949219e+003;4.4171796875e+003;4.4196152344e+003;4.4539741211e+003;4.4366665039e+003;4.4378203125e+003;4.4437177734e+003;4.4282050781e+003;4.4810258789e+003;4.4408974609e+003;4.4407690430e+003;4.4502563477e+003;4.4179487305e+003;
1.1328125000e+000;4.3546152344e+003;4.4323076172e+003;4.3974360352e+003;4.3985898438e+003;4.4403847656e+003;4.4176923828e+003;4.4194873047e+003;4.4285898438e+003;4.4166665039e+003;4.4656411133e+003;4.4256411133e+003;4.4229487305e+003;4.4278203125e+003;4.3970512695e+003;
1.1406250000e+000;4.3398715820e+003;4.4202563477e+003;4.3842309570e+003;4.3814101563e+003;4.4297436523e+003;4.4057690430e+003;4.4083334961e+003;4.4180771484e+003;4.4102563477e+003;4.4583334961e+003;4.4116665039e+003;4.4103847656e+003;4.4135898438e+003;4.3839741211e+003;
1.1484375000e+000;4.3306411133e+003;4.4093588867e+003;4.3788461914e+003;4.3620512695e+003;4.4111538086e+003;4.3973076172e+003;4.3989741211e+003;4.4146152344e+003;4.4134614258e+003;4.4639741211e+003;4.3980771484e+003;4.4058974609e+003;4.4087177734e+003;4.3812822266e+003;
1.1562500000e+000;4.2410258789e+003;4.3125639648e+003;4.3002563477e+003;4.2896152344e+003;4.3112822266e+003;4.3032050781e+003;4.3035898438e+003;4.3301284180e+003;4.3346152344e+003;4.3641025391e+003;4.3221796875e+003;4.3292309570e+003;4.3251284180e+003;4.2994873047e+003;
1.1640625000e+000;4.2658974609e+003;4.3361538086e+003;4.3219228516e+003;4.3184614258e+003;4.3326923828e+003;4.3142309570e+003;4.3200000000e+003;4.3514101563e+003;4.3573076172e+003;4.3834614258e+003;4.3487177734e+003;4.3521796875e+003;4.3458974609e+003;4.3230771484e+003;
1.1718750000e+000;4.2921796875e+003;4.3603847656e+003;4.3441025391e+003;4.3446152344e+003;4.3543588867e+003;4.3280771484e+003;4.3376923828e+003;4.3751284180e+003;4.3805126953e+003;4.4087177734e+003;4.3734614258e+003;4.3761538086e+003;4.3642309570e+003;4.3476923828e+003;
1.1796875000e+000;4.2835898438e+003;4.3487177734e+003;4.3335898438e+003;4.3338461914e+003;4.3432050781e+003;4.3170512695e+003;4.3257690430e+003;4.3660258789e+003;4.3684614258e+003;4.3997436523e+003;4.3601284180e+003;4.3660258789e+003;4.3458974609e+003;4.3369228516e+003;
1.1875000000e+000;4.2274360352e+003;4.2980771484e+003;4.2823076172e+003;4.2692309570e+003;4.3069228516e+003;4.2983334961e+003;4.2960258789e+003;4.3151284180e+003;4.3114101563e+003;4.3324360352e+003;4.2806411133e+003;4.3014101563e+003;4.3028203125e+003;4.2714101563e+003;
1.1953125000e+000;4.2296152344e+003;4.3024360352e+003;4.2852563477e+003;4.2729487305e+003;4.3033334961e+003;4.3008974609e+003;4.3024360352e+003;4.3201284180e+003;4.3138461914e+003;4.3364101563e+003;4.2870512695e+003;4.3028203125e+003;4.3098715820e+003;4.2755126953e+003;
1.2031250000e+000;4.1851284180e+003;4.2570512695e+003;4.2383334961e+003;4.2326923828e+003;4.2465385742e+003;4.2751284180e+003;4.2729487305e+003;4.2737177734e+003;4.2544873047e+003;4.2889741211e+003;4.2564101563e+003;4.2601284180e+003;4.2520512695e+003;4.2326923828e+003;
1.2109375000e+000;4.1247436523e+003;4.1866665039e+003;4.1798715820e+003;4.1802563477e+003;4.2094873047e+003;4.2300000000e+003;4.2238461914e+003;4.2087177734e+003;4.1851284180e+003;4.2161538086e+003;4.1823076172e+003;4.2028203125e+003;4.1897436523e+003;4.1694873047e+003;
1.2187500000e+000;4.1297436523e+003;4.1910258789e+003;4.1833334961e+003;4.1850000000e+003;4.2169228516e+003;4.2288461914e+003;4.2264101563e+003;4.2067949219e+003;4.1819228516e+003;4.2112822266e+003;4.1847436523e+003;4.2024360352e+003;4.1926923828e+003;4.1706411133e+003;
1.2265625000e+000;4.2400000000e+003;4.3117949219e+003;4.2888461914e+003;4.2857690430e+003;4.3271796875e+003;4.3264101563e+003;4.3216665039e+003;4.3075639648e+003;4.2889741211e+003;4.3298715820e+003;4.2985898438e+003;4.3103847656e+003;4.3064101563e+003;4.2860258789e+003;
1.2343750000e+000;4.2308974609e+003;4.3015385742e+003;4.2801284180e+003;4.2743588867e+003;4.3134614258e+003;4.3165385742e+003;4.3096152344e+003;4.2997436523e+003;4.2864101563e+003;4.3267949219e+003;4.2867949219e+003;4.3038461914e+003;4.2978203125e+003;4.2787177734e+003;
1.2421875000e+000;4.2397436523e+003;4.3069228516e+003;4.2847436523e+003;4.2756411133e+003;4.3120512695e+003;4.3110258789e+003;4.3078203125e+003;4.3123076172e+003;4.3096152344e+003;4.3420512695e+003;4.2944873047e+003;4.3091025391e+003;4.3078203125e+003;4.2815385742e+003;
1.2500000000e+000;4.2585898438e+003;4.3289741211e+003;4.3024360352e+003;4.2919228516e+003;4.3292309570e+003;4.3210258789e+003;4.3193588867e+003;4.3373076172e+003;4.3384614258e+003;4.3679487305e+003;4.3219228516e+003;4.3287177734e+003;4.3307690430e+003;4.3006411133e+003;
1.2578125000e+000;4.1792309570e+003;4.2428203125e+003;4.2264101563e+003;4.2135898438e+003;4.2261538086e+003;4.2275639648e+003;4.2221796875e+003;4.2582050781e+003;4.2697436523e+003;4.2934614258e+003;4.2541025391e+003;4.2610258789e+003;4.2546152344e+003;4.2333334961e+003;
1.2656250000e+000;4.1801284180e+003;4.2339741211e+003;4.2250000000e+003;4.2111538086e+003;4.2138461914e+003;4.2214101563e+003;4.2158974609e+003;4.2488461914e+003;4.2651284180e+003;4.2883334961e+003;4.2485898438e+003;4.2606411133e+003;4.2524360352e+003;4.2328203125e+003;
1.2734375000e+000;4.2025639648e+003;4.2535898438e+003;4.2411538086e+003;4.2248715820e+003;4.2352563477e+003;4.2330771484e+003;4.2280771484e+003;4.2661538086e+003;4.2796152344e+003;4.2998715820e+003;4.2688461914e+003;4.2761538086e+003;4.2712822266e+003;4.2510258789e+003;
1.2812500000e+000;4.1808974609e+003;4.2348715820e+003;4.2201284180e+003;4.2062822266e+003;4.2157690430e+003;4.2120512695e+003;4.2100000000e+003;4.2471796875e+003;4.2532050781e+003;4.2724360352e+003;4.2458974609e+003;4.2498715820e+003;4.2487177734e+003;4.2292309570e+003;
1.2890625000e+000;4.1828203125e+003;4.2360258789e+003;4.2253847656e+003;4.2173076172e+003;4.2098715820e+003;4.2208974609e+003;4.2214101563e+003;4.2493588867e+003;4.2447436523e+003;4.2662822266e+003;4.2441025391e+003;4.2484614258e+003;4.2494873047e+003;4.2315385742e+003;
1.2968750000e+000;4.1830771484e+003;4.2335898438e+003;4.2273076172e+003;4.2200000000e+003;4.2075639648e+003;4.2297436523e+003;4.2279487305e+003;4.2475639648e+003;4.2416665039e+003;4.2623076172e+003;4.2432050781e+003;4.2519228516e+003;4.2469228516e+003;4.2311538086e+003;
1.3046875000e+000;4.1707690430e+003;4.2185898438e+003;4.2155126953e+003;4.2073076172e+003;4.1992309570e+003;4.2265385742e+003;4.2228203125e+003;4.2311538086e+003;4.2241025391e+003;4.2428203125e+003;4.2274360352e+003;4.2414101563e+003;4.2292309570e+003;4.2160258789e+003;
1.3125000000e+000;4.1500000000e+003;4.1937177734e+003;4.1912822266e+003;4.1847436523e+003;4.2106411133e+003;4.2197436523e+003;4.2156411133e+003;4.2075639648e+003;4.1773076172e+003;4.2243588867e+003;4.1951284180e+003;4.2079487305e+003;4.2024360352e+003;4.1858974609e+003;
1.3203125000e+000;4.1038461914e+003;4.1442309570e+003;4.1461538086e+003;4.1407690430e+003;4.1569228516e+003;4.1855126953e+003;4.1797436523e+003;4.1630771484e+003;4.1347436523e+003;4.1741025391e+003;4.1498715820e+003;4.1633334961e+003;4.1514101563e+003;4.1385898438e+003;
1.3281250000e+000;4.1217949219e+003;4.1634614258e+003;4.1628203125e+003;4.1566665039e+003;4.1757690430e+003;4.2082050781e+003;4.1982050781e+003;4.1891025391e+003;4.1751284180e+003;4.2010258789e+003;4.1708974609e+003;4.1819228516e+003;4.1723076172e+003;4.1574360352e+003;
1.3359375000e+000;4.1228203125e+003;4.1623076172e+003;4.1607690430e+003;4.1576923828e+003;4.1785898438e+003;4.2005126953e+003;4.1902563477e+003;4.1906411133e+003;4.1806411133e+003;4.2105126953e+003;4.1715385742e+003;4.1815385742e+003;4.1810258789e+003;4.1592309570e+003;
1.3437500000e+000;4.1475639648e+003;4.1816665039e+003;4.1785898438e+003;4.1782050781e+003;4.1976923828e+003;4.2065385742e+003;4.2002563477e+003;4.2069228516e+003;4.2058974609e+003;4.2398715820e+003;4.1935898438e+003;4.2024360352e+003;4.2100000000e+003;4.1844873047e+003;
1.3515625000e+000;4.1719228516e+003;4.2228203125e+003;4.2082050781e+003;4.2005126953e+003;4.2061538086e+003;4.2117949219e+003;4.2019228516e+003;4.2414101563e+003;4.2442309570e+003;4.2692309570e+003;4.2383334961e+003;4.2406411133e+003;4.2343588867e+003;4.2221796875e+003;
1.3593750000e+000;4.1956411133e+003;4.2467949219e+003;4.2303847656e+003;4.2205126953e+003;4.2332050781e+003;4.2257690430e+003;4.2184614258e+003;4.2585898438e+003;4.2617949219e+003;4.2923076172e+003;4.2620512695e+003;4.2608974609e+003;4.2639741211e+003;4.2447436523e+003;
1.3671875000e+000;4.2864101563e+003;4.3284614258e+003;4.3223076172e+003;4.3019228516e+003;4.3212822266e+003;4.3076923828e+003;4.3029487305e+003;4.3393588867e+003;4.3437177734e+003;4.3903847656e+003;4.3473076172e+003;4.3487177734e+003;4.3574360352e+003;4.3334614258e+003;
1.3750000000e+000;4.2835898438e+003;4.3202563477e+003;4.3238461914e+003;4.3017949219e+003;4.3088461914e+003;4.3111538086e+003;4.3048715820e+003;4.3379487305e+003;4.3403847656e+003;4.3883334961e+003;4.3401284180e+003;4.3478203125e+003;4.3496152344e+003;4.3296152344e+003;
1.3828125000e+000;4.2742309570e+003;4.3266665039e+003;4.3158974609e+003;4.3112822266e+003;4.3065385742e+003;4.3065385742e+003;4.3116665039e+003;4.3303847656e+003;4.3274360352e+003;4.3605126953e+003;4.3278203125e+003;4.3333334961e+003;4.3335898438e+003;4.3148715820e+003;
1.3906250000e+000;4.2984614258e+003;4.3608974609e+003;4.3407690430e+003;4.3356411133e+003;4.3464101563e+003;4.3273076172e+003;4.3373076172e+003;4.3547436523e+003;4.3517949219e+003;4.3865385742e+003;4.3574360352e+003;4.3594873047e+003;4.3598715820e+003;4.3421796875e+003;
1.3984375000e+000;4.2696152344e+003;4.3265385742e+003;4.3192309570e+003;4.2953847656e+003;4.3244873047e+003;4.3157690430e+003;4.3206411133e+003;4.3176923828e+003;4.3044873047e+003;4.3530771484e+003;4.3269228516e+003;4.3371796875e+003;4.3230771484e+003;4.3174360352e+003;
1.4062500000e+000;4.2791025391e+003;4.3308974609e+003;4.3270512695e+003;4.3055126953e+003;4.3280771484e+003;4.3328203125e+003;4.3353847656e+003;4.3235898438e+003;4.3038461914e+003;4.3557690430e+003;4.3292309570e+003;4.3426923828e+003;4.3315385742e+003;4.3234614258e+003;
1.4140625000e+000;4.2673076172e+003;4.3191025391e+003;4.3156411133e+003;4.3079487305e+003;4.3211538086e+003;4.3353847656e+003;4.3348715820e+003;4.3152563477e+003;4.2838461914e+003;4.3400000000e+003;4.3102563477e+003;4.3278203125e+003;4.3208974609e+003;4.3091025391e+003;
1.4218750000e+000;4.2394873047e+003;4.2930771484e+003;4.2896152344e+003;4.2842309570e+003;4.3006411133e+003;4.3123076172e+003;4.3101284180e+003;4.2892309570e+003;4.2569228516e+003;4.3130771484e+003;4.2855126953e+003;4.3008974609e+003;4.2911538086e+003;4.2817949219e+003;
1.4296875000e+000;4.2319228516e+003;4.2850000000e+003;4.2819228516e+003;4.2719228516e+003;4.2943588867e+003;4.3038461914e+003;4.3000000000e+003;4.2803847656e+003;4.2521796875e+003;4.3069228516e+003;4.2835898438e+003;4.2928203125e+003;4.2815385742e+003;4.2735898438e+003;
1.4375000000e+000;4.2492309570e+003;4.3026923828e+003;4.2916665039e+003;4.2788461914e+003;4.2962822266e+003;4.3074360352e+003;4.3010258789e+003;4.3050000000e+003;4.3007690430e+003;4.3328203125e+003;4.2919228516e+003;4.3021796875e+003;4.3057690430e+003;4.2901284180e+003;
1.4453125000e+000;4.2769228516e+003;4.3376923828e+003;4.3194873047e+003;4.3123076172e+003;4.3376923828e+003;4.3335898438e+003;4.3279487305e+003;4.3392309570e+003;4.3373076172e+003;4.3656411133e+003;4.3212822266e+003;4.3328203125e+003;4.3337177734e+003;4.3203847656e+003;
1.4531250000e+000;4.2870512695e+003;4.3465385742e+003;4.3375639648e+003;4.3102563477e+003;4.3424360352e+003;4.3289741211e+003;4.3184614258e+003;4.3528203125e+003;4.3623076172e+003;4.3952563477e+003;4.3485898438e+003;4.3533334961e+003;4.3541025391e+003;4.3351284180e+003;
1.4609375000e+000;4.2694873047e+003;4.3253847656e+003;4.3171796875e+003;4.2937177734e+003;4.3133334961e+003;4.3078203125e+003;4.2958974609e+003;4.3211538086e+003;4.3244873047e+003;4.3623076172e+003;4.3217949219e+003;4.3257690430e+003;4.3300000000e+003;4.3123076172e+003;
1.4687500000e+000;4.2526923828e+003;4.3117949219e+003;4.3039741211e+003;4.2797436523e+003;4.2943588867e+003;4.2987177734e+003;4.2866665039e+003;4.3108974609e+003;4.3126923828e+003;4.3473076172e+003;4.3082050781e+003;4.3155126953e+003;4.3132050781e+003;4.3006411133e+003;
1.4765625000e+000;4.2344873047e+003;4.2887177734e+003;4.2878203125e+003;4.2556411133e+003;4.2680771484e+003;4.2851284180e+003;4.2802563477e+003;4.2906411133e+003;4.2926923828e+003;4.3294873047e+003;4.2930771484e+003;4.3100000000e+003;4.2938461914e+003;4.2853847656e+003;
1.4843750000e+000;4.2707690430e+003;4.3200000000e+003;4.3201284180e+003;4.2905126953e+003;4.3096152344e+003;4.3121796875e+003;4.3094873047e+003;4.3179487305e+003;4.3175639648e+003;4.3598715820e+003;4.3265385742e+003;4.3420512695e+003;4.3260258789e+003;4.3175639648e+003;
1.4921875000e+000;4.2701284180e+003;4.3130771484e+003;4.3178203125e+003;4.2974360352e+003;4.3238461914e+003;4.3028203125e+003;4.3033334961e+003;4.3046152344e+003;4.2903847656e+003;4.3358974609e+003;4.3170512695e+003;4.3321796875e+003;4.3134614258e+003;4.3093588867e+003;
1.5000000000e+000;4.2501284180e+003;4.2943588867e+003;4.2994873047e+003;4.2807690430e+003;4.3084614258e+003;4.2855126953e+003;4.2894873047e+003;4.2833334961e+003;4.2610258789e+003;4.3047436523e+003;4.2923076172e+003;4.3100000000e+003;4.2906411133e+003;4.2873076172e+003;
1.5078125000e+000;4.2341025391e+003;4.2869228516e+003;4.2870512695e+003;4.2610258789e+003;4.2979487305e+003;4.2915385742e+003;4.2917949219e+003;4.2823076172e+003;4.2541025391e+003;4.3006411133e+003;4.2744873047e+003;4.3023076172e+003;4.2798715820e+003;4.2758974609e+003;
1.5156250000e+000;4.2085898438e+003;4.2611538086e+003;4.2616665039e+003;4.2357690430e+003;4.2737177734e+003;4.2737177734e+003;4.2658974609e+003;4.2584614258e+003;4.2337177734e+003;4.2776923828e+003;4.2489741211e+003;4.2780771484e+003;4.2526923828e+003;4.2491025391e+003;
1.5234375000e+000;4.2341025391e+003;4.2823076172e+003;4.2867949219e+003;4.2605126953e+003;4.2893588867e+003;4.2966665039e+003;4.2846152344e+003;4.2802563477e+003;4.2673076172e+003;4.2920512695e+003;4.2787177734e+003;4.3019228516e+003;4.2779487305e+003;4.2675639648e+003;
1.5312500000e+000;4.2321796875e+003;4.2779487305e+003;4.2867949219e+003;4.2594873047e+003;4.2837177734e+003;4.2937177734e+003;4.2853847656e+003;4.2850000000e+003;4.2751284180e+003;4.2956411133e+003;4.2787177734e+003;4.3048715820e+003;4.2810258789e+003;4.2703847656e+003;
1.5390625000e+000;4.1789741211e+003;4.2232050781e+003;4.2343588867e+003;4.2115385742e+003;4.2365385742e+003;4.2424360352e+003;4.2361538086e+003;4.2406411133e+003;4.2392309570e+003;4.2525639648e+003;4.2211538086e+003;4.2520512695e+003;4.2319228516e+003;4.2203847656e+003;
1.5468750000e+000;4.1867949219e+003;4.2338461914e+003;4.2388461914e+003;4.2200000000e+003;4.2511538086e+003;4.2460258789e+003;4.2384614258e+003;4.2470512695e+003;4.2496152344e+003;4.2623076172e+003;4.2292309570e+003;4.2542309570e+003;4.2397436523e+003;4.2234614258e+003;
1.5546875000e+000;4.2129487305e+003;4.2615385742e+003;4.2607690430e+003;4.2446152344e+003;4.2801284180e+003;4.2642309570e+003;4.2547436523e+003;4.2711538086e+003;4.2747436523e+003;4.2900000000e+003;4.2596152344e+003;4.2760258789e+003;4.2652563477e+003;4.2438461914e+003;
1.5625000000e+000;4.2178203125e+003;4.2632050781e+003;4.2632050781e+003;4.2475639648e+003;4.2806411133e+003;4.2626923828e+003;4.2511538086e+003;4.2751284180e+003;4.2769228516e+003;4.2950000000e+003;4.2688461914e+003;4.2800000000e+003;4.2682050781e+003;4.2450000000e+003;
1.5703125000e+000;4.1088461914e+003;4.1375639648e+003;4.1547436523e+003;4.1410258789e+003;4.1548715820e+003;4.1624360352e+003;4.1452563477e+003;4.1596152344e+003;4.1706411133e+003;4.1814101563e+003;4.1467949219e+003;4.1729487305e+003;4.1543588867e+003;4.1389741211e+003;
1.5781250000e+000;4.0579487305e+003;4.0870512695e+003;4.0955129395e+003;4.0746154785e+003;4.0892307129e+003;4.1135898438e+003;4.0991025391e+003;4.1117949219e+003;4.1102563477e+003;4.1101284180e+003;4.1010258789e+003;4.1203847656e+003;4.0955129395e+003;4.0862819824e+003;
1.5859375000e+000;4.0778205566e+003;4.1012822266e+003;4.1106411133e+003;4.0947436523e+003;4.1084614258e+003;4.1298715820e+003;4.1169228516e+003;4.1241025391e+003;4.1202563477e+003;4.1182050781e+003;4.1121796875e+003;4.1328203125e+003;4.1103847656e+003;4.1037177734e+003;
1.5937500000e+000;4.0833332520e+003;4.1015385742e+003;4.1132050781e+003;4.1119228516e+003;4.1246152344e+003;4.1305126953e+003;4.1160258789e+003;4.1179487305e+003;4.1115385742e+003;4.1197436523e+003;4.0980771484e+003;4.1300000000e+003;4.1100000000e+003;4.1026923828e+003;
1.6015625000e+000;4.0687180176e+003;4.0844870605e+003;4.0982050781e+003;4.0967949219e+003;4.1075639648e+003;4.1126923828e+003;4.0989741211e+003;4.0979487305e+003;4.0888461914e+003;4.1026923828e+003;4.0773076172e+003;4.1123076172e+003;4.0902563477e+003;4.0824357910e+003;
1.6093750000e+000;4.1033334961e+003;4.1202563477e+003;4.1283334961e+003;4.1148715820e+003;4.1091025391e+003;4.1432050781e+003;4.1365385742e+003;4.1347436523e+003;4.1194873047e+003;4.1223076172e+003;4.1258974609e+003;4.1496152344e+003;4.1179487305e+003;4.1171796875e+003;
1.6171875000e+000;4.0655129395e+003;4.0880769043e+003;4.0829487305e+003;4.0847436523e+003;4.0964101563e+003;4.1126923828e+003;4.1023076172e+003;4.0911538086e+003;4.0828205566e+003;4.0948718262e+003;4.0788461914e+003;4.1033334961e+003;4.0934614258e+003;4.0800000000e+003;
1.6250000000e+000;4.0833332520e+003;4.1024360352e+003;4.0976923828e+003;4.0984614258e+003;4.1241025391e+003;4.1238461914e+003;4.1120512695e+003;4.1041025391e+003;4.0982050781e+003;4.1180771484e+003;4.0948718262e+003;4.1147436523e+003;4.1097436523e+003;4.0942307129e+003;
1.6328125000e+000;4.0888461914e+003;4.1038461914e+003;4.1025639648e+003;4.1005126953e+003;4.1303847656e+003;4.1251284180e+003;4.1108974609e+003;4.1098715820e+003;4.1061538086e+003;4.1269228516e+003;4.1038461914e+003;4.1192309570e+003;4.1111538086e+003;4.0983334961e+003;
1.6406250000e+000;4.0362819824e+003;4.0471794434e+003;4.0493588867e+003;4.0510256348e+003;4.0607692871e+003;4.0755129395e+003;4.0569230957e+003;4.0619230957e+003;4.0620512695e+003;4.0684614258e+003;4.0521794434e+003;4.0717949219e+003;4.0491025391e+003;4.0439743652e+003;
1.6484375000e+000;4.0375642090e+003;4.0475642090e+003;4.0471794434e+003;4.0533332520e+003;4.0560256348e+003;4.0743588867e+003;4.0561538086e+003;4.0615385742e+003;4.0632050781e+003;4.0652563477e+003;4.0470512695e+003;4.0708974609e+003;4.0479487305e+003;4.0428205566e+003;
1.6562500000e+000;4.1079487305e+003;4.1087177734e+003;4.1183334961e+003;4.1173076172e+003;4.1333334961e+003;4.1282050781e+003;4.1079487305e+003;4.1293588867e+003;4.1329487305e+003;4.1389741211e+003;4.1211538086e+003;4.1284614258e+003;4.1205126953e+003;4.1121796875e+003;
1.6640625000e+000;4.0985898438e+003;4.1135898438e+003;4.1133334961e+003;4.1057690430e+003;4.1170512695e+003;4.1235898438e+003;4.1071796875e+003;4.1171796875e+003;4.1255126953e+003;4.1228203125e+003;4.1124360352e+003;4.1137177734e+003;4.1144873047e+003;4.1008974609e+003;
1.6718750000e+000;4.1148715820e+003;4.1334614258e+003;4.1296152344e+003;4.1189741211e+003;4.1296152344e+003;4.1388461914e+003;4.1251284180e+003;4.1361538086e+003;4.1443588867e+003;4.1428203125e+003;4.1211538086e+003;4.1337177734e+003;4.1324360352e+003;4.1185898438e+003;
1.6796875000e+000;4.1111538086e+003;4.1265385742e+003;4.1266665039e+003;4.1152563477e+003;4.1250000000e+003;4.1332050781e+003;4.1208974609e+003;4.1348715820e+003;4.1406411133e+003;4.1402563477e+003;4.1128203125e+003;4.1358974609e+003;4.1271796875e+003;4.1174360352e+003;
1.6875000000e+000;4.0991025391e+003;4.1073076172e+003;4.1146152344e+003;4.1065385742e+003;4.1139741211e+003;4.1192309570e+003;4.1069228516e+003;4.1211538086e+003;4.1234614258e+003;4.1228203125e+003;4.1008974609e+003;4.1282050781e+003;4.1101284180e+003;4.1067949219e+003;
1.6953125000e+000;4.1457690430e+003;4.1521796875e+003;4.1621796875e+003;4.1476923828e+003;4.1494873047e+003;4.1769228516e+003;4.1608974609e+003;4.1580771484e+003;4.1569228516e+003;4.1603847656e+003;4.1539741211e+003;4.1741025391e+003;4.1506411133e+003;4.1523076172e+003;
1.7031250000e+000;4.1525639648e+003;4.1534614258e+003;4.1660258789e+003;4.1550000000e+003;4.1823076172e+003;4.1825639648e+003;4.1742309570e+003;4.1688461914e+003;4.1532050781e+003;4.1624360352e+003;4.1669228516e+003;4.1784614258e+003;4.1550000000e+003;4.1639741211e+003;
1.7109375000e+000;4.1542309570e+003;4.1628203125e+003;4.1692309570e+003;4.1641025391e+003;4.1842309570e+003;4.1912822266e+003;4.1794873047e+003;4.1761538086e+003;4.1633334961e+003;4.1723076172e+003;4.1764101563e+003;4.1897436523e+003;4.1548715820e+003;4.1712822266e+003;
1.7187500000e+000;4.1292309570e+003;4.1479487305e+003;4.1475639648e+003;4.1435898438e+003;4.1510258789e+003;4.1693588867e+003;4.1588461914e+003;4.1485898438e+003;4.1464101563e+003;4.1550000000e+003;4.1469228516e+003;4.1648715820e+003;4.1330771484e+003;4.1456411133e+003;
1.7265625000e+000;4.1498715820e+003;4.1687177734e+003;4.1667949219e+003;4.1587177734e+003;4.1702563477e+003;4.1807690430e+003;4.1738461914e+003;4.1632050781e+003;4.1657690430e+003;4.1760258789e+003;4.1583334961e+003;4.1748715820e+003;4.1605126953e+003;4.1606411133e+003;
1.7343750000e+000;4.1446152344e+003;4.1574360352e+003;4.1587177734e+003;4.1524360352e+003;4.1607690430e+003;4.1657690430e+003;4.1507690430e+003;4.1575639648e+003;4.1625639648e+003;4.1708974609e+003;4.1451284180e+003;4.1555126953e+003;4.1588461914e+003;4.1470512695e+003;
1.7421875000e+000;4.1257690430e+003;4.1365385742e+003;4.1444873047e+003;4.1324360352e+003;4.1342309570e+003;4.1443588867e+003;4.1287177734e+003;4.1371796875e+003;4.1428203125e+003;4.1511538086e+003;4.1429487305e+003;4.1493588867e+003;4.1357690430e+003;4.1366665039e+003;
1.7500000000e+000;4.1255126953e+003;4.1358974609e+003;4.1435898438e+003;4.1285898438e+003;4.1353847656e+003;4.1369228516e+003;4.1244873047e+003;4.1375639648e+003;4.1428203125e+003;4.1521796875e+003;4.1410258789e+003;4.1517949219e+003;4.1412822266e+003;4.1397436523e+003;
1.7578125000e+000;4.1212822266e+003;4.1351284180e+003;4.1356411133e+003;4.1305126953e+003;4.1369228516e+003;4.1292309570e+003;4.1178203125e+003;4.1360258789e+003;4.1425639648e+003;4.1492309570e+003;4.1285898438e+003;4.1485898438e+003;4.1391025391e+003;4.1358974609e+003;
1.7656250000e+000;4.1421796875e+003;4.1591025391e+003;4.1591025391e+003;4.1528203125e+003;4.1600000000e+003;4.1546152344e+003;4.1405126953e+003;4.1602563477e+003;4.1662822266e+003;4.1776923828e+003;4.1575639648e+003;4.1728203125e+003;4.1583334961e+003;4.1565385742e+003;
1.7734375000e+000;4.1393588867e+003;4.1565385742e+003;4.1605126953e+003;4.1498715820e+003;4.1585898438e+003;4.1589741211e+003;4.1412822266e+003;4.1608974609e+003;4.1647436523e+003;4.1811538086e+003;4.1633334961e+003;4.1735898438e+003;4.1552563477e+003;4.1541025391e+003;
1.7812500000e+000;4.0846154785e+003;4.0935898438e+003;4.1083334961e+003;4.0961538086e+003;4.1087177734e+003;4.1194873047e+003;4.0998715820e+003;4.1051284180e+003;4.1020512695e+003;4.1198715820e+003;4.1058974609e+003;4.1166665039e+003;4.1012822266e+003;4.0985898438e+003;
1.7890625000e+000;4.0783332520e+003;4.0934614258e+003;4.0983334961e+003;4.1021796875e+003;4.1194873047e+003;4.1342309570e+003;4.1180771484e+003;4.1089741211e+003;4.0944870605e+003;4.1138461914e+003;4.0923076172e+003;4.1098715820e+003;4.0987177734e+003;4.0976923828e+003;
1.7968750000e+000;4.0497436523e+003;4.0676923828e+003;4.0701281738e+003;4.0716667480e+003;4.0912819824e+003;4.1135898438e+003;4.0958974609e+003;4.0842307129e+003;4.0667949219e+003;4.0871794434e+003;4.0658974609e+003;4.0832050781e+003;4.0696154785e+003;4.0689743652e+003;
1.8046875000e+000;4.0306411133e+003;4.0482050781e+003;4.0493588867e+003;4.0447436523e+003;4.0711538086e+003;4.0973076172e+003;4.0803845215e+003;4.0638461914e+003;4.0451281738e+003;4.0646154785e+003;4.0453845215e+003;4.0625642090e+003;4.0483332520e+003;4.0469230957e+003;
1.8125000000e+000;4.0433332520e+003;4.0588461914e+003;4.0582050781e+003;4.0483332520e+003;4.0847436523e+003;4.1066665039e+003;4.0926923828e+003;4.0728205566e+003;4.0551281738e+003;4.0721794434e+003;4.0534614258e+003;4.0714101563e+003;4.0583332520e+003;4.0558974609e+003;
1.8203125000e+000;4.0370512695e+003;4.0503845215e+003;4.0484614258e+003;4.0661538086e+003;4.0747436523e+003;4.0875642090e+003;4.0776923828e+003;4.0670512695e+003;4.0716667480e+003;4.0744870605e+003;4.0475642090e+003;4.0544870605e+003;4.0405129395e+003;4.0452563477e+003;
1.8281250000e+000;4.0389743652e+003;4.0530769043e+003;4.0479487305e+003;4.0710256348e+003;4.0730769043e+003;4.0835898438e+003;4.0743588867e+003;4.0648718262e+003;4.0741025391e+003;4.0773076172e+003;4.0542307129e+003;4.0520512695e+003;4.0444870605e+003;4.0430769043e+003;
1.8359375000e+000;4.0688461914e+003;4.0860256348e+003;4.0744870605e+003;4.0825642090e+003;4.1141025391e+003;4.0973076172e+003;4.0802563477e+003;4.0839743652e+003;4.0984614258e+003;4.1071796875e+003;4.0864101563e+003;4.0871794434e+003;4.0815385742e+003;4.0778205566e+003;
1.8437500000e+000;4.0625642090e+003;4.0732050781e+003;4.0630769043e+003;4.0624357910e+003;4.0951281738e+003;4.0738461914e+003;4.0584614258e+003;4.0626923828e+003;4.0743588867e+003;4.0787180176e+003;4.0639743652e+003;4.0760256348e+003;4.0629487305e+003;4.0657692871e+003;
1.8515625000e+000;4.0684614258e+003;4.0756411133e+003;4.0671794434e+003;4.0680769043e+003;4.0971796875e+003;4.0692307129e+003;4.0560256348e+003;4.0638461914e+003;4.0760256348e+003;4.0858974609e+003;4.0723076172e+003;4.0801281738e+003;4.0697436523e+003;4.0687180176e+003;
1.8593750000e+000;4.0323076172e+003;4.0283332520e+003;4.0305129395e+003;4.0300000000e+003;4.0515385742e+003;4.0225642090e+003;4.0082050781e+003;4.0174357910e+003;4.0301281738e+003;4.0389743652e+003;4.0276923828e+003;4.0379487305e+003;4.0275642090e+003;4.0316667480e+003;
1.8671875000e+000;4.0476923828e+003;4.0428205566e+003;4.0516667480e+003;4.0514101563e+003;4.0619230957e+003;4.0532050781e+003;4.0360256348e+003;4.0455129395e+003;4.0447436523e+003;4.0515385742e+003;4.0382050781e+003;4.0611538086e+003;4.0408974609e+003;4.0484614258e+003;
1.8750000000e+000;4.0188461914e+003;4.0162819824e+003;4.0252563477e+003;4.0253845215e+003;4.0425642090e+003;4.0348718262e+003;4.0170512695e+003;4.0207692871e+003;4.0137180176e+003;4.0224357910e+003;4.0162819824e+003;4.0365385742e+003;4.0151281738e+003;4.0188461914e+003;
1.8828125000e+000;4.0144870605e+003;4.0134614258e+003;4.0197436523e+003;4.0193588867e+003;4.0494870605e+003;4.0396154785e+003;4.0214101563e+003;4.0183332520e+003;4.0073076172e+003;4.0151281738e+003;4.0150000000e+003;4.0311538086e+003;4.0124357910e+003;4.0124357910e+003;
1.8906250000e+000;4.0616667480e+003;4.0589743652e+003;4.0588461914e+003;4.0598718262e+003;4.1042309570e+003;4.1008974609e+003;4.0826923828e+003;4.0741025391e+003;4.0617949219e+003;4.0628205566e+003;4.0548718262e+003;4.0707692871e+003;4.0567949219e+003;4.0573076172e+003;
1.8984375000e+000;4.0592307129e+003;4.0552563477e+003;4.0541025391e+003;4.0598718262e+003;4.0971796875e+003;4.1041025391e+003;4.0878205566e+003;4.0778205566e+003;4.0651281738e+003;4.0653845215e+003;4.0498718262e+003;4.0692307129e+003;4.0510256348e+003;4.0548718262e+003;
1.9062500000e+000;4.0720512695e+003;4.0739743652e+003;4.0679487305e+003;4.0752563477e+003;4.1042309570e+003;4.1079487305e+003;4.0998715820e+003;4.0888461914e+003;4.0801281738e+003;4.0900000000e+003;4.0839743652e+003;4.0898718262e+003;4.0685898438e+003;4.0669230957e+003;
1.9140625000e+000;4.0921794434e+003;4.0921794434e+003;4.0884614258e+003;4.0882050781e+003;4.1224360352e+003;4.1235898438e+003;4.1126923828e+003;4.1071796875e+003;4.1023076172e+003;4.1125639648e+003;4.1093588867e+003;4.1092309570e+003;4.0935898438e+003;4.0876923828e+003;
1.9218750000e+000;4.0605129395e+003;4.0506411133e+003;4.0526923828e+003;4.0528205566e+003;4.0856411133e+003;4.0976923828e+003;4.0785898438e+003;4.0747436523e+003;4.0774357910e+003;4.0810256348e+003;4.0685898438e+003;4.0702563477e+003;4.0626923828e+003;4.0562819824e+003;
1.9296875000e+000;4.0560256348e+003;4.0465385742e+003;4.0444870605e+003;4.0530769043e+003;4.0824357910e+003;4.0946154785e+003;4.0753845215e+003;4.0692307129e+003;4.0751281738e+003;4.0765385742e+003;4.0570512695e+003;4.0628205566e+003;4.0555129395e+003;4.0521794434e+003;
1.9375000000e+000;4.0797436523e+003;4.0760256348e+003;4.0669230957e+003;4.0812819824e+003;4.1097436523e+003;4.1134614258e+003;4.0974360352e+003;4.0935898438e+003;4.1010258789e+003;4.1025639648e+003;4.0791025391e+003;4.0884614258e+003;4.0782050781e+003;4.0787180176e+003;
1.9453125000e+000;4.1166665039e+003;4.1120512695e+003;4.1080771484e+003;4.1061538086e+003;4.1264101563e+003;4.1114101563e+003;4.1035898438e+003;4.1038461914e+003;4.1071796875e+003;4.1176923828e+003;4.1150000000e+003;4.1282050781e+003;4.1057690430e+003;4.1151284180e+003;
1.9531250000e+000;4.1353847656e+003;4.1315385742e+003;4.1267949219e+003;4.1211538086e+003;4.1371796875e+003;4.1257690430e+003;4.1137177734e+003;4.1171796875e+003;4.1237177734e+003;4.1321796875e+003;4.1278203125e+003;4.1421796875e+003;4.1219228516e+003;4.1314101563e+003;
1.9609375000e+000;4.1087177734e+003;4.1097436523e+003;4.1051284180e+003;4.0962822266e+003;4.1112822266e+003;4.0860256348e+003;4.0741025391e+003;4.0894870605e+003;4.0882050781e+003;4.0835898438e+003;4.1016665039e+003;4.1166665039e+003;4.0896154785e+003;4.1041025391e+003;
1.9687500000e+000;4.1591025391e+003;4.1591025391e+003;4.1516665039e+003;4.1553847656e+003;4.1715385742e+003;4.1525639648e+003;4.1400000000e+003;4.1587177734e+003;4.1548715820e+003;4.1557690430e+003;4.1608974609e+003;4.1742309570e+003;4.1520512695e+003;4.1616665039e+003;
1.9765625000e+000;4.1310258789e+003;4.1257690430e+003;4.1250000000e+003;4.1258974609e+003;4.1407690430e+003;4.1380771484e+003;4.1225639648e+003;4.1355126953e+003;4.1355126953e+003;4.1328203125e+003;4.1235898438e+003;4.1420512695e+003;4.1253847656e+003;4.1306411133e+003;
1.9843750000e+000;4.1403847656e+003;4.1410258789e+003;4.1337177734e+003;4.1332050781e+003;4.1630771484e+003;4.1714101563e+003;4.1617949219e+003;4.1546152344e+003;4.1598715820e+003;4.1483334961e+003;4.1311538086e+003;4.1387177734e+003;4.1350000000e+003;4.1319228516e+003;
1.9921875000e+000;4.1275639648e+003;4.1316665039e+003;4.1161538086e+003;4.1208974609e+003;4.1478203125e+003;4.1642309570e+003;4.1575639648e+003;4.1557690430e+003;4.1441025391e+003;4.1312822266e+003;4.1289741211e+003;4.1329487305e+003;4.1198715820e+003;4.1278203125e+003;
2.0000000000e+000;4.1446152344e+003;4.1428203125e+003;4.1316665039e+003;4.1280771484e+003;4.1576923828e+003;4.1756411133e+003;4.1701284180e+003;4.1684614258e+003;4.1557690430e+003;4.1426923828e+003;4.1423076172e+003;4.1464101563e+003;4.1320512695e+003;4.1421796875e+003;
2.0078125000e+000;4.1689741211e+003;4.1634614258e+003;4.1573076172e+003;4.1458974609e+003;4.1787177734e+003;4.1946152344e+003;4.1907690430e+003;4.1902563477e+003;4.1788461914e+003;4.1675639648e+003;4.1657690430e+003;4.1689741211e+003;4.1542309570e+003;4.1655126953e+003;
2.0156250000e+000;4.1562822266e+003;4.1528203125e+003;4.1525639648e+003;4.1443588867e+003;4.1658974609e+003;4.1860258789e+003;4.1850000000e+003;4.1830771484e+003;4.1730771484e+003;4.1643588867e+003;4.1556411133e+003;4.1606411133e+003;4.1452563477e+003;4.1580771484e+003;
2.0234375000e+000;4.1437177734e+003;4.1438461914e+003;4.1416665039e+003;4.1408974609e+003;4.1515385742e+003;4.1796152344e+003;4.1789741211e+003;4.1744873047e+003;4.1620512695e+003;4.1528203125e+003;4.1421796875e+003;4.1491025391e+003;4.1355126953e+003;4.1474360352e+003;
2.0312500000e+000;4.1891025391e+003;4.1983334961e+003;4.1771796875e+003;4.1784614258e+003;4.1965385742e+003;4.2185898438e+003;4.2106411133e+003;4.2146152344e+003;4.2033334961e+003;4.1950000000e+003;4.1884614258e+003;4.1903847656e+003;4.1830771484e+003;4.1901284180e+003;
2.0390625000e+000;4.1846152344e+003;4.1880771484e+003;4.1755126953e+003;4.1607690430e+003;4.1998715820e+003;4.1864101563e+003;4.1824360352e+003;4.1879487305e+003;4.1866665039e+003;4.1807690430e+003;4.1742309570e+003;4.1855126953e+003;4.1706411133e+003;4.1865385742e+003;
2.0468750000e+000;4.2066665039e+003;4.2075639648e+003;4.2008974609e+003;4.1829487305e+003;4.2171796875e+003;4.1996152344e+003;4.1971796875e+003;4.2091025391e+003;4.2055126953e+003;4.2017949219e+003;4.1967949219e+003;4.2105126953e+003;4.1967949219e+003;4.2125639648e+003;
2.0546875000e+000;4.2075639648e+003;4.2056411133e+003;4.2043588867e+003;4.1846152344e+003;4.2082050781e+003;4.1932050781e+003;4.1903847656e+003;4.2097436523e+003;4.2024360352e+003;4.2015385742e+003;4.2008974609e+003;4.2151284180e+003;4.2033334961e+003;4.2173076172e+003;
2.0625000000e+000;4.1819228516e+003;4.1758974609e+003;4.1798715820e+003;4.1587177734e+003;4.1705126953e+003;4.1612822266e+003;4.1575639648e+003;4.1800000000e+003;4.1705126953e+003;4.1721796875e+003;4.1776923828e+003;4.1915385742e+003;4.1805126953e+003;4.1930771484e+003;
2.0703125000e+000;4.1858974609e+003;4.1693588867e+003;4.1882050781e+003;4.1638461914e+003;4.1642309570e+003;4.1552563477e+003;4.1473076172e+003;4.1712822266e+003;4.1666665039e+003;4.1816665039e+003;4.1802563477e+003;4.2033334961e+003;4.1739741211e+003;4.2008974609e+003;
2.0781250000e+000;4.1723076172e+003;4.1601284180e+003;4.1747436523e+003;4.1523076172e+003;4.1561538086e+003;4.1526923828e+003;4.1412822266e+003;4.1675639648e+003;4.1580771484e+003;4.1723076172e+003;4.1675639648e+003;4.1943588867e+003;4.1643588867e+003;4.1905126953e+003;
2.0859375000e+000;4.1885898438e+003;4.1884614258e+003;4.1817949219e+003;4.1583334961e+003;4.1924360352e+003;4.1960258789e+003;4.1861538086e+003;4.2050000000e+003;4.1925639648e+003;4.1910258789e+003;4.1930771484e+003;4.2032050781e+003;4.2003847656e+003;4.2025639648e+003;
2.0937500000e+000;4.1100000000e+003;4.1058974609e+003;4.1138461914e+003;4.0955129395e+003;4.1224360352e+003;4.1406411133e+003;4.1364101563e+003;4.1482050781e+003;4.1351284180e+003;4.1167949219e+003;4.1207690430e+003;4.1324360352e+003;4.1114101563e+003;4.1280771484e+003;
2.1015625000e+000;4.1152563477e+003;4.1076923828e+003;4.1174360352e+003;4.1008974609e+003;4.1279487305e+003;4.1482050781e+003;4.1461538086e+003;4.1528203125e+003;4.1353847656e+003;4.1169228516e+003;4.1221796875e+003;4.1371796875e+003;4.1119228516e+003;4.1310258789e+003;
2.1093750000e+000;4.1825639648e+003;4.1771796875e+003;4.1842309570e+003;4.1662822266e+003;4.2017949219e+003;4.2144873047e+003;4.2137177734e+003;4.2233334961e+003;4.2048715820e+003;4.1946152344e+003;4.1853847656e+003;4.2047436523e+003;4.1880771484e+003;4.1938461914e+003;
2.1171875000e+000;4.1514101563e+003;4.1505126953e+003;4.1553847656e+003;4.1416665039e+003;4.1705126953e+003;4.1870512695e+003;4.1855126953e+003;4.1948715820e+003;4.1774360352e+003;4.1653847656e+003;4.1528203125e+003;4.1723076172e+003;4.1611538086e+003;4.1621796875e+003;
2.1250000000e+000;4.1283334961e+003;4.1347436523e+003;4.1305126953e+003;4.1214101563e+003;4.1433334961e+003;4.1658974609e+003;4.1642309570e+003;4.1693588867e+003;4.1533334961e+003;4.1374360352e+003;4.1311538086e+003;4.1425639648e+003;4.1450000000e+003;4.1387177734e+003;
2.1328125000e+000;4.1330771484e+003;4.1378203125e+003;4.1337177734e+003;4.1205126953e+003;4.1467949219e+003;4.1671796875e+003;4.1655126953e+003;4.1696152344e+003;4.1546152344e+003;4.1385898438e+003;4.1385898438e+003;4.1458974609e+003;4.1491025391e+003;4.1433334961e+003;
2.1406250000e+000;4.1508974609e+003;4.1334614258e+003;4.1478203125e+003;4.1258974609e+003;4.1564101563e+003;4.1602563477e+003;4.1608974609e+003;4.1592309570e+003;4.1466665039e+003;4.1400000000e+003;4.1388461914e+003;4.1589741211e+003;4.1498715820e+003;4.1493588867e+003;
2.1484375000e+000;4.1900000000e+003;4.1714101563e+003;4.1864101563e+003;4.1638461914e+003;4.1902563477e+003;4.1903847656e+003;4.1917949219e+003;4.1937177734e+003;4.1785898438e+003;4.1820512695e+003;4.1725639648e+003;4.1988461914e+003;4.1914101563e+003;4.1878203125e+003;
2.1562500000e+000;4.2125639648e+003;4.2017949219e+003;4.2143588867e+003;4.1834614258e+003;4.2062822266e+003;4.2002563477e+003;4.2002563477e+003;4.2123076172e+003;4.1876923828e+003;4.2065385742e+003;4.2166665039e+003;4.2351284180e+003;4.2229487305e+003;4.2198715820e+003;
2.1640625000e+000;4.2296152344e+003;4.2205126953e+003;4.2310258789e+003;4.1991025391e+003;4.2283334961e+003;4.2106411133e+003;4.2123076172e+003;4.2220512695e+003;4.1991025391e+003;4.2151284180e+003;4.2371796875e+003;4.2506411133e+003;4.2384614258e+003;4.2353847656e+003;
2.1718750000e+000;4.2861538086e+003;4.2833334961e+003;4.2892309570e+003;4.2580771484e+003;4.2962822266e+003;4.2612822266e+003;4.2643588867e+003;4.2784614258e+003;4.2619228516e+003;4.2761538086e+003;4.2891025391e+003;4.3075639648e+003;4.3006411133e+003;4.2923076172e+003;
2.1796875000e+000;4.2676923828e+003;4.2669228516e+003;4.2746152344e+003;4.2435898438e+003;4.2800000000e+003;4.2507690430e+003;4.2514101563e+003;4.2684614258e+003;4.2528203125e+003;4.2656411133e+003;4.2687177734e+003;4.2938461914e+003;4.2858974609e+003;4.2762822266e+003;
2.1875000000e+000;4.2311538086e+003;4.2302563477e+003;4.2408974609e+003;4.2092309570e+003;4.2458974609e+003;4.2253847656e+003;4.2233334961e+003;4.2393588867e+003;4.2230771484e+003;4.2310258789e+003;4.2329487305e+003;4.2608974609e+003;4.2498715820e+003;4.2402563477e+003;
2.1953125000e+000;4.2282050781e+003;4.2351284180e+003;4.2387177734e+003;4.2044873047e+003;4.2670512695e+003;4.2524360352e+003;4.2516665039e+003;4.2679487305e+003;4.2491025391e+003;4.2388461914e+003;4.2320512695e+003;4.2555126953e+003;4.2548715820e+003;4.2370512695e+003;
2.2031250000e+000;4.2003847656e+003;4.2089741211e+003;4.2126923828e+003;4.1821796875e+003;4.2355126953e+003;4.2337177734e+003;4.2326923828e+003;4.2444873047e+003;4.2232050781e+003;4.2153847656e+003;4.2039741211e+003;4.2284614258e+003;4.2274360352e+003;4.2102563477e+003;
2.2109375000e+000;4.2028203125e+003;4.2039741211e+003;4.2117949219e+003;4.1860258789e+003;4.2411538086e+003;4.2307690430e+003;4.2300000000e+003;4.2332050781e+003;4.2147436523e+003;4.2074360352e+003;4.2171796875e+003;4.2296152344e+003;4.2138461914e+003;4.2055126953e+003;
2.2187500000e+000;4.1883334961e+003;4.1920512695e+003;4.1928203125e+003;4.1703847656e+003;4.2214101563e+003;4.2184614258e+003;4.2155126953e+003;4.2069228516e+003;4.1966665039e+003;4.1812822266e+003;4.1844873047e+003;4.2043588867e+003;4.2007690430e+003;4.1847436523e+003;
2.2265625000e+000;4.2097436523e+003;4.2167949219e+003;4.2114101563e+003;4.1962822266e+003;4.2403847656e+003;4.2388461914e+003;4.2348715820e+003;4.2273076172e+003;4.2202563477e+003;4.2073076172e+003;4.2051284180e+003;4.2262822266e+003;4.2264101563e+003;4.2089741211e+003;
2.2343750000e+000;4.2333334961e+003;4.2344873047e+003;4.2325639648e+003;4.2175639648e+003;4.2580771484e+003;4.2411538086e+003;4.2406411133e+003;4.2300000000e+003;4.2260258789e+003;4.2274360352e+003;4.2356411133e+003;4.2523076172e+003;4.2433334961e+003;4.2330771484e+003;
2.2421875000e+000;4.2712822266e+003;4.2741025391e+003;4.2724360352e+003;4.2480771484e+003;4.2871796875e+003;4.2715385742e+003;4.2726923828e+003;4.2619228516e+003;4.2542309570e+003;4.2619228516e+003;4.2761538086e+003;4.2901284180e+003;4.2791025391e+003;4.2706411133e+003;
2.2500000000e+000;4.3082050781e+003;4.3180771484e+003;4.3132050781e+003;4.2829487305e+003;4.3106411133e+003;4.3012822266e+003;4.3010258789e+003;4.2998715820e+003;4.2853847656e+003;4.3019228516e+003;4.3170512695e+003;4.3351284180e+003;4.3214101563e+003;4.3132050781e+003;
2.2578125000e+000;4.2852563477e+003;4.2950000000e+003;4.2907690430e+003;4.2657690430e+003;4.2902563477e+003;4.2747436523e+003;4.2755126953e+003;4.2770512695e+003;4.2634614258e+003;4.2805126953e+003;4.2923076172e+003;4.3152563477e+003;4.3028203125e+003;4.2925639648e+003;
2.2656250000e+000;4.3105126953e+003;4.3243588867e+003;4.3207690430e+003;4.2958974609e+003;4.3291025391e+003;4.2992309570e+003;4.3044873047e+003;4.3138461914e+003;4.3114101563e+003;4.3280771484e+003;4.3260258789e+003;4.3391025391e+003;4.3478203125e+003;4.3243588867e+003;
2.2734375000e+000;4.3107690430e+003;4.3307690430e+003;4.3262822266e+003;4.2966665039e+003;4.3302563477e+003;4.3119228516e+003;4.3139741211e+003;4.3288461914e+003;4.3262822266e+003;4.3415385742e+003;4.3375639648e+003;4.3444873047e+003;4.3528203125e+003;4.3303847656e+003;
2.2812500000e+000;4.2223076172e+003;4.2505126953e+003;4.2417949219e+003;4.2197436523e+003;4.2646152344e+003;4.2400000000e+003;4.2424360352e+003;4.2576923828e+003;4.2523076172e+003;4.2550000000e+003;4.2542309570e+003;4.2656411133e+003;4.2583334961e+003;4.2484614258e+003;
2.2890625000e+000;4.2073076172e+003;4.2317949219e+003;4.2262822266e+003;4.2026923828e+003;4.2524360352e+003;4.2237177734e+003;4.2253847656e+003;4.2412822266e+003;4.2355126953e+003;4.2376923828e+003;4.2325639648e+003;4.2474360352e+003;4.2426923828e+003;4.2312822266e+003;
2.2968750000e+000;4.1387177734e+003;4.1524360352e+003;4.1594873047e+003;4.1243588867e+003;4.1697436523e+003;4.1719228516e+003;4.1630771484e+003;4.1743588867e+003;4.1648715820e+003;4.1608974609e+003;4.1511538086e+003;4.1694873047e+003;4.1726923828e+003;4.1555126953e+003;
2.3046875000e+000;4.1208974609e+003;4.1339741211e+003;4.1396152344e+003;4.1050000000e+003;4.1483334961e+003;4.1644873047e+003;4.1528203125e+003;4.1566665039e+003;4.1457690430e+003;4.1347436523e+003;4.1302563477e+003;4.1467949219e+003;4.1501284180e+003;4.1330771484e+003;
2.3125000000e+000;4.1430771484e+003;4.1589741211e+003;4.1571796875e+003;4.1307690430e+003;4.1748715820e+003;4.1897436523e+003;4.1794873047e+003;4.1782050781e+003;4.1671796875e+003;4.1514101563e+003;4.1532050781e+003;4.1656411133e+003;4.1669228516e+003;4.1515385742e+003;
2.3203125000e+000;4.1102563477e+003;4.1252563477e+003;4.1164101563e+003;4.1176923828e+003;4.1335898438e+003;4.1533334961e+003;4.1448715820e+003;4.1364101563e+003;4.1324360352e+003;4.1258974609e+003;4.1093588867e+003;4.1246152344e+003;4.1323076172e+003;4.1167949219e+003;
2.3281250000e+000;4.1216665039e+003;4.1432050781e+003;4.1243588867e+003;4.1185898438e+003;4.1460258789e+003;4.1624360352e+003;4.1539741211e+003;4.1433334961e+003;4.1426923828e+003;4.1355126953e+003;4.1230771484e+003;4.1346152344e+003;4.1443588867e+003;4.1271796875e+003;
2.3359375000e+000;4.1211538086e+003;4.1305126953e+003;4.1238461914e+003;4.1108974609e+003;4.1351284180e+003;4.1400000000e+003;4.1298715820e+003;4.1142309570e+003;4.1129487305e+003;4.1139741211e+003;4.1221796875e+003;4.1288461914e+003;4.1317949219e+003;4.1229487305e+003;
2.3437500000e+000;4.1351284180e+003;4.1375639648e+003;4.1360258789e+003;4.1267949219e+003;4.1417949219e+003;4.1456411133e+003;4.1332050781e+003;4.1166665039e+003;4.1124360352e+003;4.1178203125e+003;4.1261538086e+003;4.1370512695e+003;4.1405126953e+003;4.1326923828e+003;
2.3515625000e+000;4.1805126953e+003;4.1870512695e+003;4.1747436523e+003;4.1725639648e+003;4.1814101563e+003;4.1778203125e+003;4.1605126953e+003;4.1556411133e+003;4.1475639648e+003;4.1589741211e+003;4.1602563477e+003;4.1805126953e+003;4.1870512695e+003;4.1756411133e+003;
2.3593750000e+000;4.1297436523e+003;4.1310258789e+003;4.1269228516e+003;4.1120512695e+003;4.1150000000e+003;4.1165385742e+003;4.1073076172e+003;4.1128203125e+003;4.1087177734e+003;4.1166665039e+003;4.1348715820e+003;4.1346152344e+003;4.1408974609e+003;4.1274360352e+003;
2.3671875000e+000;4.1348715820e+003;4.1350000000e+003;4.1326923828e+003;4.1164101563e+003;4.1265385742e+003;4.1225639648e+003;4.1171796875e+003;4.1271796875e+003;4.1255126953e+003;4.1273076172e+003;4.1408974609e+003;4.1415385742e+003;4.1461538086e+003;4.1332050781e+003;
2.3750000000e+000;4.1048715820e+003;4.1138461914e+003;4.0960258789e+003;4.0976923828e+003;4.1203847656e+003;4.1043588867e+003;4.1017949219e+003;4.1133334961e+003;4.1153847656e+003;4.1043588867e+003;4.1030771484e+003;4.1129487305e+003;4.1188461914e+003;4.1043588867e+003;
2.3828125000e+000;4.1074360352e+003;4.1210258789e+003;4.0942307129e+003;4.1051284180e+003;4.1285898438e+003;4.1124360352e+003;4.1091025391e+003;4.1182050781e+003;4.1214101563e+003;4.1083334961e+003;4.1030771484e+003;4.1123076172e+003;4.1226923828e+003;4.1071796875e+003;
2.3906250000e+000;4.1041025391e+003;4.1157690430e+003;4.1000000000e+003;4.1053847656e+003;4.1083334961e+003;4.1348715820e+003;4.1255126953e+003;4.1358974609e+003;4.1338461914e+003;4.1178203125e+003;4.1116665039e+003;4.1111538086e+003;4.1196152344e+003;4.1114101563e+003;
2.3984375000e+000;4.0723076172e+003;4.0832050781e+003;4.0701281738e+003;4.0758974609e+003;4.0767949219e+003;4.1126923828e+003;4.1034614258e+003;4.1108974609e+003;4.1070512695e+003;4.0879487305e+003;4.0824357910e+003;4.0815385742e+003;4.0893588867e+003;4.0794870605e+003;
2.4062500000e+000;4.0685898438e+003;4.0800000000e+003;4.0625642090e+003;4.0723076172e+003;4.0782050781e+003;4.1119228516e+003;4.1038461914e+003;4.1073076172e+003;4.1039741211e+003;4.0839743652e+003;4.0771794434e+003;4.0771794434e+003;4.0889743652e+003;4.0728205566e+003;
2.4140625000e+000;4.1135898438e+003;4.1246152344e+003;4.0993588867e+003;4.1117949219e+003;4.1308974609e+003;4.1516665039e+003;4.1420512695e+003;4.1437177734e+003;4.1451284180e+003;4.1306411133e+003;4.1193588867e+003;4.1226923828e+003;4.1384614258e+003;4.1155126953e+003;
2.4218750000e+000;4.0467949219e+003;4.0458974609e+003;4.0402563477e+003;4.0398718262e+003;4.0521794434e+003;4.0853845215e+003;4.0707692871e+003;4.0647436523e+003;4.0647436523e+003;4.0520512695e+003;4.0555129395e+003;4.0533332520e+003;4.0570512695e+003;4.0501281738e+003;
2.4296875000e+000;4.0583332520e+003;4.0560256348e+003;4.0510256348e+003;4.0505129395e+003;4.0556411133e+003;4.0955129395e+003;4.0807692871e+003;4.0706411133e+003;4.0708974609e+003;4.0593588867e+003;4.0633332520e+003;4.0610256348e+003;4.0655129395e+003;4.0594870605e+003;
2.4375000000e+000;4.0770512695e+003;4.0739743652e+003;4.0674357910e+003;4.0694870605e+003;4.0646154785e+003;4.1119228516e+003;4.0964101563e+003;4.0841025391e+003;4.0848718262e+003;4.0770512695e+003;4.0767949219e+003;4.0785898438e+003;4.0830769043e+003;4.0765385742e+003;
2.4453125000e+000;4.0779487305e+003;4.0729487305e+003;4.0665385742e+003;4.0714101563e+003;4.0575642090e+003;4.1087177734e+003;4.0929487305e+003;4.0791025391e+003;4.0791025391e+003;4.0760256348e+003;4.0725642090e+003;4.0805129395e+003;4.0829487305e+003;4.0762819824e+003;
2.4531250000e+000;4.1120512695e+003;4.1042309570e+003;4.0950000000e+003;4.0875642090e+003;4.1121796875e+003;4.0997436523e+003;4.0950000000e+003;4.0852563477e+003;4.0726923828e+003;4.0806411133e+003;4.1052563477e+003;4.1137177734e+003;4.1153847656e+003;4.1074360352e+003;
2.4609375000e+000;4.1114101563e+003;4.0980771484e+003;4.0875642090e+003;4.0989741211e+003;4.0871794434e+003;4.0970512695e+003;4.0811538086e+003;4.0860256348e+003;4.0897436523e+003;4.0980771484e+003;4.1023076172e+003;4.1082050781e+003;4.1120512695e+003;4.1021796875e+003;
2.4687500000e+000;4.1416665039e+003;4.1267949219e+003;4.1176923828e+003;4.1306411133e+003;4.1125639648e+003;4.1206411133e+003;4.1107690430e+003;4.1230771484e+003;4.1311538086e+003;4.1380771484e+003;4.1350000000e+003;4.1391025391e+003;4.1420512695e+003;4.1306411133e+003;
2.4765625000e+000;4.1196152344e+003;4.1041025391e+003;4.1023076172e+003;4.1033334961e+003;4.0942307129e+003;4.1061538086e+003;4.1026923828e+003;4.1207690430e+003;4.1271796875e+003;4.1283334961e+003;4.1191025391e+003;4.1229487305e+003;4.1262822266e+003;4.1093588867e+003;
2.4843750000e+000;4.1075639648e+003;4.0943588867e+003;4.0946154785e+003;4.0807692871e+003;4.1016665039e+003;4.1275639648e+003;4.1147436523e+003;4.1338461914e+003;4.1357690430e+003;4.1193588867e+003;4.1141025391e+003;4.1098715820e+003;4.1210258789e+003;4.1016665039e+003;
2.4921875000e+000;4.0820512695e+003;4.0671794434e+003;4.0678205566e+003;4.0647436523e+003;4.0739743652e+003;4.1030771484e+003;4.0894870605e+003;4.1050000000e+003;4.1082050781e+003;4.0897436523e+003;4.0807692871e+003;4.0843588867e+003;4.0869230957e+003;4.0720512695e+003;
2.5000000000e+000;4.0823076172e+003;4.0588461914e+003;4.0600000000e+003;4.0692307129e+003;4.0588461914e+003;4.0994873047e+003;4.0865385742e+003;4.0862819824e+003;4.0848718262e+003;4.0726923828e+003;4.0587180176e+003;4.0747436523e+003;4.0678205566e+003;4.0596154785e+003;
2.5078125000e+000;4.1056411133e+003;4.0798718262e+003;4.0803845215e+003;4.0865385742e+003;4.0785898438e+003;4.1198715820e+003;4.1069228516e+003;4.1048715820e+003;4.0991025391e+003;4.0924357910e+003;4.0802563477e+003;4.0926923828e+003;4.0879487305e+003;4.0810256348e+003;
2.5156250000e+000;4.0942307129e+003;4.0725642090e+003;4.0752563477e+003;4.0734614258e+003;4.0807692871e+003;4.1065385742e+003;4.0934614258e+003;4.0891025391e+003;4.0847436523e+003;4.0719230957e+003;4.0798718262e+003;4.0766667480e+003;4.0797436523e+003;4.0726923828e+003;
2.5234375000e+000;4.1170512695e+003;4.0966665039e+003;4.1019228516e+003;4.1003847656e+003;4.1067949219e+003;4.1298715820e+003;4.1162822266e+003;4.1076923828e+003;4.1073076172e+003;4.0903845215e+003;4.1015385742e+003;4.0994873047e+003;4.1044873047e+003;4.0951281738e+003;
2.5312500000e+000;4.1469228516e+003;4.1261538086e+003;4.1348715820e+003;4.1306411133e+003;4.1369228516e+003;4.1603847656e+003;4.1460258789e+003;4.1361538086e+003;4.1371796875e+003;4.1201284180e+003;4.1296152344e+003;4.1312822266e+003;4.1373076172e+003;4.1255126953e+003;
2.5390625000e+000;4.1306411133e+003;4.1091025391e+003;4.1187177734e+003;4.1048715820e+003;4.1196152344e+003;4.1439741211e+003;4.1316665039e+003;4.1232050781e+003;4.1184614258e+003;4.1101284180e+003;4.1128203125e+003;4.1207690430e+003;4.1260258789e+003;4.1121796875e+003;
2.5468750000e+000;4.1578203125e+003;4.1537177734e+003;4.1391025391e+003;4.1376923828e+003;4.1542309570e+003;4.1498715820e+003;4.1491025391e+003;4.1400000000e+003;4.1321796875e+003;4.1466665039e+003;4.1511538086e+003;4.1494873047e+003;4.1612822266e+003;4.1450000000e+003;
2.5546875000e+000;4.1703847656e+003;4.1650000000e+003;4.1556411133e+003;4.1557690430e+003;4.1603847656e+003;4.1598715820e+003;4.1567949219e+003;4.1498715820e+003;4.1437177734e+003;4.1602563477e+003;4.1657690430e+003;4.1653847656e+003;4.1729487305e+003;4.1584614258e+003;
2.5625000000e+000;4.1566665039e+003;4.1442309570e+003;4.1464101563e+003;4.1434614258e+003;4.1374360352e+003;4.1484614258e+003;4.1403847656e+003;4.1347436523e+003;4.1310258789e+003;4.1429487305e+003;4.1494873047e+003;4.1537177734e+003;4.1542309570e+003;4.1430771484e+003;
2.5703125000e+000;4.1443588867e+003;4.1257690430e+003;4.1355126953e+003;4.1282050781e+003;4.1205126953e+003;4.1380771484e+003;4.1262822266e+003;4.1216665039e+003;4.1219228516e+003;4.1258974609e+003;4.1325639648e+003;4.1405126953e+003;4.1365385742e+003;4.1276923828e+003;
2.5781250000e+000;4.1925639648e+003;4.1903847656e+003;4.1823076172e+003;4.1725639648e+003;4.1735898438e+003;4.1832050781e+003;4.1769228516e+003;4.1910258789e+003;4.2019228516e+003;4.2007690430e+003;4.1958974609e+003;4.2012822266e+003;4.2015385742e+003;4.1861538086e+003;
2.5859375000e+000;4.1656411133e+003;4.1593588867e+003;4.1574360352e+003;4.1462822266e+003;4.1357690430e+003;4.1667949219e+003;4.1587177734e+003;4.1707690430e+003;4.1791025391e+003;4.1711538086e+003;4.1715385742e+003;4.1750000000e+003;4.1716665039e+003;4.1579487305e+003;
2.5937500000e+000;4.1843588867e+003;4.1806411133e+003;4.1742309570e+003;4.1667949219e+003;4.1841025391e+003;4.2064101563e+003;4.1928203125e+003;4.2070512695e+003;4.2137177734e+003;4.1893588867e+003;4.1952563477e+003;4.1857690430e+003;4.1848715820e+003;4.1732050781e+003;
2.6015625000e+000;4.1601284180e+003;4.1623076172e+003;4.1526923828e+003;4.1562822266e+003;4.1705126953e+003;4.1815385742e+003;4.1717949219e+003;4.1796152344e+003;4.1755126953e+003;4.1664101563e+003;4.1642309570e+003;4.1619228516e+003;4.1764101563e+003;4.1561538086e+003;
2.6093750000e+000;4.1714101563e+003;4.1694873047e+003;4.1652563477e+003;4.1658974609e+003;4.1619228516e+003;4.1898715820e+003;4.1816665039e+003;4.1851284180e+003;4.1806411133e+003;4.1762822266e+003;4.1744873047e+003;4.1738461914e+003;4.1861538086e+003;4.1651284180e+003;
2.6171875000e+000;4.1443588867e+003;4.1478203125e+003;4.1446152344e+003;4.1343588867e+003;4.1442309570e+003;4.1658974609e+003;4.1580771484e+003;4.1496152344e+003;4.1562822266e+003;4.1407690430e+003;4.1424360352e+003;4.1487177734e+003;4.1488461914e+003;4.1341025391e+003;
2.6250000000e+000;4.2148715820e+003;4.2175639648e+003;4.2132050781e+003;4.2055126953e+003;4.2317949219e+003;4.2414101563e+003;4.2276923828e+003;4.2221796875e+003;4.2256411133e+003;4.2197436523e+003;4.2132050781e+003;4.2217949219e+003;4.2248715820e+003;4.2091025391e+003;
2.6328125000e+000;4.1838461914e+003;4.1812822266e+003;4.1850000000e+003;4.1775639648e+003;4.1897436523e+003;4.2167949219e+003;4.1993588867e+003;4.1942309570e+003;4.1957690430e+003;4.1924360352e+003;4.1874360352e+003;4.1962822266e+003;4.1956411133e+003;4.1805126953e+003;
2.6406250000e+000;4.1541025391e+003;4.1594873047e+003;4.1524360352e+003;4.1453847656e+003;4.1687177734e+003;4.1719228516e+003;4.1655126953e+003;4.1525639648e+003;4.1542309570e+003;4.1442309570e+003;4.1585898438e+003;4.1689741211e+003;4.1694873047e+003;4.1497436523e+003;
2.6484375000e+000;4.1806411133e+003;4.1924360352e+003;4.1775639648e+003;4.1694873047e+003;4.2001284180e+003;4.1878203125e+003;4.1848715820e+003;4.1783334961e+003;4.1807690430e+003;4.1734614258e+003;4.1829487305e+003;4.1976923828e+003;4.2015385742e+003;4.1805126953e+003;
2.6562500000e+000;4.1801284180e+003;4.1925639648e+003;4.1775639648e+003;4.1683334961e+003;4.1921796875e+003;4.1811538086e+003;4.1780771484e+003;4.1782050781e+003;4.1820512695e+003;4.1791025391e+003;4.1803847656e+003;4.1992309570e+003;4.2041025391e+003;4.1839741211e+003;
2.6640625000e+000;4.1579487305e+003;4.1602563477e+003;4.1576923828e+003;4.1412822266e+003;4.1361538086e+003;4.1546152344e+003;4.1494873047e+003;4.1528203125e+003;4.1623076172e+003;4.1578203125e+003;4.1562822266e+003;4.1720512695e+003;4.1724360352e+003;4.1571796875e+003;
2.6718750000e+000;4.1837177734e+003;4.1933334961e+003;4.1829487305e+003;4.1588461914e+003;4.1737177734e+003;4.1870512695e+003;4.1778203125e+003;4.1979487305e+003;4.2042309570e+003;4.1811538086e+003;4.1979487305e+003;4.1987177734e+003;4.1933334961e+003;4.1817949219e+003;
2.6796875000e+000;4.1571796875e+003;4.1683334961e+003;4.1564101563e+003;4.1382050781e+003;4.1575639648e+003;4.1669228516e+003;4.1573076172e+003;4.1785898438e+003;4.1823076172e+003;4.1608974609e+003;4.1761538086e+003;4.1751284180e+003;4.1742309570e+003;4.1594873047e+003;
2.6875000000e+000;4.1432050781e+003;4.1521796875e+003;4.1425639648e+003;4.1301284180e+003;4.1479487305e+003;4.1576923828e+003;4.1492309570e+003;4.1669228516e+003;4.1703847656e+003;4.1541025391e+003;4.1615385742e+003;4.1608974609e+003;4.1683334961e+003;4.1478203125e+003;
2.6953125000e+000;4.1524360352e+003;4.1584614258e+003;4.1524360352e+003;4.1425639648e+003;4.1569228516e+003;4.1701284180e+003;4.1624360352e+003;4.1767949219e+003;4.1814101563e+003;4.1693588867e+003;4.1650000000e+003;4.1676923828e+003;4.1834614258e+003;4.1573076172e+003;
2.7031250000e+000;4.1244873047e+003;4.1405126953e+003;4.1185898438e+003;4.1187177734e+003;4.1441025391e+003;4.1560258789e+003;4.1456411133e+003;4.1552563477e+003;4.1569228516e+003;4.1278203125e+003;4.1278203125e+003;4.1348715820e+003;4.1447436523e+003;4.1217949219e+003;
2.7109375000e+000;4.0955129395e+003;4.1071796875e+003;4.1010258789e+003;4.0961538086e+003;4.1064101563e+003;4.1343588867e+003;4.1214101563e+003;4.1207690430e+003;4.1207690430e+003;4.1056411133e+003;4.1053847656e+003;4.1070512695e+003;4.1167949219e+003;4.0982050781e+003;
2.7187500000e+000;4.0875642090e+003;4.1025639648e+003;4.0911538086e+003;4.0858974609e+003;4.1024360352e+003;4.1233334961e+003;4.1115385742e+003;4.1076923828e+003;4.1043588867e+003;4.0900000000e+003;4.0906411133e+003;4.0969228516e+003;4.1035898438e+003;4.0879487305e+003;
2.7265625000e+000;4.1355126953e+003;4.1596152344e+003;4.1343588867e+003;4.1325639648e+003;4.1606411133e+003;4.1620512695e+003;4.1511538086e+003;4.1489741211e+003;4.1401284180e+003;4.1298715820e+003;4.1346152344e+003;4.1429487305e+003;4.1455126953e+003;4.1328203125e+003;
2.7343750000e+000;4.1360258789e+003;4.1547436523e+003;4.1366665039e+003;4.1342309570e+003;4.1520512695e+003;4.1617949219e+003;4.1482050781e+003;4.1458974609e+003;4.1355126953e+003;4.1279487305e+003;4.1333334961e+003;4.1450000000e+003;4.1433334961e+003;4.1329487305e+003;
2.7421875000e+000;4.1142309570e+003;4.1096152344e+003;4.1173076172e+003;4.1006411133e+003;4.0957692871e+003;4.1275639648e+003;4.1129487305e+003;4.1014101563e+003;4.0930769043e+003;4.0923076172e+003;4.1037177734e+003;4.1223076172e+003;4.1197436523e+003;4.1125639648e+003;
2.7500000000e+000;4.1179487305e+003;4.1275639648e+003;4.1143588867e+003;4.1092309570e+003;4.1193588867e+003;4.1096152344e+003;4.1065385742e+003;4.1106411133e+003;4.1117949219e+003;4.1134614258e+003;4.1314101563e+003;4.1316665039e+003;4.1348715820e+003;4.1210258789e+003;
2.7578125000e+000;4.1071796875e+003;4.1157690430e+003;4.1028203125e+003;4.0985898438e+003;4.1037177734e+003;4.0998715820e+003;4.0993588867e+003;4.1035898438e+003;4.1074360352e+003;4.1010258789e+003;4.1182050781e+003;4.1219228516e+003;4.1219228516e+003;4.1079487305e+003;
2.7656250000e+000;4.1221796875e+003;4.1264101563e+003;4.1170512695e+003;4.1088461914e+003;4.1093588867e+003;4.1178203125e+003;4.1175639648e+003;4.1228203125e+003;4.1282050781e+003;4.1123076172e+003;4.1271796875e+003;4.1373076172e+003;4.1348715820e+003;4.1214101563e+003;
2.7734375000e+000;4.1492309570e+003;4.1448715820e+003;4.1465385742e+003;4.1328203125e+003;4.1346152344e+003;4.1551284180e+003;4.1489741211e+003;4.1638461914e+003;4.1675639648e+003;4.1430771484e+003;4.1507690430e+003;4.1673076172e+003;4.1638461914e+003;4.1525639648e+003;
2.7812500000e+000;4.1296152344e+003;4.1256411133e+003;4.1302563477e+003;4.1192309570e+003;4.1279487305e+003;4.1428203125e+003;4.1342309570e+003;4.1502563477e+003;4.1520512695e+003;4.1296152344e+003;4.1341025391e+003;4.1478203125e+003;4.1470512695e+003;4.1355126953e+003;
2.7890625000e+000;4.1383334961e+003;4.1496152344e+003;4.1456411133e+003;4.1280771484e+003;4.1537177734e+003;4.1682050781e+003;4.1598715820e+003;4.1702563477e+003;4.1708974609e+003;4.1555126953e+003;4.1526923828e+003;4.1570512695e+003;4.1653847656e+003;4.1464101563e+003;
2.7968750000e+000;4.1344873047e+003;4.1462822266e+003;4.1426923828e+003;4.1221796875e+003;4.1398715820e+003;4.1688461914e+003;4.1598715820e+003;4.1720512695e+003;4.1700000000e+003;4.1526923828e+003;4.1501284180e+003;4.1583334961e+003;4.1594873047e+003;4.1442309570e+003;
2.8046875000e+000;4.0879487305e+003;4.0956411133e+003;4.0926923828e+003;4.0896154785e+003;4.0921794434e+003;4.1255126953e+003;4.1173076172e+003;4.1260258789e+003;4.1188461914e+003;4.0939743652e+003;4.0976923828e+003;4.1117949219e+003;4.1044873047e+003;4.0962822266e+003;
2.8125000000e+000;4.0966665039e+003;4.1051284180e+003;4.0976923828e+003;4.1050000000e+003;4.1123076172e+003;4.1320512695e+003;4.1241025391e+003;4.1297436523e+003;4.1260258789e+003;4.0997436523e+003;4.1037177734e+003;4.1143588867e+003;4.1146152344e+003;4.1020512695e+003;
2.8203125000e+000;4.1200000000e+003;4.1312822266e+003;4.1188461914e+003;4.1283334961e+003;4.1464101563e+003;4.1547436523e+003;4.1447436523e+003;4.1496152344e+003;4.1530771484e+003;4.1282050781e+003;4.1282050781e+003;4.1330771484e+003;4.1435898438e+003;4.1230771484e+003;
2.8281250000e+000;4.1682050781e+003;4.1780771484e+003;4.1653847656e+003;4.1683334961e+003;4.1917949219e+003;4.1962822266e+003;4.1861538086e+003;4.1805126953e+003;4.1783334961e+003;4.1621796875e+003;4.1760258789e+003;4.1780771484e+003;4.1791025391e+003;4.1602563477e+003;
2.8359375000e+000;4.1952563477e+003;4.2029487305e+003;4.1935898438e+003;4.1935898438e+003;4.2175639648e+003;4.2139741211e+003;4.2055126953e+003;4.2015385742e+003;4.1970512695e+003;4.1834614258e+003;4.2017949219e+003;4.2041025391e+003;4.2041025391e+003;4.1871796875e+003;
2.8437500000e+000;4.2062822266e+003;4.2041025391e+003;4.2057690430e+003;4.1866665039e+003;4.2112822266e+003;4.2053847656e+003;4.1971796875e+003;4.1903847656e+003;4.1874360352e+003;4.1808974609e+003;4.1914101563e+003;4.2126923828e+003;4.2093588867e+003;4.1885898438e+003;
2.8515625000e+000;4.2339741211e+003;4.2428203125e+003;4.2348715820e+003;4.2334614258e+003;4.2426923828e+003;4.2256411133e+003;4.2257690430e+003;4.2364101563e+003;4.2347436523e+003;4.2275639648e+003;4.2389741211e+003;4.2571796875e+003;4.2453847656e+003;4.2310258789e+003;
2.8593750000e+000;4.2071796875e+003;4.2196152344e+003;4.2129487305e+003;4.2066665039e+003;4.2189741211e+003;4.2042309570e+003;4.2048715820e+003;4.2166665039e+003;4.2182050781e+003;4.2048715820e+003;4.2250000000e+003;4.2315385742e+003;4.2238461914e+003;4.2069228516e+003;
2.8671875000e+000;4.2257690430e+003;4.2367949219e+003;4.2332050781e+003;4.2106411133e+003;4.2455126953e+003;4.2398715820e+003;4.2352563477e+003;4.2514101563e+003;4.2603847656e+003;4.2388461914e+003;4.2461538086e+003;4.2485898438e+003;4.2596152344e+003;4.2235898438e+003;
2.8750000000e+000;4.1743588867e+003;4.1900000000e+003;4.1743588867e+003;4.1730771484e+003;4.2007690430e+003;4.2017949219e+003;4.1962822266e+003;4.2070512695e+003;4.2134614258e+003;4.1882050781e+003;4.1912822266e+003;4.2065385742e+003;4.2023076172e+003;4.1773076172e+003;
2.8828125000e+000;4.1952563477e+003;4.2130771484e+003;4.1938461914e+003;4.1894873047e+003;4.2219228516e+003;4.2198715820e+003;4.2162822266e+003;4.2239741211e+003;4.2305126953e+003;4.2085898438e+003;4.2178203125e+003;4.2238461914e+003;4.2185898438e+003;4.1952563477e+003;
2.8906250000e+000;4.2132050781e+003;4.2291025391e+003;4.2125639648e+003;4.2028203125e+003;4.2374360352e+003;4.2352563477e+003;4.2325639648e+003;4.2385898438e+003;4.2444873047e+003;4.2270512695e+003;4.2385898438e+003;4.2365385742e+003;4.2341025391e+003;4.2096152344e+003;
2.8984375000e+000;4.1966665039e+003;4.1992309570e+003;4.2007690430e+003;4.1908974609e+003;4.2069228516e+003;4.2208974609e+003;4.2152563477e+003;4.2156411133e+003;4.2173076172e+003;4.2014101563e+003;4.2139741211e+003;4.2103847656e+003;4.2171796875e+003;4.1888461914e+003;
2.9062500000e+000;4.2005126953e+003;4.2001284180e+003;4.2061538086e+003;4.2003847656e+003;4.2064101563e+003;4.2262822266e+003;4.2185898438e+003;4.2175639648e+003;4.2174360352e+003;4.2002563477e+003;4.2144873047e+003;4.2132050781e+003;4.2233334961e+003;4.1944873047e+003;
2.9140625000e+000;4.2147436523e+003;4.2329487305e+003;4.2219228516e+003;4.2164101563e+003;4.2419228516e+003;4.2383334961e+003;4.2284614258e+003;4.2383334961e+003;4.2382050781e+003;4.2258974609e+003;4.2334614258e+003;4.2389741211e+003;4.2447436523e+003;4.2193588867e+003;
2.9218750000e+000;4.1852563477e+003;4.2047436523e+003;4.1910258789e+003;4.1824360352e+003;4.2174360352e+003;4.2048715820e+003;4.1979487305e+003;4.2053847656e+003;4.2060258789e+003;4.1912822266e+003;4.1984614258e+003;4.2065385742e+003;4.2105126953e+003;4.1857690430e+003;
2.9296875000e+000;4.1801284180e+003;4.1944873047e+003;4.1850000000e+003;4.1710258789e+003;4.2074360352e+003;4.1884614258e+003;4.1878203125e+003;4.1876923828e+003;4.1879487305e+003;4.1667949219e+003;4.1873076172e+003;4.1946152344e+003;4.1947436523e+003;4.1741025391e+003;
2.9375000000e+000;4.1884614258e+003;4.2006411133e+003;4.1961538086e+003;4.1814101563e+003;4.2094873047e+003;4.1932050781e+003;4.1923076172e+003;4.1917949219e+003;4.1901284180e+003;4.1717949219e+003;4.2025639648e+003;4.2078203125e+003;4.2002563477e+003;4.1862822266e+003;
2.9453125000e+000;4.1779487305e+003;4.1879487305e+003;4.1888461914e+003;4.1753847656e+003;4.1929487305e+003;4.1821796875e+003;4.1791025391e+003;4.1771796875e+003;4.1721796875e+003;4.1621796875e+003;4.2011538086e+003;4.2046152344e+003;4.1888461914e+003;4.1817949219e+003;
2.9531250000e+000;4.1703847656e+003;4.1596152344e+003;4.1778203125e+003;4.1587177734e+003;4.1596152344e+003;4.1728203125e+003;4.1632050781e+003;4.1620512695e+003;4.1603847656e+003;4.1498715820e+003;4.1669228516e+003;4.1897436523e+003;4.1867949219e+003;4.1680771484e+003;
2.9609375000e+000;4.1478203125e+003;4.1421796875e+003;4.1570512695e+003;4.1424360352e+003;4.1394873047e+003;4.1532050781e+003;4.1464101563e+003;4.1483334961e+003;4.1523076172e+003;4.1291025391e+003;4.1464101563e+003;4.1716665039e+003;4.1639741211e+003;4.1479487305e+003;
2.9687500000e+000;4.2283334961e+003;4.2475639648e+003;4.2310258789e+003;4.2353847656e+003;4.2575639648e+003;4.2411538086e+003;4.2461538086e+003;4.2519228516e+003;4.2624360352e+003;4.2469228516e+003;4.2555126953e+003;4.2571796875e+003;4.2570512695e+003;4.2344873047e+003;
2.9765625000e+000;4.2028203125e+003;4.2143588867e+003;4.2071796875e+003;4.2042309570e+003;4.2128203125e+003;4.2383334961e+003;4.2320512695e+003;4.2361538086e+003;4.2365385742e+003;4.2176923828e+003;4.2429487305e+003;4.2346152344e+003;4.2274360352e+003;4.2093588867e+003;
2.9843750000e+000;4.2148715820e+003;4.2258974609e+003;4.2214101563e+003;4.2150000000e+003;4.2205126953e+003;4.2506411133e+003;4.2447436523e+003;4.2482050781e+003;4.2492309570e+003;4.2250000000e+003;4.2453847656e+003;4.2437177734e+003;4.2375639648e+003;4.2210258789e+003;
2.9921875000e+000;4.2152563477e+003;4.2338461914e+003;4.2201284180e+003;4.2160258789e+003;4.2526923828e+003;4.2455126953e+003;4.2433334961e+003;4.2508974609e+003;4.2489741211e+003;4.2382050781e+003;4.2223076172e+003;4.2389741211e+003;4.2421796875e+003;4.2188461914e+003;
3.0000000000e+000;4.2473076172e+003;4.2730771484e+003;4.2476923828e+003;4.2565385742e+003;4.2815385742e+003;4.2923076172e+003;4.2796152344e+003;4.2756411133e+003;4.2743588867e+003;4.2726923828e+003;4.2756411133e+003;4.2693588867e+003;4.2791025391e+003;4.2511538086e+003;
3.0078125000e+000;4.2492309570e+003;4.2794873047e+003;4.2533334961e+003;4.2638461914e+003;4.2858974609e+003;4.2955126953e+003;4.2815385742e+003;4.2798715820e+003;4.2826923828e+003;4.2750000000e+003;4.2801284180e+003;4.2733334961e+003;4.2808974609e+003;4.2552563477e+003;
3.0156250000e+000;4.2279487305e+003;4.2606411133e+003;4.2357690430e+003;4.2446152344e+003;4.2724360352e+003;4.2712822266e+003;4.2588461914e+003;4.2585898438e+003;4.2641025391e+003;4.2501284180e+003;4.2550000000e+003;4.2534614258e+003;4.2580771484e+003;4.2344873047e+003;
3.0234375000e+000;4.2183334961e+003;4.2450000000e+003;4.2243588867e+003;4.2221796875e+003;4.2675639648e+003;4.2412822266e+003;4.2348715820e+003;4.2342309570e+003;4.2357690430e+003;4.2252563477e+003;4.2347436523e+003;4.2398715820e+003;4.2451284180e+003;4.2203847656e+003;
3.0312500000e+000;4.2323076172e+003;4.2520512695e+003;4.2346152344e+003;4.2291025391e+003;4.2694873047e+003;4.2443588867e+003;4.2394873047e+003;4.2396152344e+003;4.2353847656e+003;4.2351284180e+003;4.2479487305e+003;4.2505126953e+003;4.2585898438e+003;4.2326923828e+003;
3.0390625000e+000;4.1944873047e+003;4.2073076172e+003;4.1929487305e+003;4.1983334961e+003;4.1971796875e+003;4.1965385742e+003;4.1966665039e+003;4.1861538086e+003;4.1767949219e+003;4.1841025391e+003;4.1989741211e+003;4.2026923828e+003;4.2048715820e+003;4.1884614258e+003;
3.0468750000e+000;4.2157690430e+003;4.2343588867e+003;4.2157690430e+003;4.2191025391e+003;4.2239741211e+003;4.2157690430e+003;4.2171796875e+003;4.2065385742e+003;4.2017949219e+003;4.2037177734e+003;4.2183334961e+003;4.2225639648e+003;4.2233334961e+003;4.2083334961e+003;
3.0546875000e+000;4.2519228516e+003;4.2758974609e+003;4.2615385742e+003;4.2461538086e+003;4.2744873047e+003;4.2542309570e+003;4.2498715820e+003;4.2546152344e+003;4.2571796875e+003;4.2538461914e+003;4.2682050781e+003;4.2667949219e+003;4.2705126953e+003;4.2519228516e+003;
3.0625000000e+000;4.2210258789e+003;4.2401284180e+003;4.2339741211e+003;4.2147436523e+003;4.2424360352e+003;4.2294873047e+003;4.2225639648e+003;4.2308974609e+003;4.2337177734e+003;4.2279487305e+003;4.2443588867e+003;4.2401284180e+003;4.2434614258e+003;4.2258974609e+003;
3.0703125000e+000;4.1864101563e+003;4.1994873047e+003;4.1971796875e+003;4.1828203125e+003;4.2033334961e+003;4.2008974609e+003;4.1950000000e+003;4.2001284180e+003;4.2025639648e+003;4.1926923828e+003;4.2120512695e+003;4.2057690430e+003;4.2067949219e+003;4.1930771484e+003;
3.0781250000e+000;4.2200000000e+003;4.2298715820e+003;4.2287177734e+003;4.2121796875e+003;4.2424360352e+003;4.2500000000e+003;4.2442309570e+003;4.2441025391e+003;4.2443588867e+003;4.2351284180e+003;4.2278203125e+003;4.2346152344e+003;4.2378203125e+003;4.2201284180e+003;
3.0859375000e+000;4.2298715820e+003;4.2405126953e+003;4.2391025391e+003;4.2255126953e+003;4.2546152344e+003;4.2597436523e+003;4.2544873047e+003;4.2542309570e+003;4.2524360352e+003;4.2434614258e+003;4.2371796875e+003;4.2439741211e+003;4.2507690430e+003;4.2289741211e+003;
3.0937500000e+000;4.2091025391e+003;4.2370512695e+003;4.2147436523e+003;4.2169228516e+003;4.2380771484e+003;4.2451284180e+003;4.2396152344e+003;4.2474360352e+003;4.2483334961e+003;4.2294873047e+003;4.2325639648e+003;4.2319228516e+003;4.2320512695e+003;4.2185898438e+003;
3.1015625000e+000;4.2343588867e+003;4.2557690430e+003;4.2365385742e+003;4.2247436523e+003;4.2635898438e+003;4.2569228516e+003;4.2533334961e+003;4.2542309570e+003;4.2560258789e+003;4.2415385742e+003;4.2379487305e+003;4.2401284180e+003;4.2451284180e+003;4.2298715820e+003;
3.1093750000e+000;4.2542309570e+003;4.2696152344e+003;4.2546152344e+003;4.2423076172e+003;4.2756411133e+003;4.2720512695e+003;4.2670512695e+003;4.2665385742e+003;4.2665385742e+003;4.2548715820e+003;4.2565385742e+003;4.2579487305e+003;4.2607690430e+003;4.2476923828e+003;
3.1171875000e+000;4.2126923828e+003;4.2220512695e+003;4.2174360352e+003;4.2080771484e+003;4.2121796875e+003;4.2224360352e+003;4.2161538086e+003;4.2091025391e+003;4.2078203125e+003;4.1985898438e+003;4.2135898438e+003;4.2215385742e+003;4.2212822266e+003;4.2132050781e+003;
3.1250000000e+000;4.2328203125e+003;4.2442309570e+003;4.2403847656e+003;4.2253847656e+003;4.2324360352e+003;4.2319228516e+003;4.2287177734e+003;4.2217949219e+003;4.2215385742e+003;4.2169228516e+003;4.2284614258e+003;4.2430771484e+003;4.2416665039e+003;4.2342309570e+003;
3.1328125000e+000;4.2385898438e+003;4.2506411133e+003;4.2471796875e+003;4.2271796875e+003;4.2397436523e+003;4.2203847656e+003;4.2191025391e+003;4.2123076172e+003;4.2094873047e+003;4.2116665039e+003;4.2352563477e+003;4.2523076172e+003;4.2375639648e+003;4.2412822266e+003;
3.1406250000e+000;4.2185898438e+003;4.2289741211e+003;4.2243588867e+003;4.2078203125e+003;4.2175639648e+003;4.1969228516e+003;4.1952563477e+003;4.1869228516e+003;4.1810258789e+003;4.1838461914e+003;4.2215385742e+003;4.2320512695e+003;4.2150000000e+003;4.2216665039e+003;
3.1484375000e+000;4.2473076172e+003;4.2539741211e+003;4.2539741211e+003;4.2393588867e+003;4.2267949219e+003;4.2153847656e+003;4.2193588867e+003;4.2211538086e+003;4.2176923828e+003;4.2261538086e+003;4.2520512695e+003;4.2655126953e+003;4.2585898438e+003;4.2542309570e+003;
3.1562500000e+000;4.2460258789e+003;4.2521796875e+003;4.2567949219e+003;4.2398715820e+003;4.2242309570e+003;4.2164101563e+003;4.2226923828e+003;4.2239741211e+003;4.2247436523e+003;4.2326923828e+003;4.2455126953e+003;4.2678203125e+003;4.2561538086e+003;4.2529487305e+003;
3.1640625000e+000;4.2828203125e+003;4.3023076172e+003;4.2953847656e+003;4.2746152344e+003;4.3003847656e+003;4.2844873047e+003;4.2911538086e+003;4.2782050781e+003;4.2837177734e+003;4.2789741211e+003;4.2902563477e+003;4.3005126953e+003;4.2912822266e+003;4.2882050781e+003;
3.1718750000e+000;4.2873076172e+003;4.3112822266e+003;4.3014101563e+003;4.2802563477e+003;4.3162822266e+003;4.3016665039e+003;4.3042309570e+003;4.2978203125e+003;4.3012822266e+003;4.2920512695e+003;4.3014101563e+003;4.3065385742e+003;4.3041025391e+003;4.2966665039e+003;
3.1796875000e+000;4.2278203125e+003;4.2487177734e+003;4.2428203125e+003;4.2257690430e+003;4.2600000000e+003;4.2570512695e+003;4.2530771484e+003;4.2557690430e+003;4.2529487305e+003;4.2347436523e+003;4.2378203125e+003;4.2505126953e+003;4.2464101563e+003;4.2378203125e+003;
3.1875000000e+000;4.2333334961e+003;4.2516665039e+003;4.2448715820e+003;4.2310258789e+003;4.2644873047e+003;4.2617949219e+003;4.2573076172e+003;4.2574360352e+003;4.2538461914e+003;4.2343588867e+003;4.2387177734e+003;4.2532050781e+003;4.2446152344e+003;4.2401284180e+003;
3.1953125000e+000;4.2792309570e+003;4.2984614258e+003;4.2875639648e+003;4.2753847656e+003;4.3110258789e+003;4.3048715820e+003;4.3002563477e+003;4.2991025391e+003;4.2964101563e+003;4.2798715820e+003;4.2864101563e+003;4.2965385742e+003;4.2865385742e+003;4.2853847656e+003;
3.2031250000e+000;4.3576923828e+003;4.3924360352e+003;4.3785898438e+003;4.3630771484e+003;4.4021796875e+003;4.3806411133e+003;4.3775639648e+003;4.3908974609e+003;4.3898715820e+003;4.3820512695e+003;4.3789741211e+003;4.3844873047e+003;4.3900000000e+003;4.3696152344e+003;
3.2109375000e+000;4.3741025391e+003;4.4079487305e+003;4.3934614258e+003;4.3807690430e+003;4.4243588867e+003;4.3908974609e+003;4.3867949219e+003;4.4025639648e+003;4.4014101563e+003;4.3980771484e+003;4.3951284180e+003;4.4020512695e+003;4.4021796875e+003;4.3850000000e+003;
3.2187500000e+000;4.3356411133e+003;4.3764101563e+003;4.3620512695e+003;4.3401284180e+003;4.3792309570e+003;4.3496152344e+003;4.3429487305e+003;4.3551284180e+003;4.3473076172e+003;4.3544873047e+003;4.3621796875e+003;4.3675639648e+003;4.3648715820e+003;4.3551284180e+003;
3.2265625000e+000;4.3611538086e+003;4.4034614258e+003;4.3910258789e+003;4.3628203125e+003;4.4001284180e+003;4.3719228516e+003;4.3674360352e+003;4.3769228516e+003;4.3671796875e+003;4.3767949219e+003;4.3920512695e+003;4.3937177734e+003;4.3958974609e+003;4.3846152344e+003;
3.2343750000e+000;4.3885898438e+003;4.4228203125e+003;4.4269228516e+003;4.3957690430e+003;4.4314101563e+003;4.3864101563e+003;4.3879487305e+003;4.3970512695e+003;4.3855126953e+003;4.4046152344e+003;4.4234614258e+003;4.4297436523e+003;4.4267949219e+003;4.4185898438e+003;
3.2421875000e+000;4.3432050781e+003;4.3761538086e+003;4.3816665039e+003;4.3447436523e+003;4.3656411133e+003;4.3261538086e+003;4.3305126953e+003;4.3334614258e+003;4.3375639648e+003;4.3546152344e+003;4.3705126953e+003;4.3819228516e+003;4.3712822266e+003;4.3741025391e+003;
3.2500000000e+000;4.3402563477e+003;4.3775639648e+003;4.3793588867e+003;4.3380771484e+003;4.3669228516e+003;4.3312822266e+003;4.3319228516e+003;4.3365385742e+003;4.3467949219e+003;4.3597436523e+003;4.3787177734e+003;4.3823076172e+003;4.3738461914e+003;4.3739741211e+003;
3.2578125000e+000;4.3182050781e+003;4.3600000000e+003;4.3620512695e+003;4.3258974609e+003;4.3732050781e+003;4.3312822266e+003;4.3293588867e+003;4.3314101563e+003;4.3485898438e+003;4.3524360352e+003;4.3712822266e+003;4.3707690430e+003;4.3628203125e+003;4.3564101563e+003;
3.2656250000e+000;4.3332050781e+003;4.3766665039e+003;4.3788461914e+003;4.3469228516e+003;4.3992309570e+003;4.3535898438e+003;4.3544873047e+003;4.3566665039e+003;4.3734614258e+003;4.3734614258e+003;4.3851284180e+003;4.3887177734e+003;4.3811538086e+003;4.3724360352e+003;
3.2734375000e+000;4.3314101563e+003;4.3701284180e+003;4.3814101563e+003;4.3455126953e+003;4.3910258789e+003;4.3653847656e+003;4.3743588867e+003;4.3821796875e+003;4.3867949219e+003;4.3721796875e+003;4.3696152344e+003;4.3819228516e+003;4.3684614258e+003;4.3685898438e+003;
3.2812500000e+000;4.3264101563e+003;4.3643588867e+003;4.3748715820e+003;4.3389741211e+003;4.3856411133e+003;4.3616665039e+003;4.3703847656e+003;4.3767949219e+003;4.3779487305e+003;4.3610258789e+003;4.3653847656e+003;4.3710258789e+003;4.3591025391e+003;4.3608974609e+003;
3.2890625000e+000;4.3484614258e+003;4.3907690430e+003;4.3942309570e+003;4.3600000000e+003;4.4132050781e+003;4.3846152344e+003;4.3901284180e+003;4.3979487305e+003;4.3978203125e+003;4.3808974609e+003;4.3923076172e+003;4.3897436523e+003;4.3828203125e+003;4.3824360352e+003;
3.2968750000e+000;4.3825639648e+003;4.4380771484e+003;4.4269228516e+003;4.3932050781e+003;4.4570512695e+003;4.4301284180e+003;4.4230771484e+003;4.4402563477e+003;4.4402563477e+003;4.4234614258e+003;4.4334614258e+003;4.4296152344e+003;4.4298715820e+003;4.4221796875e+003;
3.3046875000e+000;4.4061538086e+003;4.4601284180e+003;4.4516665039e+003;4.4119228516e+003;4.4869228516e+003;4.4637177734e+003;4.4561538086e+003;4.4639741211e+003;4.4601284180e+003;4.4548715820e+003;4.4488461914e+003;4.4484614258e+003;4.4548715820e+003;4.4426923828e+003;
3.3125000000e+000;4.4623076172e+003;4.5205126953e+003;4.5094873047e+003;4.4725639648e+003;4.5539741211e+003;4.5158974609e+003;4.5114101563e+003;4.5200000000e+003;4.5157690430e+003;4.5184614258e+003;4.5128203125e+003;4.5048715820e+003;4.5138461914e+003;4.5011538086e+003;
3.3203125000e+000;4.5006411133e+003;4.5646152344e+003;4.5514101563e+003;4.5192309570e+003;4.6002563477e+003;4.5523076172e+003;4.5485898438e+003;4.5605126953e+003;4.5569228516e+003;4.5635898438e+003;4.5612822266e+003;4.5482050781e+003;4.5566665039e+003;4.5450000000e+003;
3.3281250000e+000;4.5125639648e+003;4.5802563477e+003;4.5673076172e+003;4.5385898438e+003;4.6115385742e+003;4.5639741211e+003;4.5594873047e+003;4.5724360352e+003;4.5705126953e+003;4.5760258789e+003;4.5780771484e+003;4.5653847656e+003;4.5719228516e+003;4.5614101563e+003;
3.3359375000e+000;4.6553847656e+003;4.7356411133e+003;4.7188461914e+003;4.6562822266e+003;4.7293588867e+003;4.6746152344e+003;4.6746152344e+003;4.6792309570e+003;4.6880771484e+003;4.7174360352e+003;4.7174360352e+003;4.7055126953e+003;4.7258974609e+003;4.7096152344e+003;
3.3437500000e+000;4.6534614258e+003;4.7384614258e+003;4.7216665039e+003;4.6528203125e+003;4.7329487305e+003;4.6671796875e+003;4.6678203125e+003;4.6732050781e+003;4.6819228516e+003;4.7202563477e+003;4.7210258789e+003;4.7093588867e+003;4.7280771484e+003;4.7147436523e+003;
3.3515625000e+000;4.6788461914e+003;4.7589741211e+003;4.7567949219e+003;4.6930771484e+003;4.7692309570e+003;4.6788461914e+003;4.6950000000e+003;4.6960258789e+003;4.7078203125e+003;4.7382050781e+003;4.7525639648e+003;4.7485898438e+003;4.7556411133e+003;4.7478203125e+003;
3.3593750000e+000;4.6288461914e+003;4.7301284180e+003;4.7170512695e+003;4.6562822266e+003;4.7260258789e+003;4.6562822266e+003;4.6683334961e+003;4.6791025391e+003;4.6920512695e+003;4.7216665039e+003;4.7278203125e+003;4.7158974609e+003;4.7260258789e+003;4.7156411133e+003;
3.3671875000e+000;4.6173076172e+003;4.7257690430e+003;4.7075639648e+003;4.6467949219e+003;4.7230771484e+003;4.6569228516e+003;4.6674360352e+003;4.6810258789e+003;4.6914101563e+003;4.7180771484e+003;4.7194873047e+003;4.7078203125e+003;4.7214101563e+003;4.7102563477e+003;
3.3750000000e+000;4.6074360352e+003;4.7143588867e+003;4.7074360352e+003;4.6470512695e+003;4.7262822266e+003;4.6717949219e+003;4.6830771484e+003;4.7034614258e+003;4.7046152344e+003;4.7065385742e+003;4.7019228516e+003;4.7046152344e+003;4.7166665039e+003;4.7060258789e+003;
3.3828125000e+000;4.5464101563e+003;4.6567949219e+003;4.6453847656e+003;4.5871796875e+003;4.6643588867e+003;4.6341025391e+003;4.6307690430e+003;4.6415385742e+003;4.6385898438e+003;4.6420512695e+003;4.6400000000e+003;4.6355126953e+003;4.6453847656e+003;4.6365385742e+003;
3.3906250000e+000;4.5339741211e+003;4.6442309570e+003;4.6323076172e+003;4.5751284180e+003;4.6505126953e+003;4.6239741211e+003;4.6171796875e+003;4.6302563477e+003;4.6261538086e+003;4.6346152344e+003;4.6303847656e+003;4.6224360352e+003;4.6317949219e+003;4.6228203125e+003;
3.3984375000e+000;4.4900000000e+003;4.6035898438e+003;4.5828203125e+003;4.5467949219e+003;4.6226923828e+003;4.5820512695e+003;4.5798715820e+003;4.5835898438e+003;4.5803847656e+003;4.5839741211e+003;4.5930771484e+003;4.5728203125e+003;4.5891025391e+003;4.5788461914e+003;
3.4062500000e+000;4.5157690430e+003;4.6362822266e+003;4.6041025391e+003;4.5737177734e+003;4.6565385742e+003;4.6107690430e+003;4.6082050781e+003;4.6080771484e+003;4.6062822266e+003;4.6084614258e+003;4.6169228516e+003;4.5965385742e+003;4.6185898438e+003;4.6058974609e+003;
3.4140625000e+000;4.5297436523e+003;4.6557690430e+003;4.6161538086e+003;4.5864101563e+003;4.6732050781e+003;4.6301284180e+003;4.6248715820e+003;4.6232050781e+003;4.6210258789e+003;4.6237177734e+003;4.6260258789e+003;4.6112822266e+003;4.6367949219e+003;4.6211538086e+003;
3.4218750000e+000;4.4969228516e+003;4.6206411133e+003;4.5875639648e+003;4.5510258789e+003;4.6303847656e+003;4.6025639648e+003;4.5941025391e+003;4.5871796875e+003;4.5796152344e+003;4.5864101563e+003;4.5814101563e+003;4.5801284180e+003;4.6035898438e+003;4.5858974609e+003;
3.4296875000e+000;4.5611538086e+003;4.6851284180e+003;4.6542309570e+003;4.6194873047e+003;4.7028203125e+003;4.6443588867e+003;4.6375639648e+003;4.6350000000e+003;4.6312822266e+003;4.6524360352e+003;4.6547436523e+003;4.6429487305e+003;4.6628203125e+003;4.6523076172e+003;
