Time (s),AF3,F7,F3,FC5,T7,P7,O1,O2,P8,T8,FC6,F4,F8,AF4,Sampling Rate
0.0000000000e+000,5.4266665039e+003,5.7484614258e+003,5.6160258789e+003,5.6275639648e+003,5.6944873047e+003,5.5978203125e+003,5.5766665039e+003,5.6123076172e+003,5.5962822266e+003,5.7467949219e+003,5.6944873047e+003,5.6556411133e+003,5.6555126953e+003,5.5979487305e+003,128
7.8125000000e-003,5.4892309570e+003,5.8124360352e+003,5.6785898438e+003,5.6911538086e+003,5.7758974609e+003,5.6641025391e+003,5.6398715820e+003,5.6761538086e+003,5.6589741211e+003,5.8112822266e+003,5.7614101563e+003,5.7189741211e+003,5.7162822266e+003,5.6589741211e+003,
1.5625000000e-002,5.5493588867e+003,5.8892309570e+003,5.7576923828e+003,5.7492309570e+003,5.8641025391e+003,5.7473076172e+003,5.7138461914e+003,5.7561538086e+003,5.7358974609e+003,5.8906411133e+003,5.8524360352e+003,5.7915385742e+003,5.7861538086e+003,5.7330771484e+003,
2.3437500000e-002,5.5257690430e+003,5.8655126953e+003,5.7434614258e+003,5.7274360352e+003,5.8348715820e+003,5.7341025391e+003,5.7000000000e+003,5.7375639648e+003,5.7167949219e+003,5.8697436523e+003,5.8319228516e+003,5.7739741211e+003,5.7683334961e+003,5.7160258789e+003,
3.1250000000e-002,5.4320512695e+003,5.7629487305e+003,5.6603847656e+003,5.6425639648e+003,5.7384614258e+003,5.6567949219e+003,5.6211538086e+003,5.6535898438e+003,5.6298715820e+003,5.7803847656e+003,5.7346152344e+003,5.6907690430e+003,5.6820512695e+003,5.6302563477e+003,
3.9062500000e-002,5.3407690430e+003,5.6702563477e+003,5.5712822266e+003,5.5570512695e+003,5.6539741211e+003,5.5719228516e+003,5.5360258789e+003,5.5685898438e+003,5.5429487305e+003,5.6908974609e+003,5.6420512695e+003,5.6047436523e+003,5.5930771484e+003,5.5429487305e+003,
4.6875000000e-002,5.1569228516e+003,5.4908974609e+003,5.3893588867e+003,5.3746152344e+003,5.4734614258e+003,5.3892309570e+003,5.3657690430e+003,5.3773076172e+003,5.3516665039e+003,5.4876923828e+003,5.4470512695e+003,5.4206411133e+003,5.4058974609e+003,5.3655126953e+003,
5.4687500000e-002,5.2253847656e+003,5.5598715820e+003,5.4571796875e+003,5.4406411133e+003,5.5353847656e+003,5.4515385742e+003,5.4326923828e+003,5.4374360352e+003,5.4123076172e+003,5.5514101563e+003,5.5148715820e+003,5.4832050781e+003,5.4721796875e+003,5.4334614258e+003,
6.2500000000e-002,5.3237177734e+003,5.6598715820e+003,5.5556411133e+003,5.5403847656e+003,5.6292309570e+003,5.5442309570e+003,5.5278203125e+003,5.5315385742e+003,5.5066665039e+003,5.6519228516e+003,5.6197436523e+003,5.5774360352e+003,5.5717949219e+003,5.5325639648e+003,
7.0312500000e-002,5.4006411133e+003,5.7402563477e+003,5.6337177734e+003,5.6229487305e+003,5.7062822266e+003,5.6185898438e+003,5.6028203125e+003,5.6096152344e+003,5.5847436523e+003,5.7356411133e+003,5.7085898438e+003,5.6534614258e+003,5.6544873047e+003,5.6124360352e+003,
7.8125000000e-002,5.4793588867e+003,5.8326923828e+003,5.7216665039e+003,5.7056411133e+003,5.7876923828e+003,5.7033334961e+003,5.6866665039e+003,5.7062822266e+003,5.6808974609e+003,5.8243588867e+003,5.8012822266e+003,5.7428203125e+003,5.7511538086e+003,5.7011538086e+003,
8.5937500000e-002,5.5262822266e+003,5.8824360352e+003,5.7724360352e+003,5.7510258789e+003,5.8343588867e+003,5.7498715820e+003,5.7346152344e+003,5.7585898438e+003,5.7321796875e+003,5.8748715820e+003,5.8438461914e+003,5.7935898438e+003,5.7962822266e+003,5.7501284180e+003,
9.3750000000e-002,5.6835898438e+003,6.0584614258e+003,5.9357690430e+003,5.9315385742e+003,6.0306411133e+003,5.9178203125e+003,5.8960258789e+003,5.9365385742e+003,5.9065385742e+003,6.0529487305e+003,6.0228203125e+003,5.9588461914e+003,5.9620512695e+003,5.9169228516e+003,
1.0156250000e-001,5.8058974609e+003,6.1970512695e+003,6.0692309570e+003,6.0607690430e+003,6.1716665039e+003,6.0473076172e+003,6.0171796875e+003,6.0676923828e+003,6.0389741211e+003,6.1914101563e+003,6.1760258789e+003,6.0933334961e+003,6.0978203125e+003,6.0492309570e+003,
1.0937500000e-001,5.8479487305e+003,6.2453847656e+003,6.1173076172e+003,6.0988461914e+003,6.2124360352e+003,6.0901284180e+003,6.0597436523e+003,6.1094873047e+003,6.0814101563e+003,6.2369228516e+003,6.2166665039e+003,6.1361538086e+003,6.1464101563e+003,6.0932050781e+003,
1.1718750000e-001,5.9828203125e+003,6.4034614258e+003,6.2647436523e+003,6.2448715820e+003,6.3606411133e+003,6.2503847656e+003,6.2075639648e+003,6.2560258789e+003,6.2221796875e+003,6.3862822266e+003,6.3487177734e+003,6.2793588867e+003,6.3058974609e+003,6.2353847656e+003,
1.2500000000e-001,5.9978203125e+003,6.4403847656e+003,6.2993588867e+003,6.2737177734e+003,6.3885898438e+003,6.2882050781e+003,6.2478203125e+003,6.2885898438e+003,6.2517949219e+003,6.4193588867e+003,6.4021796875e+003,6.3257690430e+003,6.3279487305e+003,6.2765385742e+003,
1.3281250000e-001,5.9894873047e+003,6.4356411133e+003,6.2991025391e+003,6.2651284180e+003,6.3855126953e+003,6.2855126953e+003,6.2487177734e+003,6.2834614258e+003,6.2467949219e+003,6.4165385742e+003,6.4075639648e+003,6.3220512695e+003,6.3270512695e+003,6.2742309570e+003,
1.4062500000e-001,5.9838461914e+003,6.4303847656e+003,6.3007690430e+003,6.2608974609e+003,6.3862822266e+003,6.2857690430e+003,6.2502563477e+003,6.2791025391e+003,6.2406411133e+003,6.4128203125e+003,6.4097436523e+003,6.3185898438e+003,6.3297436523e+003,6.2715385742e+003,
1.4843750000e-001,5.9832050781e+003,6.4292309570e+003,6.3097436523e+003,6.2692309570e+003,6.4006411133e+003,6.2921796875e+003,6.2530771484e+003,6.2755126953e+003,6.2329487305e+003,6.4061538086e+003,6.4084614258e+003,6.3246152344e+003,6.3370512695e+003,6.2767949219e+003,
1.5625000000e-001,5.8326923828e+003,6.2806411133e+003,6.1657690430e+003,6.1285898438e+003,6.2456411133e+003,6.1462822266e+003,6.1037177734e+003,6.1323076172e+003,6.0889741211e+003,6.2585898438e+003,6.2542309570e+003,6.1916665039e+003,6.1861538086e+003,6.1494873047e+003,
1.6406250000e-001,5.6976923828e+003,6.1414101563e+003,6.0353847656e+003,5.9980771484e+003,6.0970512695e+003,6.0182050781e+003,5.9762822266e+003,6.0050000000e+003,5.9603847656e+003,6.1243588867e+003,6.1179487305e+003,6.0624360352e+003,6.0503847656e+003,6.0201284180e+003,
1.7187500000e-001,5.5452563477e+003,5.9824360352e+003,5.8873076172e+003,5.8516665039e+003,5.9321796875e+003,5.8732050781e+003,5.8323076172e+003,5.8605126953e+003,5.8158974609e+003,5.9691025391e+003,5.9625639648e+003,5.9134614258e+003,5.8961538086e+003,5.8691025391e+003,
1.7968750000e-001,5.2907690430e+003,5.7161538086e+003,5.6343588867e+003,5.6062822266e+003,5.6737177734e+003,5.6253847656e+003,5.5891025391e+003,5.6210258789e+003,5.5828203125e+003,5.7050000000e+003,5.7016665039e+003,5.6574360352e+003,5.6382050781e+003,5.6114101563e+003,
1.8750000000e-001,5.2053847656e+003,5.6241025391e+003,5.5474360352e+003,5.5198715820e+003,5.5929487305e+003,5.5371796875e+003,5.5057690430e+003,5.5405126953e+003,5.5070512695e+003,5.6141025391e+003,5.6141025391e+003,5.5683334961e+003,5.5501284180e+003,5.5262822266e+003,
1.9531250000e-001,5.1407690430e+003,5.5494873047e+003,5.4807690430e+003,5.4502563477e+003,5.5288461914e+003,5.4660258789e+003,5.4407690430e+003,5.4765385742e+003,5.4474360352e+003,5.5416665039e+003,5.5470512695e+003,5.4987177734e+003,5.4802563477e+003,5.4628203125e+003,
2.0312500000e-001,4.8489741211e+003,5.2121796875e+003,5.1716665039e+003,5.1479487305e+003,5.1893588867e+003,5.1530771484e+003,5.1310258789e+003,5.1684614258e+003,5.1511538086e+003,5.2080771484e+003,5.1993588867e+003,5.1762822266e+003,5.1543588867e+003,5.1420512695e+003,
2.1093750000e-001,4.7712822266e+003,5.1274360352e+003,5.0894873047e+003,5.0685898438e+003,5.1082050781e+003,5.0747436523e+003,5.0515385742e+003,5.0861538086e+003,5.0721796875e+003,5.1221796875e+003,5.1106411133e+003,5.0919228516e+003,5.0694873047e+003,5.0608974609e+003,
2.1875000000e-001,4.6057690430e+003,4.9323076172e+003,4.9064101563e+003,4.8991025391e+003,4.9174360352e+003,4.8992309570e+003,4.8828203125e+003,4.9052563477e+003,4.9029487305e+003,4.9302563477e+003,4.9366665039e+003,4.9056411133e+003,4.8989741211e+003,4.8937177734e+003,
2.2656250000e-001,4.4762822266e+003,4.7758974609e+003,4.7589741211e+003,4.7623076172e+003,4.7771796875e+003,4.7600000000e+003,4.7458974609e+003,4.7656411133e+003,4.7641025391e+003,4.7774360352e+003,4.7812822266e+003,4.7669228516e+003,4.7512822266e+003,4.7539741211e+003,
2.3437500000e-001,4.4397436523e+003,4.7316665039e+003,4.7143588867e+003,4.7197436523e+003,4.7352563477e+003,4.7205126953e+003,4.7062822266e+003,4.7228203125e+003,4.7205126953e+003,4.7352563477e+003,4.7341025391e+003,4.7244873047e+003,4.7048715820e+003,4.7110258789e+003,
2.4218750000e-001,4.4310258789e+003,4.6953847656e+003,4.6847436523e+003,4.6974360352e+003,4.6955126953e+003,4.6947436523e+003,4.6855126953e+003,4.6788461914e+003,4.6808974609e+003,4.6893588867e+003,4.6987177734e+003,4.6870512695e+003,4.6829487305e+003,4.6767949219e+003,
2.5000000000e-001,4.4671796875e+003,4.7226923828e+003,4.7139741211e+003,4.7282050781e+003,4.7198715820e+003,4.7207690430e+003,4.7129487305e+003,4.6992309570e+003,4.7021796875e+003,4.7105126953e+003,4.7260258789e+003,4.7147436523e+003,4.7164101563e+003,4.7033334961e+003,
2.5781250000e-001,4.5314101563e+003,4.7783334961e+003,4.7662822266e+003,4.7765385742e+003,4.7632050781e+003,4.7660258789e+003,4.7596152344e+003,4.7400000000e+003,4.7402563477e+003,4.7621796875e+003,4.7805126953e+003,4.7762822266e+003,4.7683334961e+003,4.7582050781e+003,
2.6562500000e-001,4.5333334961e+003,4.7773076172e+003,4.7652563477e+003,4.7708974609e+003,4.7583334961e+003,4.7629487305e+003,4.7573076172e+003,4.7361538086e+003,4.7329487305e+003,4.7626923828e+003,4.7796152344e+003,4.7800000000e+003,4.7630771484e+003,4.7593588867e+003,
2.7343750000e-001,4.4803847656e+003,4.7062822266e+003,4.7008974609e+003,4.7120512695e+003,4.7080771484e+003,4.7034614258e+003,4.6971796875e+003,4.6716665039e+003,4.6602563477e+003,4.6843588867e+003,4.7132050781e+003,4.7142309570e+003,4.6917949219e+003,4.6934614258e+003,
2.8125000000e-001,4.4534614258e+003,4.6617949219e+003,4.6642309570e+003,4.6839741211e+003,4.6680771484e+003,4.6501284180e+003,4.6517949219e+003,4.6492309570e+003,4.6342309570e+003,4.6439741211e+003,4.6710258789e+003,4.6843588867e+003,4.6491025391e+003,4.6621796875e+003,
2.8906250000e-001,4.4378203125e+003,4.6423076172e+003,4.6476923828e+003,4.6611538086e+003,4.6423076172e+003,4.6282050781e+003,4.6337177734e+003,4.6411538086e+003,4.6270512695e+003,4.6317949219e+003,4.6542309570e+003,4.6674360352e+003,4.6315385742e+003,4.6457690430e+003,
2.9687500000e-001,4.4202563477e+003,4.6207690430e+003,4.6278203125e+003,4.6356411133e+003,4.6187177734e+003,4.6087177734e+003,4.6165385742e+003,4.6294873047e+003,4.6185898438e+003,4.6153847656e+003,4.6379487305e+003,4.6451284180e+003,4.6112822266e+003,4.6238461914e+003,
3.0468750000e-001,4.4419228516e+003,4.6370512695e+003,4.6398715820e+003,4.6521796875e+003,4.6405126953e+003,4.6306411133e+003,4.6376923828e+003,4.6474360352e+003,4.6428203125e+003,4.6253847656e+003,4.6530771484e+003,4.6517949219e+003,4.6219228516e+003,4.6303847656e+003,
3.1250000000e-001,4.5262822266e+003,4.7229487305e+003,4.7180771484e+003,4.7379487305e+003,4.7239741211e+003,4.7106411133e+003,4.7157690430e+003,4.7215385742e+003,4.7169228516e+003,4.7020512695e+003,4.7256411133e+003,4.7274360352e+003,4.7006411133e+003,4.7076923828e+003,
3.2031250000e-001,4.6661538086e+003,4.8687177734e+003,4.8520512695e+003,4.8775639648e+003,4.8610258789e+003,4.8429487305e+003,4.8460258789e+003,4.8506411133e+003,4.8437177734e+003,4.8402563477e+003,4.8547436523e+003,4.8587177734e+003,4.8380771484e+003,4.8425639648e+003,
3.2812500000e-001,5.2319228516e+003,5.4651284180e+003,5.4112822266e+003,5.4389741211e+003,5.4688461914e+003,5.4102563477e+003,5.3991025391e+003,5.4094873047e+003,5.4012822266e+003,5.4442309570e+003,5.4526923828e+003,5.4183334961e+003,5.4251284180e+003,5.3988461914e+003,
3.3593750000e-001,5.3626923828e+003,5.6061538086e+003,5.5425639648e+003,5.5716665039e+003,5.6065385742e+003,5.5453847656e+003,5.5280771484e+003,5.5371796875e+003,5.5283334961e+003,5.5775639648e+003,5.5867949219e+003,5.5473076172e+003,5.5588461914e+003,5.5275639648e+003,
3.4375000000e-001,5.7911538086e+003,6.0811538086e+003,5.9833334961e+003,5.9852563477e+003,6.0556411133e+003,5.9880771484e+003,5.9570512695e+003,5.9784614258e+003,5.9532050781e+003,6.0396152344e+003,6.0453847656e+003,5.9865385742e+003,6.0029487305e+003,5.9650000000e+003,
3.5156250000e-001,5.9137177734e+003,6.2379487305e+003,6.1305126953e+003,6.1178203125e+003,6.2084614258e+003,6.1312822266e+003,6.0934614258e+003,6.1157690430e+003,6.0891025391e+003,6.1941025391e+003,6.2008974609e+003,6.1347436523e+003,6.1558974609e+003,6.1066665039e+003,
3.5937500000e-001,5.9541025391e+003,6.2888461914e+003,6.1788461914e+003,6.1683334961e+003,6.2552563477e+003,6.1791025391e+003,6.1366665039e+003,6.1566665039e+003,6.1274360352e+003,6.2356411133e+003,6.2461538086e+003,6.1820512695e+003,6.2034614258e+003,6.1520512695e+003,
3.6718750000e-001,6.1547436523e+003,6.5212822266e+003,6.3908974609e+003,6.3771796875e+003,6.4923076172e+003,6.3958974609e+003,6.3480771484e+003,6.3641025391e+003,6.3167949219e+003,6.4453847656e+003,6.4733334961e+003,6.3991025391e+003,6.4098715820e+003,6.3644873047e+003,
3.7500000000e-001,6.2071796875e+003,6.5829487305e+003,6.4494873047e+003,6.4279487305e+003,6.5588461914e+003,6.4560258789e+003,6.4088461914e+003,6.4273076172e+003,6.3766665039e+003,6.5120512695e+003,6.5366665039e+003,6.4567949219e+003,6.4720512695e+003,6.4217949219e+003,
3.8281250000e-001,6.2387177734e+003,6.6262822266e+003,6.5037177734e+003,6.4566665039e+003,6.5975639648e+003,6.5037177734e+003,6.4582050781e+003,6.4857690430e+003,6.4311538086e+003,6.5679487305e+003,6.5851284180e+003,6.5038461914e+003,6.5280771484e+003,6.4674360352e+003,
3.9062500000e-001,6.2358974609e+003,6.6260258789e+003,6.5119228516e+003,6.4537177734e+003,6.5911538086e+003,6.5042309570e+003,6.4600000000e+003,6.4942309570e+003,6.4365385742e+003,6.5693588867e+003,6.5907690430e+003,6.5094873047e+003,6.5320512695e+003,6.4725639648e+003,
3.9843750000e-001,6.2037177734e+003,6.6083334961e+003,6.4957690430e+003,6.4384614258e+003,6.5642309570e+003,6.4750000000e+003,6.4376923828e+003,6.4920512695e+003,6.4321796875e+003,6.5476923828e+003,6.5824360352e+003,6.5023076172e+003,6.5124360352e+003,6.4653847656e+003,
4.0625000000e-001,6.1823076172e+003,6.5956411133e+003,6.4796152344e+003,6.4215385742e+003,6.5479487305e+003,6.4607690430e+003,6.4248715820e+003,6.4792309570e+003,6.4233334961e+003,6.5323076172e+003,6.5625639648e+003,6.4887177734e+003,6.4966665039e+003,6.4519228516e+003,
4.1406250000e-001,6.1689741211e+003,6.5894873047e+003,6.4729487305e+003,6.4083334961e+003,6.5385898438e+003,6.4561538086e+003,6.4206411133e+003,6.4725639648e+003,6.4202563477e+003,6.5241025391e+003,6.5492309570e+003,6.4808974609e+003,6.4879487305e+003,6.4444873047e+003,
4.2187500000e-001,6.1689741211e+003,6.5934614258e+003,6.4803847656e+003,6.4071796875e+003,6.5411538086e+003,6.4635898438e+003,6.4270512695e+003,6.4784614258e+003,6.4275639648e+003,6.5289741211e+003,6.5516665039e+003,6.4843588867e+003,6.4916665039e+003,6.4484614258e+003,
4.2968750000e-001,6.1867949219e+003,6.6314101563e+003,6.5180771484e+003,6.4606411133e+003,6.5785898438e+003,6.4939741211e+003,6.4569228516e+003,6.5257690430e+003,6.4720512695e+003,6.5755126953e+003,6.6078203125e+003,6.5166665039e+003,6.5364101563e+003,6.4910258789e+003,
4.3750000000e-001,6.2219228516e+003,6.6743588867e+003,6.5525639648e+003,6.5011538086e+003,6.6255126953e+003,6.5343588867e+003,6.4983334961e+003,6.5624360352e+003,6.5126923828e+003,6.6132050781e+003,6.6450000000e+003,6.5526923828e+003,6.5770512695e+003,6.5291025391e+003,
4.4531250000e-001,6.4189741211e+003,6.8869228516e+003,6.7511538086e+003,6.6878203125e+003,6.8552563477e+003,6.7602563477e+003,6.7155126953e+003,6.7657690430e+003,6.7175639648e+003,6.8264101563e+003,6.8539741211e+003,6.7583334961e+003,6.7820512695e+003,6.7335898438e+003,
4.5312500000e-001,6.5811538086e+003,7.0698715820e+003,6.9344873047e+003,6.8515385742e+003,7.0197436523e+003,6.9467949219e+003,6.8867949219e+003,6.9430771484e+003,6.8865385742e+003,7.0052563477e+003,7.0538461914e+003,6.9310258789e+003,6.9587177734e+003,6.9124360352e+003,
4.6093750000e-001,6.6506411133e+003,7.1153847656e+003,7.0014101563e+003,6.9208974609e+003,7.0703847656e+003,7.0071796875e+003,6.9542309570e+003,6.9987177734e+003,6.9479487305e+003,7.0528203125e+003,7.1012822266e+003,6.9917949219e+003,7.0202563477e+003,6.9756411133e+003,
4.6875000000e-001,6.7997436523e+003,7.2429487305e+003,7.1475639648e+003,7.0796152344e+003,7.2196152344e+003,7.1533334961e+003,7.1056411133e+003,7.1375639648e+003,7.0835898438e+003,7.1878203125e+003,7.2126923828e+003,7.1356411133e+003,7.1691025391e+003,7.1202563477e+003,
4.7656250000e-001,6.7478203125e+003,7.2373076172e+003,7.1265385742e+003,7.0626923828e+003,7.2010258789e+003,7.1430771484e+003,7.0883334961e+003,7.1302563477e+003,7.0650000000e+003,7.1746152344e+003,7.2092309570e+003,7.1301284180e+003,7.1437177734e+003,7.1064101563e+003,
4.8437500000e-001,6.8110258789e+003,7.2957690430e+003,7.1994873047e+003,7.1361538086e+003,7.2634614258e+003,7.2093588867e+003,7.1639741211e+003,7.1983334961e+003,7.1376923828e+003,7.2380771484e+003,7.2729487305e+003,7.2001284180e+003,7.2157690430e+003,7.1788461914e+003,
4.9218750000e-001,6.9375639648e+003,7.3960258789e+003,7.3155126953e+003,7.2562822266e+003,7.3714101563e+003,7.3185898438e+003,7.2829487305e+003,7.3120512695e+003,7.2576923828e+003,7.3492309570e+003,7.3774360352e+003,7.3129487305e+003,7.3346152344e+003,7.2966665039e+003,
5.0000000000e-001,7.0739741211e+003,7.4880771484e+003,7.4196152344e+003,7.3661538086e+003,7.4698715820e+003,7.4184614258e+003,7.3876923828e+003,7.4182050781e+003,7.3684614258e+003,7.4542309570e+003,7.4730771484e+003,7.4166665039e+003,7.4416665039e+003,7.4051284180e+003,
5.0781250000e-001,6.9701284180e+003,7.3902563477e+003,7.3134614258e+003,7.2156411133e+003,7.3462822266e+003,7.2867949219e+003,7.2439741211e+003,7.3035898438e+003,7.2335898438e+003,7.3412822266e+003,7.3920512695e+003,7.3057690430e+003,7.3247436523e+003,7.2796152344e+003,
5.1562500000e-001,6.9332050781e+003,7.3894873047e+003,7.3080771484e+003,7.2016665039e+003,7.3470512695e+003,7.2805126953e+003,7.2401284180e+003,7.2992309570e+003,7.2265385742e+003,7.3367949219e+003,7.3908974609e+003,7.2998715820e+003,7.3230771484e+003,7.2706411133e+003,
5.2343750000e-001,6.9110258789e+003,7.3717949219e+003,7.3048715820e+003,7.2055126953e+003,7.3400000000e+003,7.2929487305e+003,7.2511538086e+003,7.3098715820e+003,7.2550000000e+003,7.3338461914e+003,7.3614101563e+003,7.3023076172e+003,7.3125639648e+003,7.2788461914e+003,
5.3125000000e-001,6.8470512695e+003,7.3271796875e+003,7.2565385742e+003,7.1515385742e+003,7.2871796875e+003,7.2423076172e+003,7.1948715820e+003,7.2603847656e+003,7.2065385742e+003,7.2826923828e+003,7.3130771484e+003,7.2489741211e+003,7.2598715820e+003,7.2292309570e+003,
5.3906250000e-001,6.6841025391e+003,7.2471796875e+003,7.1582050781e+003,7.0321796875e+003,7.1985898438e+003,7.1330771484e+003,7.0789741211e+003,7.1593588867e+003,7.0962822266e+003,7.1869228516e+003,7.2378203125e+003,7.1414101563e+003,7.1624360352e+003,7.1243588867e+003,
5.4687500000e-001,6.4142309570e+003,6.9489741211e+003,6.8806411133e+003,6.7591025391e+003,6.9225639648e+003,6.8879487305e+003,6.8238461914e+003,6.8837177734e+003,6.8301284180e+003,6.8907690430e+003,6.9467949219e+003,6.8605126953e+003,6.8738461914e+003,6.8497436523e+003,
5.5468750000e-001,6.3758974609e+003,6.9285898438e+003,6.8456411133e+003,6.7223076172e+003,6.8967949219e+003,6.8569228516e+003,6.7864101563e+003,6.8464101563e+003,6.7903847656e+003,6.8594873047e+003,6.9171796875e+003,6.8161538086e+003,6.8452563477e+003,6.8115385742e+003,
5.6250000000e-001,6.4066665039e+003,6.9915385742e+003,6.8832050781e+003,6.7537177734e+003,6.9548715820e+003,6.8808974609e+003,6.8147436523e+003,6.8685898438e+003,6.8078203125e+003,6.8947436523e+003,6.9639741211e+003,6.8416665039e+003,6.8920512695e+003,6.8448715820e+003,
5.7031250000e-001,6.4339741211e+003,6.9948715820e+003,6.9015385742e+003,6.7698715820e+003,6.9629487305e+003,6.8956411133e+003,6.8324360352e+003,6.8792309570e+003,6.8228203125e+003,6.9015385742e+003,6.9720512695e+003,6.8589741211e+003,6.9048715820e+003,6.8638461914e+003,
5.7812500000e-001,6.4611538086e+003,7.0011538086e+003,6.9311538086e+003,6.7917949219e+003,6.9708974609e+003,6.9226923828e+003,6.8552563477e+003,6.8993588867e+003,6.8387177734e+003,6.9166665039e+003,6.9919228516e+003,6.8844873047e+003,6.9260258789e+003,6.8919228516e+003,
5.8593750000e-001,6.4698715820e+003,7.0100000000e+003,6.9420512695e+003,6.8050000000e+003,6.9780771484e+003,6.9312822266e+003,6.8628203125e+003,6.9074360352e+003,6.8397436523e+003,6.9234614258e+003,7.0035898438e+003,6.8955126953e+003,6.9339741211e+003,6.9021796875e+003,
5.9375000000e-001,6.4217949219e+003,6.9574360352e+003,6.8824360352e+003,6.7591025391e+003,6.9161538086e+003,6.8552563477e+003,6.8001284180e+003,6.8432050781e+003,6.7673076172e+003,6.8461538086e+003,6.9392309570e+003,6.8415385742e+003,6.8689741211e+003,6.8464101563e+003,
6.0156250000e-001,6.3553847656e+003,6.8937177734e+003,6.8192309570e+003,6.6878203125e+003,6.8405126953e+003,6.7861538086e+003,6.7352563477e+003,6.7825639648e+003,6.7042309570e+003,6.7784614258e+003,6.8764101563e+003,6.7787177734e+003,6.8047436523e+003,6.7853847656e+003,
6.0937500000e-001,6.2014101563e+003,6.7287177734e+003,6.6715385742e+003,6.5265385742e+003,6.6566665039e+003,6.6324360352e+003,6.5900000000e+003,6.6455126953e+003,6.5628203125e+003,6.6252563477e+003,6.7284614258e+003,6.6323076172e+003,6.6525639648e+003,6.6433334961e+003,
6.1718750000e-001,6.1358974609e+003,6.6511538086e+003,6.6039741211e+003,6.4632050781e+003,6.5816665039e+003,6.5655126953e+003,6.5274360352e+003,6.5846152344e+003,6.5029487305e+003,6.5560258789e+003,6.6583334961e+003,6.5656411133e+003,6.5830771484e+003,6.5776923828e+003,
6.2500000000e-001,6.0760258789e+003,6.5819228516e+003,6.5402563477e+003,6.4073076172e+003,6.5229487305e+003,6.5029487305e+003,6.4682050781e+003,6.5264101563e+003,6.4469228516e+003,6.4893588867e+003,6.5910258789e+003,6.5015385742e+003,6.5178203125e+003,6.5135898438e+003,
6.3281250000e-001,6.0150000000e+003,6.5155126953e+003,6.4761538086e+003,6.3476923828e+003,6.4714101563e+003,6.4393588867e+003,6.4057690430e+003,6.4648715820e+003,6.3876923828e+003,6.4194873047e+003,6.5226923828e+003,6.4348715820e+003,6.4520512695e+003,6.4475639648e+003,
6.4062500000e-001,5.7674360352e+003,6.2364101563e+003,6.2158974609e+003,6.0861538086e+003,6.2234614258e+003,6.1885898438e+003,6.1510258789e+003,6.2148715820e+003,6.1566665039e+003,6.1547436523e+003,6.2614101563e+003,6.1746152344e+003,6.1878203125e+003,6.1997436523e+003,
6.4843750000e-001,5.7106411133e+003,6.1693588867e+003,6.1496152344e+003,6.0314101563e+003,6.1514101563e+003,6.1289741211e+003,6.0903847656e+003,6.1541025391e+003,6.1015385742e+003,6.0938461914e+003,6.1955126953e+003,6.1100000000e+003,6.1233334961e+003,6.1378203125e+003,
6.5625000000e-001,5.6012822266e+003,6.0398715820e+003,6.0196152344e+003,5.9196152344e+003,6.0114101563e+003,6.0065385742e+003,5.9643588867e+003,6.0116665039e+003,5.9738461914e+003,5.9538461914e+003,6.0465385742e+003,5.9624360352e+003,5.9992309570e+003,6.0065385742e+003,
6.6406250000e-001,5.5926923828e+003,6.0120512695e+003,5.9961538086e+003,5.8916665039e+003,5.9888461914e+003,5.9900000000e+003,5.9426923828e+003,5.9793588867e+003,5.9446152344e+003,5.9234614258e+003,6.0237177734e+003,5.9383334961e+003,5.9747436523e+003,5.9902563477e+003,
6.7187500000e-001,5.5896152344e+003,5.9997436523e+003,5.9852563477e+003,5.8821796875e+003,5.9767949219e+003,5.9807690430e+003,5.9324360352e+003,5.9658974609e+003,5.9321796875e+003,5.9105126953e+003,6.0102563477e+003,5.9269228516e+003,5.9603847656e+003,5.9792309570e+003,
6.7968750000e-001,5.5557690430e+003,5.9484614258e+003,5.9339741211e+003,5.8430771484e+003,5.9152563477e+003,5.9420512695e+003,5.8874360352e+003,5.9019228516e+003,5.8702563477e+003,5.8508974609e+003,5.9507690430e+003,5.8691025391e+003,5.9007690430e+003,5.9189741211e+003,
6.8750000000e-001,5.5433334961e+003,5.9305126953e+003,5.9196152344e+003,5.8311538086e+003,5.9020512695e+003,5.9323076172e+003,5.8782050781e+003,5.8862822266e+003,5.8520512695e+003,5.8321796875e+003,5.9342309570e+003,5.8553847656e+003,5.8800000000e+003,5.9025639648e+003,
6.9531250000e-001,5.5473076172e+003,5.9128203125e+003,5.9144873047e+003,5.8242309570e+003,5.8982050781e+003,5.9265385742e+003,5.8858974609e+003,5.8975639648e+003,5.8506411133e+003,5.8196152344e+003,5.9243588867e+003,5.8432050781e+003,5.8697436523e+003,5.8944873047e+003,
7.0312500000e-001,5.4776923828e+003,5.8292309570e+003,5.8366665039e+003,5.7596152344e+003,5.7996152344e+003,5.8420512695e+003,5.8124360352e+003,5.8362822266e+003,5.7783334961e+003,5.7398715820e+003,5.8478203125e+003,5.7665385742e+003,5.8060258789e+003,5.8265385742e+003,
7.1093750000e-001,5.4794873047e+003,5.8252563477e+003,5.8333334961e+003,5.7575639648e+003,5.8032050781e+003,5.8362822266e+003,5.8094873047e+003,5.8379487305e+003,5.7769228516e+003,5.7387177734e+003,5.8492309570e+003,5.7703847656e+003,5.8038461914e+003,5.8279487305e+003,
7.1875000000e-001,5.4311538086e+003,5.7562822266e+003,5.7742309570e+003,5.6932050781e+003,5.7534614258e+003,5.7666665039e+003,5.7446152344e+003,5.7873076172e+003,5.7310258789e+003,5.6853847656e+003,5.7948715820e+003,5.7206411133e+003,5.7406411133e+003,5.7723076172e+003,
7.2656250000e-001,5.3574360352e+003,5.6758974609e+003,5.6983334961e+003,5.6238461914e+003,5.6683334961e+003,5.6889741211e+003,5.6671796875e+003,5.7116665039e+003,5.6588461914e+003,5.6046152344e+003,5.7135898438e+003,5.6401284180e+003,5.6624360352e+003,5.6956411133e+003,
7.3437500000e-001,5.2246152344e+003,5.5308974609e+003,5.5526923828e+003,5.4966665039e+003,5.5155126953e+003,5.5474360352e+003,5.5248715820e+003,5.5711538086e+003,5.5226923828e+003,5.4548715820e+003,5.5621796875e+003,5.4869228516e+003,5.5194873047e+003,5.5541025391e+003,
7.4218750000e-001,5.1887177734e+003,5.4887177734e+003,5.5076923828e+003,5.4552563477e+003,5.4728203125e+003,5.5067949219e+003,5.4839741211e+003,5.5293588867e+003,5.4830771484e+003,5.4135898438e+003,5.5203847656e+003,5.4434614258e+003,5.4778203125e+003,5.5137177734e+003,
7.5000000000e-001,5.1698715820e+003,5.4625639648e+003,5.4802563477e+003,5.4271796875e+003,5.4461538086e+003,5.4839741211e+003,5.4603847656e+003,5.5025639648e+003,5.4594873047e+003,5.3908974609e+003,5.4992309570e+003,5.4197436523e+003,5.4530771484e+003,5.4910258789e+003,
7.5781250000e-001,5.1632050781e+003,5.4474360352e+003,5.4658974609e+003,5.4116665039e+003,5.4298715820e+003,5.4739741211e+003,5.4478203125e+003,5.4856411133e+003,5.4467949219e+003,5.3793588867e+003,5.4906411133e+003,5.4076923828e+003,5.4408974609e+003,5.4805126953e+003,
7.6562500000e-001,5.1166665039e+003,5.3707690430e+003,5.3976923828e+003,5.3487177734e+003,5.3708974609e+003,5.4107690430e+003,5.3710258789e+003,5.4020512695e+003,5.3778203125e+003,5.2978203125e+003,5.4003847656e+003,5.3232050781e+003,5.3717949219e+003,5.4084614258e+003,
7.7343750000e-001,5.0767949219e+003,5.3238461914e+003,5.3548715820e+003,5.3039741211e+003,5.3293588867e+003,5.3671796875e+003,5.3298715820e+003,5.3542309570e+003,5.3348715820e+003,5.2484614258e+003,5.3493588867e+003,5.2785898438e+003,5.3215385742e+003,5.3628203125e+003,
7.8125000000e-001,5.0157690430e+003,5.2425639648e+003,5.2696152344e+003,5.2310258789e+003,5.2317949219e+003,5.2998715820e+003,5.2630771484e+003,5.2729487305e+003,5.2576923828e+003,5.1669228516e+003,5.2750000000e+003,5.2067949219e+003,5.2373076172e+003,5.2910258789e+003,
7.8906250000e-001,4.9723076172e+003,5.1843588867e+003,5.2097436523e+003,5.1732050781e+003,5.1730771484e+003,5.2446152344e+003,5.2061538086e+003,5.2207690430e+003,5.1912822266e+003,5.1043588867e+003,5.2178203125e+003,5.1423076172e+003,5.1910258789e+003,5.2307690430e+003,
7.9687500000e-001,4.9393588867e+003,5.1483334961e+003,5.1755126953e+003,5.1370512695e+003,5.1478203125e+003,5.2079487305e+003,5.1730771484e+003,5.1858974609e+003,5.1556411133e+003,5.0665385742e+003,5.1825639648e+003,5.1050000000e+003,5.1506411133e+003,5.1905126953e+003,
8.0468750000e-001,4.8300000000e+003,5.0144873047e+003,5.0597436523e+003,5.0239741211e+003,5.0173076172e+003,5.0803847656e+003,5.0598715820e+003,5.0729487305e+003,5.0412822266e+003,4.9394873047e+003,5.0564101563e+003,4.9841025391e+003,5.0091025391e+003,5.0647436523e+003,
8.1250000000e-001,4.8061538086e+003,4.9774360352e+003,5.0316665039e+003,4.9967949219e+003,4.9698715820e+003,5.0471796875e+003,5.0289741211e+003,5.0455126953e+003,5.0116665039e+003,4.9055126953e+003,5.0170512695e+003,4.9514101563e+003,4.9814101563e+003,5.0365385742e+003,
8.2031250000e-001,4.7158974609e+003,4.8551284180e+003,4.9250000000e+003,4.8960258789e+003,4.8512822266e+003,4.9389741211e+003,4.9210258789e+003,4.9443588867e+003,4.9043588867e+003,4.7860258789e+003,4.8944873047e+003,4.8494873047e+003,4.8739741211e+003,4.9373076172e+003,
8.2812500000e-001,4.6775639648e+003,4.7979487305e+003,4.8664101563e+003,4.8406411133e+003,4.8116665039e+003,4.8732050781e+003,4.8648715820e+003,4.8865385742e+003,4.8566665039e+003,4.7316665039e+003,4.8616665039e+003,4.7994873047e+003,4.8212822266e+003,4.8858974609e+003,
8.3593750000e-001,4.6788461914e+003,4.7948715820e+003,4.8620512695e+003,4.8376923828e+003,4.8044873047e+003,4.8670512695e+003,4.8576923828e+003,4.8817949219e+003,4.8565385742e+003,4.7308974609e+003,4.8600000000e+003,4.7939741211e+003,4.8251284180e+003,4.8835898438e+003,
8.4375000000e-001,4.6648715820e+003,4.7756411133e+003,4.8441025391e+003,4.8210258789e+003,4.7821796875e+003,4.8487177734e+003,4.8352563477e+003,4.8624360352e+003,4.8394873047e+003,4.7141025391e+003,4.8376923828e+003,4.7748715820e+003,4.8103847656e+003,4.8673076172e+003,
8.5156250000e-001,4.6178203125e+003,4.7151284180e+003,4.7861538086e+003,4.7623076172e+003,4.7187177734e+003,4.7926923828e+003,4.7717949219e+003,4.7980771484e+003,4.7770512695e+003,4.6526923828e+003,4.7641025391e+003,4.7133334961e+003,4.7450000000e+003,4.8100000000e+003,
8.5937500000e-001,4.6969228516e+003,4.7824360352e+003,4.8447436523e+003,4.8150000000e+003,4.7757690430e+003,4.8528203125e+003,4.8364101563e+003,4.8493588867e+003,4.8352563477e+003,4.7060258789e+003,4.8226923828e+003,4.7664101563e+003,4.8019228516e+003,4.8656411133e+003,
8.6718750000e-001,4.7471796875e+003,4.8312822266e+003,4.8915385742e+003,4.8674360352e+003,4.8287177734e+003,4.9016665039e+003,4.8829487305e+003,4.8941025391e+003,4.8810258789e+003,4.7539741211e+003,4.8721796875e+003,4.8155126953e+003,4.8500000000e+003,4.9125639648e+003,
8.7500000000e-001,4.7830771484e+003,4.8665385742e+003,4.9234614258e+003,4.9091025391e+003,4.8730771484e+003,4.9375639648e+003,4.9128203125e+003,4.9247436523e+003,4.9125639648e+003,4.7916665039e+003,4.9076923828e+003,4.8516665039e+003,4.8839741211e+003,4.9452563477e+003,
8.8281250000e-001,4.7929487305e+003,4.8760258789e+003,4.9283334961e+003,4.9216665039e+003,4.8914101563e+003,4.9471796875e+003,4.9156411133e+003,4.9293588867e+003,4.9187177734e+003,4.8046152344e+003,4.9162822266e+003,4.8603847656e+003,4.8928203125e+003,4.9500000000e+003,
8.9062500000e-001,4.7705126953e+003,4.8360258789e+003,4.8962822266e+003,4.8623076172e+003,4.8442309570e+003,4.9185898438e+003,4.8902563477e+003,4.8867949219e+003,4.8823076172e+003,4.7611538086e+003,4.8774360352e+003,4.8187177734e+003,4.8628203125e+003,4.9067949219e+003,
8.9843750000e-001,4.8016665039e+003,4.8606411133e+003,4.9244873047e+003,4.8962822266e+003,4.8710258789e+003,4.9473076172e+003,4.9203847656e+003,4.9160258789e+003,4.9083334961e+003,4.7892309570e+003,4.9051284180e+003,4.8476923828e+003,4.8870512695e+003,4.9361538086e+003,
9.0625000000e-001,4.7020512695e+003,4.7469228516e+003,4.8124360352e+003,4.8033334961e+003,4.7575639648e+003,4.8376923828e+003,4.8143588867e+003,4.8161538086e+003,4.7937177734e+003,4.6803847656e+003,4.7833334961e+003,4.7446152344e+003,4.7787177734e+003,4.8267949219e+003,
9.1406250000e-001,4.6123076172e+003,4.6517949219e+003,4.7173076172e+003,4.6933334961e+003,4.6507690430e+003,4.7353847656e+003,4.7244873047e+003,4.7220512695e+003,4.6955126953e+003,4.5660258789e+003,4.6834614258e+003,4.6511538086e+003,4.6764101563e+003,4.7189741211e+003,
9.2187500000e-001,4.6405126953e+003,4.6774360352e+003,4.7437177734e+003,4.7253847656e+003,4.6789741211e+003,4.7588461914e+003,4.7508974609e+003,4.7519228516e+003,4.7229487305e+003,4.5961538086e+003,4.7185898438e+003,4.6821796875e+003,4.7002563477e+003,4.7451284180e+003,
9.2968750000e-001,4.6693588867e+003,4.6862822266e+003,4.7591025391e+003,4.7553847656e+003,4.6971796875e+003,4.7669228516e+003,4.7620512695e+003,4.7770512695e+003,4.7408974609e+003,4.6182050781e+003,4.7369228516e+003,4.6996152344e+003,4.7233334961e+003,4.7674360352e+003,
9.3750000000e-001,4.6619228516e+003,4.6741025391e+003,4.7470512695e+003,4.7410258789e+003,4.6793588867e+003,4.7520512695e+003,4.7464101563e+003,4.7644873047e+003,4.7298715820e+003,4.6030771484e+003,4.7193588867e+003,4.6865385742e+003,4.7121796875e+003,4.7557690430e+003,
9.4531250000e-001,4.5921796875e+003,4.5938461914e+003,4.6728203125e+003,4.6514101563e+003,4.5796152344e+003,4.6628203125e+003,4.6601284180e+003,4.6780771484e+003,4.6515385742e+003,4.5205126953e+003,4.6387177734e+003,4.6185898438e+003,4.6270512695e+003,4.6817949219e+003,
9.5312500000e-001,4.5779487305e+003,4.5726923828e+003,4.6534614258e+003,4.6284614258e+003,4.5657690430e+003,4.6441025391e+003,4.6414101563e+003,4.6584614258e+003,4.6317949219e+003,4.5019228516e+003,4.6210258789e+003,4.6012822266e+003,4.6091025391e+003,4.6652563477e+003,
9.6093750000e-001,4.6129487305e+003,4.5979487305e+003,4.6730771484e+003,4.6502563477e+003,4.6098715820e+003,4.6753847656e+003,4.6671796875e+003,4.6833334961e+003,4.6591025391e+003,4.5275639648e+003,4.6474360352e+003,4.6237177734e+003,4.6370512695e+003,4.6896152344e+003,
9.6875000000e-001,4.6430771484e+003,4.6291025391e+003,4.6989741211e+003,4.6798715820e+003,4.6408974609e+003,4.7047436523e+003,4.6939741211e+003,4.7088461914e+003,4.6883334961e+003,4.5565385742e+003,4.6765385742e+003,4.6491025391e+003,4.6642309570e+003,4.7151284180e+003,
9.7656250000e-001,4.6691025391e+003,4.6594873047e+003,4.7247436523e+003,4.7066665039e+003,4.6647436523e+003,4.7300000000e+003,4.7180771484e+003,4.7308974609e+003,4.7143588867e+003,4.5846152344e+003,4.7042309570e+003,4.6717949219e+003,4.6893588867e+003,4.7391025391e+003,
9.8437500000e-001,4.6941025391e+003,4.6891025391e+003,4.7506411133e+003,4.7293588867e+003,4.6873076172e+003,4.7538461914e+003,4.7415385742e+003,4.7523076172e+003,4.7384614258e+003,4.6130771484e+003,4.7310258789e+003,4.6930771484e+003,4.7156411133e+003,4.7633334961e+003,
9.9218750000e-001,4.8667949219e+003,4.8684614258e+003,4.9093588867e+003,4.8829487305e+003,4.8734614258e+003,4.9269228516e+003,4.9107690430e+003,4.9120512695e+003,4.9020512695e+003,4.7911538086e+003,4.8937177734e+003,4.8532050781e+003,4.8943588867e+003,4.9262822266e+003,
1.0000000000e+000,5.0221796875e+003,5.0375639648e+003,5.0729487305e+003,5.0474360352e+003,5.0324360352e+003,5.0964101563e+003,5.0725639648e+003,5.0864101563e+003,5.0712822266e+003,4.9760258789e+003,5.0808974609e+003,5.0170512695e+003,5.0566665039e+003,5.0869228516e+003,
1.0078125000e+000,4.9961538086e+003,5.0083334961e+003,5.0520512695e+003,5.0205126953e+003,5.0042309570e+003,5.0725639648e+003,5.0514101563e+003,5.0675639648e+003,5.0483334961e+003,4.9497436523e+003,5.0578203125e+003,4.9934614258e+003,5.0306411133e+003,5.0612822266e+003,
1.0156250000e+000,4.9029487305e+003,4.9143588867e+003,4.9608974609e+003,4.9275639648e+003,4.9115385742e+003,4.9835898438e+003,4.9692309570e+003,4.9842309570e+003,4.9579487305e+003,4.8517949219e+003,4.9584614258e+003,4.9019228516e+003,4.9398715820e+003,4.9687177734e+003,
1.0234375000e+000,4.7587177734e+003,4.7614101563e+003,4.8206411133e+003,4.7850000000e+003,4.7653847656e+003,4.8456411133e+003,4.8332050781e+003,4.8425639648e+003,4.8051284180e+003,4.6861538086e+003,4.8057690430e+003,4.7562822266e+003,4.7802563477e+003,4.8238461914e+003,
1.0312500000e+000,4.7306411133e+003,4.7287177734e+003,4.7905126953e+003,4.7516665039e+003,4.7288461914e+003,4.8121796875e+003,4.8037177734e+003,4.8128203125e+003,4.7758974609e+003,4.6525639648e+003,4.7771796875e+003,4.7266665039e+003,4.7480771484e+003,4.7944873047e+003,
1.0390625000e+000,4.6246152344e+003,4.6176923828e+003,4.6846152344e+003,4.6347436523e+003,4.6202563477e+003,4.6956411133e+003,4.6944873047e+003,4.7056411133e+003,4.6706411133e+003,4.5456411133e+003,4.6606411133e+003,4.6219228516e+003,4.6437177734e+003,4.6947436523e+003,
1.0468750000e+000,4.5656411133e+003,4.5538461914e+003,4.6252563477e+003,4.5729487305e+003,4.5638461914e+003,4.6305126953e+003,4.6305126953e+003,4.6420512695e+003,4.6082050781e+003,4.4841025391e+003,4.5912822266e+003,4.5615385742e+003,4.5844873047e+003,4.6370512695e+003,
1.0546875000e+000,4.4687177734e+003,4.4353847656e+003,4.5112822266e+003,4.4800000000e+003,4.4478203125e+003,4.5085898438e+003,4.5070512695e+003,4.5203847656e+003,4.4947436523e+003,4.3657690430e+003,4.4817949219e+003,4.4508974609e+003,4.4706411133e+003,4.5237177734e+003,
1.0625000000e+000,4.4388461914e+003,4.4015385742e+003,4.4775639648e+003,4.4491025391e+003,4.4061538086e+003,4.4738461914e+003,4.4716665039e+003,4.4857690430e+003,4.4641025391e+003,4.3294873047e+003,4.4537177734e+003,4.4194873047e+003,4.4325639648e+003,4.4907690430e+003,
1.0703125000e+000,4.4051284180e+003,4.3642309570e+003,4.4420512695e+003,4.4097436523e+003,4.3625639648e+003,4.4367949219e+003,4.4337177734e+003,4.4484614258e+003,4.4312822266e+003,4.2900000000e+003,4.4179487305e+003,4.3838461914e+003,4.3906411133e+003,4.4553847656e+003,
1.0781250000e+000,4.3328203125e+003,4.2770512695e+003,4.3658974609e+003,4.3193588867e+003,4.2784614258e+003,4.3557690430e+003,4.3521796875e+003,4.3687177734e+003,4.3596152344e+003,4.2080771484e+003,4.3267949219e+003,4.2979487305e+003,4.3076923828e+003,4.3773076172e+003,
1.0859375000e+000,4.2857690430e+003,4.2194873047e+003,4.3151284180e+003,4.2656411133e+003,4.2271796875e+003,4.3044873047e+003,4.3020512695e+003,4.3182050781e+003,4.3114101563e+003,4.1580771484e+003,4.2685898438e+003,4.2424360352e+003,4.2594873047e+003,4.3274360352e+003,
1.0937500000e+000,4.2285898438e+003,4.1541025391e+003,4.2537177734e+003,4.2056411133e+003,4.1658974609e+003,4.2465385742e+003,4.2453847656e+003,4.2582050781e+003,4.2532050781e+003,4.0992309570e+003,4.2029487305e+003,4.1798715820e+003,4.2024360352e+003,4.2697436523e+003,
1.1015625000e+000,4.1147436523e+003,4.0258974609e+003,4.1110258789e+003,4.0941025391e+003,4.0362819824e+003,4.1458974609e+003,4.1393588867e+003,4.1253847656e+003,4.1320512695e+003,3.9570512695e+003,4.0694870605e+003,4.0417949219e+003,4.0547436523e+003,4.1362822266e+003,
1.1093750000e+000,4.1989741211e+003,4.0998715820e+003,4.1800000000e+003,4.1705126953e+003,4.1134614258e+003,4.2153847656e+003,4.2120512695e+003,4.2020512695e+003,4.1971796875e+003,4.0364101563e+003,4.1396152344e+003,4.1115385742e+003,4.1423076172e+003,4.2037177734e+003,
1.1171875000e+000,4.2065385742e+003,4.1035898438e+003,4.1852563477e+003,4.1706411133e+003,4.1119228516e+003,4.2220512695e+003,4.2167949219e+003,4.2079487305e+003,4.2021796875e+003,4.0456411133e+003,4.1450000000e+003,4.1167949219e+003,4.1488461914e+003,4.2084614258e+003,
1.1250000000e+000,4.1742309570e+003,4.0553845215e+003,4.1447436523e+003,4.1284614258e+003,4.0660256348e+003,4.1806411133e+003,4.1798715820e+003,4.1633334961e+003,4.1482050781e+003,3.9911538086e+003,4.0989741211e+003,4.0746154785e+003,4.0987177734e+003,4.1660258789e+003,
1.1328125000e+000,4.1962822266e+003,4.0756411133e+003,4.1619228516e+003,4.1498715820e+003,4.0950000000e+003,4.1942309570e+003,4.1969228516e+003,4.1796152344e+003,4.1592309570e+003,4.0047436523e+003,4.1124360352e+003,4.0898718262e+003,4.1158974609e+003,4.1826923828e+003,
1.1406250000e+000,4.2521796875e+003,4.1264101563e+003,4.2067949219e+003,4.1983334961e+003,4.1539741211e+003,4.2284614258e+003,4.2356411133e+003,4.2220512695e+003,4.1966665039e+003,4.0529487305e+003,4.1591025391e+003,4.1374360352e+003,4.1632050781e+003,4.2270512695e+003,
1.1484375000e+000,4.2471796875e+003,4.1162822266e+003,4.1969228516e+003,4.1860258789e+003,4.1400000000e+003,4.2137177734e+003,4.2226923828e+003,4.2110258789e+003,4.1853847656e+003,4.0444870605e+003,4.1542309570e+003,4.1329487305e+003,4.1539741211e+003,4.2167949219e+003,
1.1562500000e+000,4.2247436523e+003,4.0803845215e+003,4.1673076172e+003,4.1384614258e+003,4.0888461914e+003,4.1807690430e+003,4.1887177734e+003,4.1823076172e+003,4.1594873047e+003,4.0132050781e+003,4.1252563477e+003,4.1089741211e+003,4.1234614258e+003,4.1843588867e+003,
1.1640625000e+000,4.2623076172e+003,4.1147436523e+003,4.2050000000e+003,4.1710258789e+003,4.1229487305e+003,4.2150000000e+003,4.2220512695e+003,4.2182050781e+003,4.1971796875e+003,4.0511538086e+003,4.1564101563e+003,4.1419228516e+003,4.1589741211e+003,4.2197436523e+003,
1.1718750000e+000,4.3512822266e+003,4.1992309570e+003,4.2903847656e+003,4.2584614258e+003,4.2112822266e+003,4.2880771484e+003,4.2960258789e+003,4.2975639648e+003,4.2791025391e+003,4.1414101563e+003,4.2388461914e+003,4.2214101563e+003,4.2442309570e+003,4.3020512695e+003,
1.1796875000e+000,4.3810258789e+003,4.2308974609e+003,4.3139741211e+003,4.2896152344e+003,4.2425639648e+003,4.3107690430e+003,4.3185898438e+003,4.3226923828e+003,4.3041025391e+003,4.1711538086e+003,4.2703847656e+003,4.2492309570e+003,4.2723076172e+003,4.3271796875e+003,
1.1875000000e+000,4.5173076172e+003,4.3775639648e+003,4.4334614258e+003,4.4171796875e+003,4.3744873047e+003,4.4471796875e+003,4.4483334961e+003,4.4510258789e+003,4.4314101563e+003,4.3033334961e+003,4.4026923828e+003,4.3782050781e+003,4.4017949219e+003,4.4510258789e+003,
1.1953125000e+000,4.6169228516e+003,4.4782050781e+003,4.5328203125e+003,4.5102563477e+003,4.4711538086e+003,4.5447436523e+003,4.5465385742e+003,4.5461538086e+003,4.5278203125e+003,4.4026923828e+003,4.5012822266e+003,4.4710258789e+003,4.4996152344e+003,4.5475639648e+003,
1.2031250000e+000,4.7208974609e+003,4.5844873047e+003,4.6376923828e+003,4.6105126953e+003,4.5784614258e+003,4.6460258789e+003,4.6487177734e+003,4.6473076172e+003,4.6305126953e+003,4.5103847656e+003,4.6108974609e+003,4.5715385742e+003,4.6044873047e+003,4.6502563477e+003,
1.2109375000e+000,4.6635898438e+003,4.5342309570e+003,4.6003847656e+003,4.5688461914e+003,4.5194873047e+003,4.6171796875e+003,4.6025639648e+003,4.6048715820e+003,4.5930771484e+003,4.4782050781e+003,4.5616665039e+003,4.5429487305e+003,4.5628203125e+003,4.6008974609e+003,
1.2187500000e+000,4.6019228516e+003,4.4724360352e+003,4.5426923828e+003,4.5097436523e+003,4.4525639648e+003,4.5594873047e+003,4.5460258789e+003,4.5439741211e+003,4.5329487305e+003,4.4164101563e+003,4.4970512695e+003,4.4810258789e+003,4.4989741211e+003,4.5396152344e+003,
1.2265625000e+000,4.5179487305e+003,4.3932050781e+003,4.4501284180e+003,4.4388461914e+003,4.4189741211e+003,4.4803847656e+003,4.4730771484e+003,4.4582050781e+003,4.4438461914e+003,4.3279487305e+003,4.4242309570e+003,4.3944873047e+003,4.4130771484e+003,4.4589741211e+003,
1.2343750000e+000,4.6216665039e+003,4.4924360352e+003,4.5455126953e+003,4.5292309570e+003,4.5065385742e+003,4.5758974609e+003,4.5656411133e+003,4.5562822266e+003,4.5328203125e+003,4.4298715820e+003,4.5315385742e+003,4.4891025391e+003,4.5206411133e+003,4.5621796875e+003,
1.2421875000e+000,4.6205126953e+003,4.4897436523e+003,4.5470512695e+003,4.5193588867e+003,4.4911538086e+003,4.5711538086e+003,4.5638461914e+003,4.5553847656e+003,4.5282050781e+003,4.4252563477e+003,4.5228203125e+003,4.4889741211e+003,4.5166665039e+003,4.5594873047e+003,
1.2500000000e+000,4.6214101563e+003,4.4821796875e+003,4.5444873047e+003,4.5060258789e+003,4.4956411133e+003,4.5556411133e+003,4.5584614258e+003,4.5535898438e+003,4.5241025391e+003,4.4162822266e+003,4.5132050781e+003,4.4851284180e+003,4.5070512695e+003,4.5500000000e+003,
1.2578125000e+000,4.6566665039e+003,4.5139741211e+003,4.5773076172e+003,4.5437177734e+003,4.5311538086e+003,4.5856411133e+003,4.5891025391e+003,4.5905126953e+003,4.5598715820e+003,4.4551284180e+003,4.5529487305e+003,4.5188461914e+003,4.5438461914e+003,4.5833334961e+003,
1.2656250000e+000,4.7369228516e+003,4.5955126953e+003,4.6566665039e+003,4.6305126953e+003,4.5987177734e+003,4.6606411133e+003,4.6620512695e+003,4.6762822266e+003,4.6434614258e+003,4.5438461914e+003,4.6344873047e+003,4.6046152344e+003,4.6271796875e+003,4.6639741211e+003,
1.2734375000e+000,4.7730771484e+003,4.6356411133e+003,4.6912822266e+003,4.6648715820e+003,4.6308974609e+003,4.6941025391e+003,4.6932050781e+003,4.7115385742e+003,4.6811538086e+003,4.5807690430e+003,4.6670512695e+003,4.6419228516e+003,4.6632050781e+003,4.7000000000e+003,
1.2812500000e+000,4.8337177734e+003,4.7041025391e+003,4.7492309570e+003,4.7232050781e+003,4.6955126953e+003,4.7429487305e+003,4.7370512695e+003,4.7652563477e+003,4.7437177734e+003,4.6448715820e+003,4.7357690430e+003,4.6985898438e+003,4.7247436523e+003,4.7603847656e+003,
1.2890625000e+000,4.8347436523e+003,4.7065385742e+003,4.7526923828e+003,4.7297436523e+003,4.6955126953e+003,4.7434614258e+003,4.7366665039e+003,4.7670512695e+003,4.7432050781e+003,4.6488461914e+003,4.7408974609e+003,4.7025639648e+003,4.7251284180e+003,4.7621796875e+003,
1.2968750000e+000,4.8338461914e+003,4.7079487305e+003,4.7574360352e+003,4.7382050781e+003,4.6894873047e+003,4.7506411133e+003,4.7407690430e+003,4.7658974609e+003,4.7382050781e+003,4.6514101563e+003,4.7371796875e+003,4.7069228516e+003,4.7251284180e+003,4.7616665039e+003,
1.3046875000e+000,4.8353847656e+003,4.7101284180e+003,4.7615385742e+003,4.7401284180e+003,4.6923076172e+003,4.7574360352e+003,4.7464101563e+003,4.7643588867e+003,4.7385898438e+003,4.6523076172e+003,4.7362822266e+003,4.7078203125e+003,4.7293588867e+003,4.7639741211e+003,
1.3125000000e+000,4.8620512695e+003,4.7455126953e+003,4.7910258789e+003,4.7532050781e+003,4.7588461914e+003,4.7942309570e+003,4.7833334961e+003,4.7841025391e+003,4.7703847656e+003,4.6811538086e+003,4.7710258789e+003,4.7323076172e+003,4.7603847656e+003,4.7989741211e+003,
1.3203125000e+000,4.8871796875e+003,4.7762822266e+003,4.8161538086e+003,4.7764101563e+003,4.7987177734e+003,4.8265385742e+003,4.8134614258e+003,4.8124360352e+003,4.8010258789e+003,4.7130771484e+003,4.7991025391e+003,4.7602563477e+003,4.7875639648e+003,4.8262822266e+003,
1.3281250000e+000,4.9162822266e+003,4.8097436523e+003,4.8466665039e+003,4.8089741211e+003,4.8353847656e+003,4.8653847656e+003,4.8491025391e+003,4.8458974609e+003,4.8355126953e+003,4.7496152344e+003,4.8292309570e+003,4.7929487305e+003,4.8200000000e+003,4.8562822266e+003,
1.3359375000e+000,5.0380771484e+003,4.9438461914e+003,4.9775639648e+003,4.9469228516e+003,4.9526923828e+003,4.9996152344e+003,4.9721796875e+003,4.9774360352e+003,4.9558974609e+003,4.8811538086e+003,4.9680771484e+003,4.9184614258e+003,4.9503847656e+003,4.9807690430e+003,
1.3437500000e+000,5.0188461914e+003,4.9325639648e+003,4.9608974609e+003,4.9283334961e+003,4.9369228516e+003,4.9830771484e+003,4.9562822266e+003,4.9664101563e+003,4.9391025391e+003,4.8667949219e+003,4.9538461914e+003,4.9037177734e+003,4.9342309570e+003,4.9651284180e+003,
1.3515625000e+000,4.9680771484e+003,4.8776923828e+003,4.9169228516e+003,4.8839741211e+003,4.8796152344e+003,4.9321796875e+003,4.9133334961e+003,4.9196152344e+003,4.8807690430e+003,4.8138461914e+003,4.8971796875e+003,4.8456411133e+003,4.8879487305e+003,4.9097436523e+003,
1.3593750000e+000,4.9743588867e+003,4.8829487305e+003,4.9228203125e+003,4.8941025391e+003,4.8802563477e+003,4.9344873047e+003,4.9208974609e+003,4.9274360352e+003,4.8879487305e+003,4.8208974609e+003,4.9025639648e+003,4.8512822266e+003,4.8935898438e+003,4.9150000000e+003,
1.3671875000e+000,4.9278203125e+003,4.8479487305e+003,4.8810258789e+003,4.8543588867e+003,4.8274360352e+003,4.8893588867e+003,4.8862822266e+003,4.9011538086e+003,4.8592309570e+003,4.7893588867e+003,4.8651284180e+003,4.8223076172e+003,4.8515385742e+003,4.8803847656e+003,
1.3750000000e+000,4.8680771484e+003,4.7924360352e+003,4.8267949219e+003,4.7941025391e+003,4.7700000000e+003,4.8352563477e+003,4.8334614258e+003,4.8546152344e+003,4.8115385742e+003,4.7384614258e+003,4.8123076172e+003,4.7732050781e+003,4.7969228516e+003,4.8298715820e+003,
1.3828125000e+000,4.7397436523e+003,4.6439741211e+003,4.7037177734e+003,4.6543588867e+003,4.6585898438e+003,4.7044873047e+003,4.6974360352e+003,4.7330771484e+003,4.6973076172e+003,4.6087177734e+003,4.6884614258e+003,4.6442309570e+003,4.6729487305e+003,4.7067949219e+003,
1.3906250000e+000,4.7573076172e+003,4.6670512695e+003,4.7133334961e+003,4.6819228516e+003,4.6611538086e+003,4.7042309570e+003,4.6993588867e+003,4.7405126953e+003,4.7158974609e+003,4.6182050781e+003,4.7000000000e+003,4.6562822266e+003,4.6901284180e+003,4.7210258789e+003,
1.3984375000e+000,4.7364101563e+003,4.6520512695e+003,4.6937177734e+003,4.6611538086e+003,4.6358974609e+003,4.6844873047e+003,4.6785898438e+003,4.7238461914e+003,4.6989741211e+003,4.6025639648e+003,4.6817949219e+003,4.6410258789e+003,4.6680771484e+003,4.7032050781e+003,
1.4062500000e+000,4.6910258789e+003,4.6073076172e+003,4.6520512695e+003,4.6111538086e+003,4.5917949219e+003,4.6428203125e+003,4.6353847656e+003,4.6823076172e+003,4.6560258789e+003,4.5611538086e+003,4.6378203125e+003,4.6006411133e+003,4.6191025391e+003,4.6602563477e+003,
1.4140625000e+000,4.6369228516e+003,4.5494873047e+003,4.6019228516e+003,4.5516665039e+003,4.5437177734e+003,4.5932050781e+003,4.5843588867e+003,4.6287177734e+003,4.6020512695e+003,4.5060258789e+003,4.5811538086e+003,4.5471796875e+003,4.5602563477e+003,4.6064101563e+003,
1.4218750000e+000,4.5629487305e+003,4.4720512695e+003,4.5237177734e+003,4.5051284180e+003,4.4808974609e+003,4.5365385742e+003,4.5214101563e+003,4.5373076172e+003,4.5194873047e+003,4.4075639648e+003,4.4820512695e+003,4.4615385742e+003,4.4787177734e+003,4.5203847656e+003,
1.4296875000e+000,4.5592309570e+003,4.4693588867e+003,4.5187177734e+003,4.5058974609e+003,4.4774360352e+003,4.5366665039e+003,4.5211538086e+003,4.5292309570e+003,4.5126923828e+003,4.4041025391e+003,4.4796152344e+003,4.4602563477e+003,4.4720512695e+003,4.5171796875e+003,
1.4375000000e+000,4.5617949219e+003,4.4683334961e+003,4.5246152344e+003,4.4961538086e+003,4.4784614258e+003,4.5430771484e+003,4.5302563477e+003,4.5226923828e+003,4.5038461914e+003,4.4116665039e+003,4.4884614258e+003,4.4542309570e+003,4.4791025391e+003,4.5216665039e+003,
1.4453125000e+000,4.5046152344e+003,4.4035898438e+003,4.4610258789e+003,4.4435898438e+003,4.4105126953e+003,4.4912822266e+003,4.4782050781e+003,4.4524360352e+003,4.4294873047e+003,4.3366665039e+003,4.4230771484e+003,4.3900000000e+003,4.4141025391e+003,4.4594873047e+003,
1.4531250000e+000,4.5330771484e+003,4.4346152344e+003,4.4828203125e+003,4.4673076172e+003,4.4455126953e+003,4.5189741211e+003,4.5058974609e+003,4.4797436523e+003,4.4538461914e+003,4.3647436523e+003,4.4489741211e+003,4.4178203125e+003,4.4391025391e+003,4.4885898438e+003,
1.4609375000e+000,4.6332050781e+003,4.5396152344e+003,4.5834614258e+003,4.5555126953e+003,4.5547436523e+003,4.6075639648e+003,4.5978203125e+003,4.5844873047e+003,4.5497436523e+003,4.4652563477e+003,4.5416665039e+003,4.5200000000e+003,4.5417949219e+003,4.5901284180e+003,
1.4687500000e+000,4.6760258789e+003,4.5815385742e+003,4.6315385742e+003,4.5948715820e+003,4.5961538086e+003,4.6401284180e+003,4.6329487305e+003,4.6298715820e+003,4.5934614258e+003,4.5097436523e+003,4.5862822266e+003,4.5646152344e+003,4.5882050781e+003,4.6317949219e+003,
1.4765625000e+000,4.6712822266e+003,4.5769228516e+003,4.6307690430e+003,4.5984614258e+003,4.5711538086e+003,4.6211538086e+003,4.6134614258e+003,4.6378203125e+003,4.6107690430e+003,4.5330771484e+003,4.6153847656e+003,4.5682050781e+003,4.6017949219e+003,4.6333334961e+003,
1.4843750000e+000,4.6896152344e+003,4.6005126953e+003,4.6479487305e+003,4.6180771484e+003,4.5864101563e+003,4.6301284180e+003,4.6212822266e+003,4.6675639648e+003,4.6451284180e+003,4.5596152344e+003,4.6374360352e+003,4.5942309570e+003,4.6220512695e+003,4.6555126953e+003,
1.4921875000e+000,4.6943588867e+003,4.6091025391e+003,4.6534614258e+003,4.6202563477e+003,4.6019228516e+003,4.6323076172e+003,4.6228203125e+003,4.6742309570e+003,4.6543588867e+003,4.5691025391e+003,4.6429487305e+003,4.6003847656e+003,4.6297436523e+003,4.6580771484e+003,
1.5000000000e+000,4.6530771484e+003,4.5711538086e+003,4.6134614258e+003,4.5788461914e+003,4.5728203125e+003,4.5942309570e+003,4.5833334961e+003,4.6351284180e+003,4.6184614258e+003,4.5348715820e+003,4.6032050781e+003,4.5610258789e+003,4.5946152344e+003,4.6178203125e+003,
1.5078125000e+000,4.4533334961e+003,4.3679487305e+003,4.4158974609e+003,4.3848715820e+003,4.3780771484e+003,4.4126923828e+003,4.3976923828e+003,4.4358974609e+003,4.4237177734e+003,4.3351284180e+003,4.3944873047e+003,4.3608974609e+003,4.4006411133e+003,4.4223076172e+003,
1.5156250000e+000,4.2706411133e+003,4.1646152344e+003,4.2261538086e+003,4.2102563477e+003,4.1647436523e+003,4.2446152344e+003,4.2306411133e+003,4.2464101563e+003,4.2366665039e+003,4.1223076172e+003,4.1857690430e+003,4.1566665039e+003,4.1934614258e+003,4.2203847656e+003,
1.5234375000e+000,4.2596152344e+003,4.1493588867e+003,4.2121796875e+003,4.1989741211e+003,4.1515385742e+003,4.2353847656e+003,4.2230771484e+003,4.2321796875e+003,4.2234614258e+003,4.1061538086e+003,4.1724360352e+003,4.1392309570e+003,4.1773076172e+003,4.2044873047e+003,
1.5312500000e+000,4.2262822266e+003,4.1083334961e+003,4.1696152344e+003,4.1597436523e+003,4.1305126953e+003,4.2023076172e+003,4.1933334961e+003,4.1829487305e+003,4.1719228516e+003,4.0606411133e+003,4.1255126953e+003,4.0958974609e+003,4.1455126953e+003,4.1691025391e+003,
1.5390625000e+000,4.2047436523e+003,4.0819230957e+003,4.1450000000e+003,4.1364101563e+003,4.1060258789e+003,4.1791025391e+003,4.1707690430e+003,4.1576923828e+003,4.1443588867e+003,4.0334614258e+003,4.0974360352e+003,4.0750000000e+003,4.1217949219e+003,4.1453847656e+003,
1.5468750000e+000,4.1796152344e+003,4.0507692871e+003,4.1170512695e+003,4.1074360352e+003,4.0723076172e+003,4.1517949219e+003,4.1450000000e+003,4.1294873047e+003,4.1143588867e+003,4.0024357910e+003,4.0680769043e+003,4.0521794434e+003,4.0925642090e+003,4.1174360352e+003,
1.5546875000e+000,4.1589741211e+003,4.0243588867e+003,4.0929487305e+003,4.0805129395e+003,4.0410256348e+003,4.1278203125e+003,4.1233334961e+003,4.1048715820e+003,4.0887180176e+003,3.9764101563e+003,4.0456411133e+003,4.0337180176e+003,4.0685898438e+003,4.0943588867e+003,
1.5625000000e+000,4.1257690430e+003,3.9752563477e+003,4.0462819824e+003,4.0255129395e+003,3.9993588867e+003,4.0697436523e+003,4.0734614258e+003,4.0547436523e+003,4.0329487305e+003,3.9258974609e+003,4.0067949219e+003,4.0023076172e+003,4.0278205566e+003,4.0591025391e+003,
1.5703125000e+000,4.0905129395e+003,3.9346154785e+003,4.0112819824e+003,3.9883332520e+003,3.9561538086e+003,4.0285898438e+003,4.0347436523e+003,4.0184614258e+003,3.9965385742e+003,3.8850000000e+003,3.9665385742e+003,3.9656411133e+003,3.9865385742e+003,4.0219230957e+003,
1.5781250000e+000,4.0174357910e+003,3.8519230957e+003,3.9338461914e+003,3.9097436523e+003,3.8483332520e+003,3.9416667480e+003,3.9517949219e+003,3.9469230957e+003,3.9348718262e+003,3.8134614258e+003,3.8876923828e+003,3.8808974609e+003,3.9138461914e+003,3.9432050781e+003,
1.5859375000e+000,4.0578205566e+003,3.8778205566e+003,3.9587180176e+003,3.9425642090e+003,3.8888461914e+003,3.9579487305e+003,3.9679487305e+003,3.9794870605e+003,3.9730769043e+003,3.8530769043e+003,3.9273076172e+003,3.9126923828e+003,3.9488461914e+003,3.9714101563e+003,
1.5937500000e+000,4.0762819824e+003,3.8942307129e+003,3.9732050781e+003,3.9587180176e+003,3.9097436523e+003,3.9708974609e+003,3.9806411133e+003,3.9958974609e+003,3.9908974609e+003,3.8694870605e+003,3.9421794434e+003,3.9276923828e+003,3.9616667480e+003,3.9855129395e+003,
1.6015625000e+000,3.9984614258e+003,3.8198718262e+003,3.8987180176e+003,3.8788461914e+003,3.8189743652e+003,3.9001281738e+003,3.9057692871e+003,3.9194870605e+003,3.9170512695e+003,3.7933332520e+003,3.8538461914e+003,3.8460256348e+003,3.8858974609e+003,3.9083332520e+003,
1.6093750000e+000,3.8935898438e+003,3.7032050781e+003,3.7852563477e+003,3.7603845215e+003,3.7212819824e+003,3.8051281738e+003,3.8056411133e+003,3.8043588867e+003,3.8062819824e+003,3.6748718262e+003,3.7369230957e+003,3.7297436523e+003,3.7703845215e+003,3.7947436523e+003,
1.6171875000e+000,3.8958974609e+003,3.7029487305e+003,3.7856411133e+003,3.7593588867e+003,3.7341025391e+003,3.8050000000e+003,3.8071794434e+003,3.8026923828e+003,3.8065385742e+003,3.6721794434e+003,3.7367949219e+003,3.7300000000e+003,3.7637180176e+003,3.7937180176e+003,
1.6250000000e+000,3.9058974609e+003,3.7197436523e+003,3.7950000000e+003,3.7771794434e+003,3.7534614258e+003,3.8142307129e+003,3.8179487305e+003,3.8071794434e+003,3.8205129395e+003,3.6847436523e+003,3.7438461914e+003,3.7365385742e+003,3.7711538086e+003,3.8016667480e+003,
1.6328125000e+000,3.8888461914e+003,3.7032050781e+003,3.7775642090e+003,3.7612819824e+003,3.7320512695e+003,3.8021794434e+003,3.8038461914e+003,3.7926923828e+003,3.8062819824e+003,3.6708974609e+003,3.7262819824e+003,3.7192307129e+003,3.7593588867e+003,3.7847436523e+003,
1.6406250000e+000,3.8560256348e+003,3.6620512695e+003,3.7438461914e+003,3.7196154785e+003,3.6908974609e+003,3.7732050781e+003,3.7753845215e+003,3.7612819824e+003,3.7652563477e+003,3.6341025391e+003,3.6906411133e+003,3.6858974609e+003,3.7248718262e+003,3.7506411133e+003,
1.6484375000e+000,3.8606411133e+003,3.6621794434e+003,3.7456411133e+003,3.7178205566e+003,3.6944870605e+003,3.7743588867e+003,3.7794870605e+003,3.7617949219e+003,3.7594870605e+003,3.6341025391e+003,3.6938461914e+003,3.6884614258e+003,3.7233332520e+003,3.7526923828e+003,
1.6562500000e+000,3.8732050781e+003,3.6726923828e+003,3.7533332520e+003,3.7269230957e+003,3.7071794434e+003,3.7823076172e+003,3.7914101563e+003,3.7691025391e+003,3.7623076172e+003,3.6438461914e+003,3.7051281738e+003,3.6978205566e+003,3.7307692871e+003,3.7605129395e+003,
1.6640625000e+000,3.8756411133e+003,3.6758974609e+003,3.7469230957e+003,3.7294870605e+003,3.7034614258e+003,3.7817949219e+003,3.7961538086e+003,3.7638461914e+003,3.7535898438e+003,3.6412819824e+003,3.7001281738e+003,3.6932050781e+003,3.7301281738e+003,3.7517949219e+003,
1.6718750000e+000,3.8762819824e+003,3.6769230957e+003,3.7455129395e+003,3.7296154785e+003,3.6961538086e+003,3.7828205566e+003,3.7971794434e+003,3.7606411133e+003,3.7497436523e+003,3.6367949219e+003,3.6952563477e+003,3.6900000000e+003,3.7300000000e+003,3.7493588867e+003,
1.6796875000e+000,3.8941025391e+003,3.6948718262e+003,3.7620512695e+003,3.7461538086e+003,3.7067949219e+003,3.7989743652e+003,3.8119230957e+003,3.7747436523e+003,3.7633332520e+003,3.6507692871e+003,3.7108974609e+003,3.7048718262e+003,3.7464101563e+003,3.7669230957e+003,
1.6875000000e+000,3.9888461914e+003,3.7928205566e+003,3.8528205566e+003,3.8543588867e+003,3.8216667480e+003,3.8660256348e+003,3.8826923828e+003,3.8652563477e+003,3.8671794434e+003,3.7591025391e+003,3.8167949219e+003,3.8105129395e+003,3.8356411133e+003,3.8579487305e+003,
1.6953125000e+000,4.0919230957e+003,3.8973076172e+003,3.9520512695e+003,3.9507692871e+003,3.9246154785e+003,3.9635898438e+003,3.9775642090e+003,3.9647436523e+003,3.9671794434e+003,3.8598718262e+003,3.9157692871e+003,3.9085898438e+003,3.9393588867e+003,3.9588461914e+003,
1.7031250000e+000,4.4644873047e+003,4.2966665039e+003,4.3261538086e+003,4.3151284180e+003,4.3166665039e+003,4.3392309570e+003,4.3344873047e+003,4.3505126953e+003,4.3475639648e+003,4.2642309570e+003,4.3093588867e+003,4.2873076172e+003,4.3270512695e+003,4.3448715820e+003,
1.7109375000e+000,4.6119228516e+003,4.4678203125e+003,4.4903847656e+003,4.4616665039e+003,4.4716665039e+003,4.4869228516e+003,4.4785898438e+003,4.4953847656e+003,4.4871796875e+003,4.4184614258e+003,4.4719228516e+003,4.4388461914e+003,4.4751284180e+003,4.4824360352e+003,
1.7187500000e+000,4.7108974609e+003,4.5726923828e+003,4.5903847656e+003,4.5567949219e+003,4.5741025391e+003,4.5861538086e+003,4.5780771484e+003,4.5897436523e+003,4.5765385742e+003,4.5169228516e+003,4.5705126953e+003,4.5362822266e+003,4.5757690430e+003,4.5774360352e+003,
1.7265625000e+000,5.0067949219e+003,4.8991025391e+003,4.8956411133e+003,4.8696152344e+003,4.9017949219e+003,4.9155126953e+003,4.9014101563e+003,4.9110258789e+003,4.8897436523e+003,4.8558974609e+003,4.8978203125e+003,4.8544873047e+003,4.9007690430e+003,4.8944873047e+003,
1.7343750000e+000,5.0571796875e+003,4.9623076172e+003,4.9510258789e+003,4.9279487305e+003,4.9598715820e+003,4.9815385742e+003,4.9647436523e+003,4.9750000000e+003,4.9534614258e+003,4.9241025391e+003,4.9665385742e+003,4.9119228516e+003,4.9623076172e+003,4.9520512695e+003,
1.7421875000e+000,5.1452563477e+003,5.0752563477e+003,5.0500000000e+003,5.0206411133e+003,5.0726923828e+003,5.0925639648e+003,5.0729487305e+003,5.0823076172e+003,5.0561538086e+003,5.0394873047e+003,5.0796152344e+003,5.0082050781e+003,5.0697436523e+003,5.0483334961e+003,
1.7500000000e+000,5.1723076172e+003,5.1126923828e+003,5.0848715820e+003,5.0506411133e+003,5.1215385742e+003,5.1275639648e+003,5.1078203125e+003,5.1185898438e+003,5.0896152344e+003,5.0796152344e+003,5.1117949219e+003,5.0417949219e+003,5.1070512695e+003,5.0807690430e+003,
1.7578125000e+000,5.0012822266e+003,4.9620512695e+003,4.9428203125e+003,4.9123076172e+003,4.9941025391e+003,4.9847436523e+003,4.9624360352e+003,4.9762822266e+003,4.9462822266e+003,4.9315385742e+003,4.9534614258e+003,4.8970512695e+003,4.9582050781e+003,4.9325639648e+003,
1.7656250000e+000,4.9337177734e+003,4.8984614258e+003,4.8812822266e+003,4.8515385742e+003,4.9226923828e+003,4.9238461914e+003,4.9001284180e+003,4.9094873047e+003,4.8785898438e+003,4.8584614258e+003,4.8907690430e+003,4.8337177734e+003,4.8912822266e+003,4.8688461914e+003,
1.7734375000e+000,4.9797436523e+003,4.9514101563e+003,4.9314101563e+003,4.8883334961e+003,4.9543588867e+003,4.9670512695e+003,4.9416665039e+003,4.9453847656e+003,4.9085898438e+003,4.8920512695e+003,4.9429487305e+003,4.8815385742e+003,4.9357690430e+003,4.9164101563e+003,
1.7812500000e+000,5.0626923828e+003,5.0374360352e+003,5.0164101563e+003,4.9630771484e+003,5.0321796875e+003,5.0434614258e+003,5.0178203125e+003,5.0248715820e+003,4.9847436523e+003,4.9752563477e+003,5.0293588867e+003,4.9678203125e+003,5.0201284180e+003,5.0021796875e+003,
1.7890625000e+000,5.1823076172e+003,5.1621796875e+003,5.1501284180e+003,5.0924360352e+003,5.1532050781e+003,5.1494873047e+003,5.1294873047e+003,5.1517949219e+003,5.1097436523e+003,5.1092309570e+003,5.1688461914e+003,5.1121796875e+003,5.1607690430e+003,5.1432050781e+003,
1.7968750000e+000,5.2025639648e+003,5.1860258789e+003,5.1715385742e+003,5.1210258789e+003,5.1810258789e+003,5.1680771484e+003,5.1500000000e+003,5.1761538086e+003,5.1356411133e+003,5.1365385742e+003,5.1989741211e+003,5.1396152344e+003,5.1901284180e+003,5.1700000000e+003,
1.8046875000e+000,5.2406411133e+003,5.2305126953e+003,5.2098715820e+003,5.1633334961e+003,5.2260258789e+003,5.2056411133e+003,5.1875639648e+003,5.2198715820e+003,5.1808974609e+003,5.1848715820e+003,5.2478203125e+003,5.1856411133e+003,5.2365385742e+003,5.2151284180e+003,
1.8125000000e+000,5.2878203125e+003,5.2864101563e+003,5.2601284180e+003,5.2103847656e+003,5.2752563477e+003,5.2543588867e+003,5.2351284180e+003,5.2751284180e+003,5.2378203125e+003,5.2447436523e+003,5.3053847656e+003,5.2430771484e+003,5.2914101563e+003,5.2711538086e+003,
1.8203125000e+000,5.4539741211e+003,5.4842309570e+003,5.4593588867e+003,5.3787177734e+003,5.4517949219e+003,5.4542309570e+003,5.4314101563e+003,5.4758974609e+003,5.4443588867e+003,5.4575639648e+003,5.4992309570e+003,5.4365385742e+003,5.4951284180e+003,5.4564101563e+003,
1.8281250000e+000,5.6255126953e+003,5.7019228516e+003,5.6548715820e+003,5.5884614258e+003,5.7116665039e+003,5.6801284180e+003,5.6451284180e+003,5.6915385742e+003,5.6406411133e+003,5.6705126953e+003,5.7155126953e+003,5.6311538086e+003,5.6941025391e+003,5.6564101563e+003,
1.8359375000e+000,5.7106411133e+003,5.8108974609e+003,5.7494873047e+003,5.6766665039e+003,5.8265385742e+003,5.7979487305e+003,5.7616665039e+003,5.7983334961e+003,5.7478203125e+003,5.7798715820e+003,5.8182050781e+003,5.7271796875e+003,5.7947436523e+003,5.7482050781e+003,
1.8437500000e+000,5.7408974609e+003,5.8478203125e+003,5.7862822266e+003,5.7160258789e+003,5.8648715820e+003,5.8358974609e+003,5.7983334961e+003,5.8334614258e+003,5.7846152344e+003,5.8192309570e+003,5.8561538086e+003,5.7616665039e+003,5.8330771484e+003,5.7837177734e+003,
1.8515625000e+000,5.8352563477e+003,5.9714101563e+003,5.8997436523e+003,5.8219228516e+003,5.9743588867e+003,5.9467949219e+003,5.9030771484e+003,5.9419228516e+003,5.8924360352e+003,5.9312822266e+003,5.9662822266e+003,5.8753847656e+003,5.9448715820e+003,5.9025639648e+003,
1.8593750000e+000,5.8408974609e+003,5.9833334961e+003,5.9111538086e+003,5.8241025391e+003,5.9787177734e+003,5.9583334961e+003,5.9144873047e+003,5.9510258789e+003,5.8997436523e+003,5.9392309570e+003,5.9756411133e+003,5.8893588867e+003,5.9538461914e+003,5.9139741211e+003,
1.8671875000e+000,5.8580771484e+003,6.0041025391e+003,5.9393588867e+003,5.8428203125e+003,5.9925639648e+003,5.9774360352e+003,5.9352563477e+003,5.9688461914e+003,5.9094873047e+003,5.9555126953e+003,6.0041025391e+003,5.9166665039e+003,5.9812822266e+003,5.9385898438e+003,
1.8750000000e+000,5.8869228516e+003,6.0350000000e+003,5.9734614258e+003,5.8778203125e+003,6.0250000000e+003,6.0015385742e+003,5.9600000000e+003,5.9984614258e+003,5.9332050781e+003,5.9847436523e+003,6.0415385742e+003,5.9479487305e+003,6.0178203125e+003,5.9728203125e+003,
1.8828125000e+000,5.9132050781e+003,6.0720512695e+003,6.0169228516e+003,5.9048715820e+003,6.0516665039e+003,6.0166665039e+003,5.9833334961e+003,6.0334614258e+003,5.9585898438e+003,6.0174360352e+003,6.0884614258e+003,5.9919228516e+003,6.0524360352e+003,6.0189741211e+003,
1.8906250000e+000,5.9169228516e+003,6.0792309570e+003,6.0271796875e+003,5.9023076172e+003,6.0483334961e+003,6.0221796875e+003,5.9912822266e+003,6.0394873047e+003,5.9661538086e+003,6.0225639648e+003,6.0944873047e+003,6.0028203125e+003,6.0575639648e+003,6.0258974609e+003,
1.8984375000e+000,6.0174360352e+003,6.1917949219e+003,6.1393588867e+003,6.0061538086e+003,6.1512822266e+003,6.1274360352e+003,6.0941025391e+003,6.1469228516e+003,6.0783334961e+003,6.1330771484e+003,6.2005126953e+003,6.1138461914e+003,6.1728203125e+003,6.1311538086e+003,
1.9062500000e+000,6.0794873047e+003,6.2625639648e+003,6.2062822266e+003,6.0794873047e+003,6.2235898438e+003,6.1905126953e+003,6.1532050781e+003,6.2139741211e+003,6.1466665039e+003,6.2042309570e+003,6.2674360352e+003,6.1807690430e+003,6.2426923828e+003,6.1976923828e+003,
1.9140625000e+000,6.0314101563e+003,6.2308974609e+003,6.1734614258e+003,6.0560258789e+003,6.2085898438e+003,6.1579487305e+003,6.1084614258e+003,6.1798715820e+003,6.1174360352e+003,6.1797436523e+003,6.2384614258e+003,6.1417949219e+003,6.1988461914e+003,6.1647436523e+003,
1.9218750000e+000,5.9751284180e+003,6.1775639648e+003,6.1241025391e+003,6.0010258789e+003,6.1652563477e+003,6.1148715820e+003,6.0632050781e+003,6.1300000000e+003,6.0706411133e+003,6.1260258789e+003,6.1906411133e+003,6.0862822266e+003,6.1444873047e+003,6.1115385742e+003,
1.9296875000e+000,5.9425639648e+003,6.1488461914e+003,6.0987177734e+003,5.9696152344e+003,6.1450000000e+003,6.0970512695e+003,6.0442309570e+003,6.1050000000e+003,6.0476923828e+003,6.0934614258e+003,6.1642309570e+003,6.0541025391e+003,6.1156411133e+003,6.0816665039e+003,
1.9375000000e+000,5.9428203125e+003,6.1535898438e+003,6.1043588867e+003,5.9708974609e+003,6.1534614258e+003,6.1105126953e+003,6.0560258789e+003,6.1123076172e+003,6.0548715820e+003,6.0926923828e+003,6.1650000000e+003,6.0535898438e+003,6.1191025391e+003,6.0839741211e+003,
1.9453125000e+000,5.9082050781e+003,6.1357690430e+003,6.0852563477e+003,5.9408974609e+003,6.1382050781e+003,6.1158974609e+003,6.0541025391e+003,6.1126923828e+003,6.0444873047e+003,6.0841025391e+003,6.1285898438e+003,6.0252563477e+003,6.0961538086e+003,6.0610258789e+003,
1.9531250000e+000,5.7603847656e+003,5.9979487305e+003,5.9438461914e+003,5.8129487305e+003,5.9785898438e+003,5.9750000000e+003,5.9308974609e+003,5.9826923828e+003,5.9174360352e+003,5.9357690430e+003,5.9841025391e+003,5.8938461914e+003,5.9600000000e+003,5.9325639648e+003,
1.9609375000e+000,5.7578203125e+003,5.9901284180e+003,5.9416665039e+003,5.8070512695e+003,5.9716665039e+003,5.9666665039e+003,5.9220512695e+003,5.9744873047e+003,5.9084614258e+003,5.9278203125e+003,5.9780771484e+003,5.8874360352e+003,5.9515385742e+003,5.9280771484e+003,
1.9687500000e+000,5.7584614258e+003,5.9857690430e+003,5.9505126953e+003,5.7994873047e+003,5.9865385742e+003,5.9643588867e+003,5.9197436523e+003,5.9683334961e+003,5.9025639648e+003,5.9220512695e+003,5.9882050781e+003,5.8874360352e+003,5.9510258789e+003,5.9300000000e+003,
1.9765625000e+000,5.7683334961e+003,6.0007690430e+003,5.9629487305e+003,5.8075639648e+003,6.0025639648e+003,5.9760258789e+003,5.9333334961e+003,5.9784614258e+003,5.9142309570e+003,5.9333334961e+003,6.0074360352e+003,5.8998715820e+003,5.9683334961e+003,5.9434614258e+003,
1.9843750000e+000,5.7837177734e+003,6.0247436523e+003,5.9733334961e+003,5.8269228516e+003,5.9896152344e+003,5.9829487305e+003,5.9483334961e+003,5.9908974609e+003,5.9252563477e+003,5.9515385742e+003,6.0246152344e+003,5.9226923828e+003,5.9929487305e+003,5.9648715820e+003,
1.9921875000e+000,5.8861538086e+003,6.1233334961e+003,6.0762822266e+003,5.9367949219e+003,6.1102563477e+003,6.0739741211e+003,6.0415385742e+003,6.0879487305e+003,6.0203847656e+003,6.0551284180e+003,6.1283334961e+003,6.0266665039e+003,6.0921796875e+003,6.0689741211e+003,
2.0000000000e+000,5.9382050781e+003,6.1826923828e+003,6.1332050781e+003,5.9905126953e+003,6.1706411133e+003,6.1275639648e+003,6.0935898438e+003,6.1438461914e+003,6.0767949219e+003,6.1138461914e+003,6.1891025391e+003,6.0844873047e+003,6.1535898438e+003,6.1274360352e+003,
2.0078125000e+000,5.9652563477e+003,6.2217949219e+003,6.1734614258e+003,6.0296152344e+003,6.1888461914e+003,6.1639741211e+003,6.1188461914e+003,6.1800000000e+003,6.1155126953e+003,6.1558974609e+003,6.2397436523e+003,6.1264101563e+003,6.1950000000e+003,6.1679487305e+003,
2.0156250000e+000,5.9393588867e+003,6.1975639648e+003,6.1489741211e+003,6.0126923828e+003,6.1667949219e+003,6.1429487305e+003,6.0935898438e+003,6.1562822266e+003,6.0944873047e+003,6.1335898438e+003,6.2189741211e+003,6.1002563477e+003,6.1693588867e+003,6.1425639648e+003,
2.0234375000e+000,5.9119228516e+003,6.1807690430e+003,6.1256411133e+003,5.9960258789e+003,6.1552563477e+003,6.1265385742e+003,6.0715385742e+003,6.1311538086e+003,6.0750000000e+003,6.1066665039e+003,6.1873076172e+003,6.0667949219e+003,6.1455126953e+003,6.1157690430e+003,
2.0312500000e+000,5.9519228516e+003,6.2247436523e+003,6.1666665039e+003,6.0332050781e+003,6.1966665039e+003,6.1678203125e+003,6.1108974609e+003,6.1689741211e+003,6.1137177734e+003,6.1416665039e+003,6.2187177734e+003,6.1023076172e+003,6.1850000000e+003,6.1543588867e+003,
2.0390625000e+000,5.8948715820e+003,6.1533334961e+003,6.1167949219e+003,5.9739741211e+003,6.1311538086e+003,6.1153847656e+003,6.0497436523e+003,6.1212822266e+003,6.0598715820e+003,6.0775639648e+003,6.1526923828e+003,6.0520512695e+003,6.1164101563e+003,6.1015385742e+003,
2.0468750000e+000,5.7456411133e+003,6.0078203125e+003,5.9762822266e+003,5.8350000000e+003,5.9964101563e+003,5.9835898438e+003,5.9150000000e+003,5.9832050781e+003,5.9178203125e+003,5.9298715820e+003,6.0087177734e+003,5.9078203125e+003,5.9708974609e+003,5.9607690430e+003,
2.0546875000e+000,5.6826923828e+003,5.9517949219e+003,5.9153847656e+003,5.7806411133e+003,5.9498715820e+003,5.9366665039e+003,5.8688461914e+003,5.9221796875e+003,5.8541025391e+003,5.8612822266e+003,5.9451284180e+003,5.8403847656e+003,5.9106411133e+003,5.8991025391e+003,
2.0625000000e+000,5.8294873047e+003,6.0944873047e+003,6.0474360352e+003,5.9267949219e+003,6.0966665039e+003,6.0814101563e+003,6.0200000000e+003,6.0511538086e+003,5.9842309570e+003,5.9893588867e+003,6.0762822266e+003,5.9696152344e+003,6.0475639648e+003,6.0306411133e+003,
2.0703125000e+000,7.3491025391e+003,7.5492309570e+003,7.4985898438e+003,7.4155126953e+003,7.5260258789e+003,7.5025639648e+003,7.4661538086e+003,7.4920512695e+003,7.4367949219e+003,7.4911538086e+003,7.5457690430e+003,7.4660258789e+003,7.5117949219e+003,7.4871796875e+003,
2.0781250000e+000,7.1326923828e+003,7.3829487305e+003,7.3283334961e+003,7.2285898438e+003,7.3666665039e+003,7.3341025391e+003,7.2860258789e+003,7.3326923828e+003,7.2641025391e+003,7.3271796875e+003,7.3756411133e+003,7.2938461914e+003,7.3435898438e+003,7.3123076172e+003,
2.0859375000e+000,7.1862822266e+003,7.4260258789e+003,7.3767949219e+003,7.2807690430e+003,7.4125639648e+003,7.3765385742e+003,7.3335898438e+003,7.3716665039e+003,7.3075639648e+003,7.3652563477e+003,7.4161538086e+003,7.3373076172e+003,7.3896152344e+003,7.3582050781e+003,
2.0937500000e+000,7.3075639648e+003,7.5474360352e+003,7.5016665039e+003,7.4012822266e+003,7.5256411133e+003,7.4867949219e+003,7.4456411133e+003,7.4924360352e+003,7.4267949219e+003,7.4914101563e+003,7.5394873047e+003,7.4619228516e+003,7.5111538086e+003,7.4825639648e+003,
2.1015625000e+000,7.2783334961e+003,7.5246152344e+003,7.4770512695e+003,7.3823076172e+003,7.5007690430e+003,7.4616665039e+003,7.4212822266e+003,7.4719228516e+003,7.4138461914e+003,7.4643588867e+003,7.5234614258e+003,7.4498715820e+003,7.4828203125e+003,7.4647436523e+003,
2.1093750000e+000,7.2917949219e+003,7.5351284180e+003,7.4912822266e+003,7.3951284180e+003,7.5165385742e+003,7.4748715820e+003,7.4357690430e+003,7.4852563477e+003,7.4329487305e+003,7.4778203125e+003,7.5342309570e+003,7.4628203125e+003,7.5033334961e+003,7.4784614258e+003,
2.1171875000e+000,7.2848715820e+003,7.5096152344e+003,7.4926923828e+003,7.3794873047e+003,7.4974360352e+003,7.4739741211e+003,7.4317949219e+003,7.4792309570e+003,7.4267949219e+003,7.4719228516e+003,7.5079487305e+003,7.4607690430e+003,7.4966665039e+003,7.4750000000e+003,
2.1250000000e+000,7.2888461914e+003,7.5088461914e+003,7.5011538086e+003,7.3828203125e+003,7.4976923828e+003,7.4828203125e+003,7.4364101563e+003,7.4835898438e+003,7.4279487305e+003,7.4771796875e+003,7.5083334961e+003,7.4680771484e+003,7.4969228516e+003,7.4821796875e+003,
2.1328125000e+000,7.2830771484e+003,7.5441025391e+003,7.5042309570e+003,7.3950000000e+003,7.5203847656e+003,7.4907690430e+003,7.4388461914e+003,7.4912822266e+003,7.4369228516e+003,7.4889741211e+003,7.5462822266e+003,7.4743588867e+003,7.5106411133e+003,7.4938461914e+003,
2.1406250000e+000,7.2346152344e+003,7.5265385742e+003,7.4748715820e+003,7.3600000000e+003,7.4956411133e+003,7.4638461914e+003,7.4108974609e+003,7.4653847656e+003,7.4103847656e+003,7.4587177734e+003,7.5262822266e+003,7.4441025391e+003,7.4883334961e+003,7.4647436523e+003,
2.1484375000e+000,7.1583334961e+003,7.4864101563e+003,7.4376923828e+003,7.3108974609e+003,7.4529487305e+003,7.4355126953e+003,7.3793588867e+003,7.4319228516e+003,7.3743588867e+003,7.4119228516e+003,7.4807690430e+003,7.4003847656e+003,7.4532050781e+003,7.4207690430e+003,
2.1562500000e+000,7.1816665039e+003,7.4879487305e+003,7.4516665039e+003,7.3324360352e+003,7.4608974609e+003,7.4535898438e+003,7.3997436523e+003,7.4453847656e+003,7.3925639648e+003,7.4241025391e+003,7.4819228516e+003,7.4135898438e+003,7.4623076172e+003,7.4325639648e+003,
2.1640625000e+000,7.2706411133e+003,7.5124360352e+003,7.5043588867e+003,7.3900000000e+003,7.5046152344e+003,7.5034614258e+003,7.4629487305e+003,7.4965385742e+003,7.4501284180e+003,7.4789741211e+003,7.5105126953e+003,7.4685898438e+003,7.4962822266e+003,7.4860258789e+003,
2.1718750000e+000,7.2256411133e+003,7.4997436523e+003,7.4870512695e+003,7.3541025391e+003,7.4923076172e+003,7.4884614258e+003,7.4439741211e+003,7.4830771484e+003,7.4274360352e+003,7.4588461914e+003,7.4971796875e+003,7.4497436523e+003,7.4807690430e+003,7.4688461914e+003,
2.1796875000e+000,7.1823076172e+003,7.4911538086e+003,7.4694873047e+003,7.3256411133e+003,7.4838461914e+003,7.4766665039e+003,7.4276923828e+003,7.4701284180e+003,7.4073076172e+003,7.4397436523e+003,7.4867949219e+003,7.4324360352e+003,7.4694873047e+003,7.4515385742e+003,
2.1875000000e+000,7.1752563477e+003,7.4952563477e+003,7.4662822266e+003,7.3288461914e+003,7.4889741211e+003,7.4785898438e+003,7.4300000000e+003,7.4696152344e+003,7.4071796875e+003,7.4379487305e+003,7.4903847656e+003,7.4326923828e+003,7.4726923828e+003,7.4489741211e+003,
2.1953125000e+000,7.1047436523e+003,7.4406411133e+003,7.4235898438e+003,7.2883334961e+003,7.4223076172e+003,7.4176923828e+003,7.3779487305e+003,7.4171796875e+003,7.3511538086e+003,7.3782050781e+003,7.4450000000e+003,7.3800000000e+003,7.4207690430e+003,7.4021796875e+003,
2.2031250000e+000,6.9932050781e+003,7.4010258789e+003,7.3762822266e+003,7.2119228516e+003,7.3770512695e+003,7.3703847656e+003,7.3180771484e+003,7.3734614258e+003,7.2933334961e+003,7.3265385742e+003,7.4012822266e+003,7.3230771484e+003,7.3780771484e+003,7.3528203125e+003,
2.2109375000e+000,6.7828203125e+003,7.2397436523e+003,7.2102563477e+003,7.0176923828e+003,7.2137177734e+003,7.1943588867e+003,7.1350000000e+003,7.2123076172e+003,7.1232050781e+003,7.1503847656e+003,7.2520512695e+003,7.1525639648e+003,7.2157690430e+003,7.1873076172e+003,
2.2187500000e+000,6.7033334961e+003,7.1474360352e+003,7.1375639648e+003,6.9212822266e+003,7.1065385742e+003,7.0975639648e+003,7.0426923828e+003,7.1096152344e+003,7.0100000000e+003,7.0207690430e+003,7.1644873047e+003,7.0558974609e+003,7.1176923828e+003,7.1078203125e+003,
2.2265625000e+000,7.6565385742e+003,7.6638461914e+003,7.6470512695e+003,7.6611538086e+003,7.6611538086e+003,7.6589741211e+003,7.6539741211e+003,7.6579487305e+003,7.6619228516e+003,7.6675639648e+003,7.6601284180e+003,7.6537177734e+003,7.6643588867e+003,7.6511538086e+003,
2.2343750000e+000,7.6926923828e+003,7.6444873047e+003,7.6415385742e+003,7.6694873047e+003,7.6461538086e+003,7.6484614258e+003,7.6542309570e+003,7.6507690430e+003,7.6620512695e+003,7.6632050781e+003,7.6453847656e+003,7.6584614258e+003,7.6485898438e+003,7.6461538086e+003,
2.2421875000e+000,7.5875639648e+003,7.5708974609e+003,7.5789741211e+003,7.5767949219e+003,7.5711538086e+003,7.5728203125e+003,7.5787177734e+003,7.5735898438e+003,7.5747436523e+003,7.5706411133e+003,7.5716665039e+003,7.5814101563e+003,7.5711538086e+003,7.5775639648e+003,
2.2500000000e+000,7.5873076172e+003,7.5891025391e+003,7.5920512695e+003,7.5860258789e+003,7.5894873047e+003,7.5873076172e+003,7.5897436523e+003,7.5862822266e+003,7.5867949219e+003,7.5837177734e+003,7.5874360352e+003,7.5892309570e+003,7.5880771484e+003,7.5908974609e+003,
2.2578125000e+000,7.6393588867e+003,7.6208974609e+003,7.6208974609e+003,7.6305126953e+003,7.6235898438e+003,7.6223076172e+003,7.6251284180e+003,7.6225639648e+003,7.6279487305e+003,7.6287177734e+003,7.6203847656e+003,7.6262822266e+003,7.6217949219e+003,7.6237177734e+003,
2.2656250000e+000,7.6253847656e+003,7.6064101563e+003,7.6083334961e+003,7.6157690430e+003,7.6082050781e+003,7.6082050781e+003,7.6112822266e+003,7.6082050781e+003,7.6126923828e+003,7.6123076172e+003,7.6058974609e+003,7.6134614258e+003,7.6078203125e+003,7.6103847656e+003,
2.2734375000e+000,7.6043588867e+003,7.6015385742e+003,7.6021796875e+003,7.6038461914e+003,7.6023076172e+003,7.6012822266e+003,7.6021796875e+003,7.6008974609e+003,7.6035898438e+003,7.6029487305e+003,7.6014101563e+003,7.6035898438e+003,7.6030771484e+003,7.6033334961e+003,
2.2812500000e+000,7.5985898438e+003,7.6011538086e+003,7.6012822266e+003,7.6008974609e+003,7.6020512695e+003,7.6005126953e+003,7.6010258789e+003,7.6007690430e+003,7.6019228516e+003,7.6020512695e+003,7.6014101563e+003,7.6019228516e+003,7.6017949219e+003,7.6023076172e+003,
2.2890625000e+000,7.5967949219e+003,7.5991025391e+003,7.5996152344e+003,7.5976923828e+003,7.6001284180e+003,7.5984614258e+003,7.5992309570e+003,7.5997436523e+003,7.5991025391e+003,7.5996152344e+003,7.5991025391e+003,7.5998715820e+003,7.5984614258e+003,7.6003847656e+003,
2.2968750000e+000,7.6017949219e+003,7.6005126953e+003,7.6001284180e+003,7.5994873047e+003,7.6007690430e+003,7.5994873047e+003,7.6002563477e+003,7.6030771484e+003,7.6001284180e+003,7.6006411133e+003,7.5985898438e+003,7.6016665039e+003,7.5992309570e+003,7.6016665039e+003,
2.3046875000e+000,7.6020512695e+003,7.6014101563e+003,7.6003847656e+003,7.6008974609e+003,7.6015385742e+003,7.6005126953e+003,7.6006411133e+003,7.6050000000e+003,7.6015385742e+003,7.6019228516e+003,7.5997436523e+003,7.6025639648e+003,7.6007690430e+003,7.6025639648e+003,
2.3125000000e+000,7.6002563477e+003,7.6005126953e+003,7.5997436523e+003,7.6003847656e+003,7.6008974609e+003,7.6000000000e+003,7.5996152344e+003,7.6046152344e+003,7.6008974609e+003,7.6012822266e+003,7.5993588867e+003,7.6017949219e+003,7.6001284180e+003,7.6017949219e+003,
2.3203125000e+000,7.6002563477e+003,7.6014101563e+003,7.6003847656e+003,7.5991025391e+003,7.6016665039e+003,7.5991025391e+003,7.6010258789e+003,7.6037177734e+003,7.6014101563e+003,7.6016665039e+003,7.5998715820e+003,7.6007690430e+003,7.6012822266e+003,7.6007690430e+003,
2.3281250000e+000,7.6011538086e+003,7.6008974609e+003,7.5996152344e+003,7.5985898438e+003,7.6014101563e+003,7.5988461914e+003,7.6000000000e+003,7.6035898438e+003,7.6007690430e+003,7.6015385742e+003,7.5997436523e+003,7.6008974609e+003,7.6010258789e+003,7.6008974609e+003,
2.3359375000e+000,7.6002563477e+003,7.6012822266e+003,7.6003847656e+003,7.5988461914e+003,7.6008974609e+003,7.5991025391e+003,7.6002563477e+003,7.6033334961e+003,7.6000000000e+003,7.6008974609e+003,7.6000000000e+003,7.6010258789e+003,7.5984614258e+003,7.6010258789e+003,
2.3437500000e+000,7.6001284180e+003,7.6011538086e+003,7.6000000000e+003,7.5993588867e+003,7.6010258789e+003,7.5989741211e+003,7.6001284180e+003,7.6033334961e+003,7.6002563477e+003,7.6010258789e+003,7.6000000000e+003,7.6010258789e+003,7.6017949219e+003,7.6010258789e+003,
2.3515625000e+000,7.6003847656e+003,7.6011538086e+003,7.6000000000e+003,7.5993588867e+003,7.6010258789e+003,7.5991025391e+003,7.6000000000e+003,7.6033334961e+003,7.6002563477e+003,7.6010258789e+003,7.6000000000e+003,7.6011538086e+003,7.6016665039e+003,7.6011538086e+003,
2.3593750000e+000,7.6000000000e+003,7.6011538086e+003,7.6001284180e+003,7.5992309570e+003,7.6008974609e+003,7.5991025391e+003,7.6001284180e+003,7.6033334961e+003,7.6001284180e+003,7.6008974609e+003,7.6000000000e+003,7.6010258789e+003,7.5980771484e+003,7.6010258789e+003,
2.3671875000e+000,7.6002563477e+003,7.6011538086e+003,7.6001284180e+003,7.5993588867e+003,7.6008974609e+003,7.5991025391e+003,7.6001284180e+003,7.6033334961e+003,7.6001284180e+003,7.6008974609e+003,7.5998715820e+003,7.6010258789e+003,7.6019228516e+003,7.6010258789e+003,
2.3750000000e+000,7.6014101563e+003,7.6011538086e+003,7.6001284180e+003,7.5993588867e+003,7.6008974609e+003,7.5991025391e+003,7.6001284180e+003,7.6033334961e+003,7.6001284180e+003,7.6010258789e+003,7.6000000000e+003,7.6010258789e+003,7.6014101563e+003,7.6010258789e+003,
2.3828125000e+000,7.6365385742e+003,7.6117949219e+003,7.6091025391e+003,7.6155126953e+003,7.6124360352e+003,7.6085898438e+003,7.6121796875e+003,7.6126923828e+003,7.6125639648e+003,7.6150000000e+003,7.6089741211e+003,7.6128203125e+003,7.6091025391e+003,7.6111538086e+003,
2.3906250000e+000,7.6566665039e+003,7.6233334961e+003,7.6191025391e+003,7.6329487305e+003,7.6250000000e+003,7.6194873047e+003,7.6252563477e+003,7.6229487305e+003,7.6264101563e+003,7.6312822266e+003,7.6194873047e+003,7.6262822266e+003,7.6224360352e+003,7.6219228516e+003,
2.3984375000e+000,7.6407690430e+003,7.6285898438e+003,7.6242309570e+003,7.6355126953e+003,7.6302563477e+003,7.6253847656e+003,7.6289741211e+003,7.6282050781e+003,7.6301284180e+003,7.6373076172e+003,7.6250000000e+003,7.6329487305e+003,7.6289741211e+003,7.6264101563e+003,
2.4062500000e+000,7.6134614258e+003,7.6167949219e+003,7.6156411133e+003,7.6130771484e+003,7.6166665039e+003,7.6146152344e+003,7.6146152344e+003,7.6179487305e+003,7.6132050781e+003,7.6173076172e+003,7.6146152344e+003,7.6185898438e+003,7.6152563477e+003,7.6157690430e+003,
2.4140625000e+000,7.7139741211e+003,7.6788461914e+003,7.6675639648e+003,7.6924360352e+003,7.6796152344e+003,7.6693588867e+003,7.6778203125e+003,7.6730771484e+003,7.6824360352e+003,7.6924360352e+003,7.6733334961e+003,7.6783334961e+003,7.6764101563e+003,7.6717949219e+003,
2.4218750000e+000,7.6567949219e+003,7.6783334961e+003,7.6667949219e+003,7.6971796875e+003,7.6808974609e+003,7.6708974609e+003,7.6782050781e+003,7.6743588867e+003,7.6866665039e+003,7.7010258789e+003,7.6743588867e+003,7.6847436523e+003,7.6780771484e+003,7.6714101563e+003,
2.4296875000e+000,7.4289741211e+003,7.6051284180e+003,7.6082050781e+003,7.5952563477e+003,7.6043588867e+003,7.6066665039e+003,7.6000000000e+003,7.6097436523e+003,7.6037177734e+003,7.6096152344e+003,7.6087177734e+003,7.6132050781e+003,7.6039741211e+003,7.6047436523e+003,
2.4375000000e+000,7.0602563477e+003,7.4688461914e+003,7.4984614258e+003,7.3880771484e+003,7.4567949219e+003,7.4829487305e+003,7.4487177734e+003,7.4867949219e+003,7.4391025391e+003,7.4191025391e+003,7.4869228516e+003,7.4615385742e+003,7.4630771484e+003,7.4788461914e+003,
2.4453125000e+000,5.9783334961e+003,6.8047436523e+003,6.8897436523e+003,6.5262822266e+003,6.7528203125e+003,6.8469228516e+003,6.7434614258e+003,6.8942309570e+003,6.7365385742e+003,6.5846152344e+003,6.8883334961e+003,6.6980771484e+003,6.8107690430e+003,6.8516665039e+003,
2.4531250000e+000,5.8529487305e+003,6.5816665039e+003,6.6833334961e+003,6.3560258789e+003,6.5430771484e+003,6.6414101563e+003,6.5548715820e+003,6.6891025391e+003,6.5503847656e+003,6.3819228516e+003,6.6666665039e+003,6.5033334961e+003,6.6017949219e+003,6.6529487305e+003,
2.4609375000e+000,5.4783334961e+003,6.0891025391e+003,6.2300000000e+003,5.9496152344e+003,6.0875639648e+003,6.2047436523e+003,6.1334614258e+003,6.2289741211e+003,6.1138461914e+003,5.9005126953e+003,6.1770512695e+003,6.0500000000e+003,6.1261538086e+003,6.2080771484e+003,
2.4687500000e+000,5.1638461914e+003,5.6857690430e+003,5.8361538086e+003,5.5937177734e+003,5.6952563477e+003,5.8505126953e+003,5.7780771484e+003,5.8530771484e+003,5.7388461914e+003,5.4865385742e+003,5.7710258789e+003,5.6424360352e+003,5.7264101563e+003,5.8250000000e+003,
2.4765625000e+000,5.2244873047e+003,5.7007690430e+003,5.8473076172e+003,5.6243588867e+003,5.7139741211e+003,5.8712822266e+003,5.8037177734e+003,5.8589741211e+003,5.7505126953e+003,5.4956411133e+003,5.7708974609e+003,5.6541025391e+003,5.7400000000e+003,5.8402563477e+003,
2.4843750000e+000,5.7624360352e+003,6.1933334961e+003,6.3174360352e+003,6.1038461914e+003,6.2023076172e+003,6.3442309570e+003,6.2719228516e+003,6.3294873047e+003,6.2143588867e+003,5.9807690430e+003,6.2587177734e+003,6.1298715820e+003,6.2261538086e+003,6.3142309570e+003,
2.4921875000e+000,5.8728203125e+003,6.2571796875e+003,6.3850000000e+003,6.1755126953e+003,6.2680771484e+003,6.4048715820e+003,6.3325639648e+003,6.4062822266e+003,6.2887177734e+003,6.0684614258e+003,6.3226923828e+003,6.1957690430e+003,6.2987177734e+003,6.3776923828e+003,
2.5000000000e+000,5.8371796875e+003,6.2128203125e+003,6.3379487305e+003,6.1302563477e+003,6.2291025391e+003,6.3611538086e+003,6.2879487305e+003,6.3598715820e+003,6.2438461914e+003,6.0223076172e+003,6.2714101563e+003,6.1467949219e+003,6.2534614258e+003,6.3316665039e+003,
2.5078125000e+000,5.7788461914e+003,6.1464101563e+003,6.2687177734e+003,6.0639741211e+003,6.1682050781e+003,6.2947436523e+003,6.2207690430e+003,6.2916665039e+003,6.1776923828e+003,5.9539741211e+003,6.2052563477e+003,6.0784614258e+003,6.1838461914e+003,6.2643588867e+003,
2.5156250000e+000,5.5319228516e+003,5.8735898438e+003,6.0025639648e+003,5.8053847656e+003,5.8960258789e+003,6.0275639648e+003,5.9547436523e+003,6.0271796875e+003,5.9156411133e+003,5.6847436523e+003,5.9519228516e+003,5.8176923828e+003,5.9075639648e+003,6.0012822266e+003,
2.5234375000e+000,5.3688461914e+003,5.6912822266e+003,5.8316665039e+003,5.6357690430e+003,5.7065385742e+003,5.8521796875e+003,5.7828203125e+003,5.8512822266e+003,5.7402563477e+003,5.5020512695e+003,5.7765385742e+003,5.6458974609e+003,5.7294873047e+003,5.8303847656e+003,
2.5312500000e+000,5.1824360352e+003,5.4584614258e+003,5.6220512695e+003,5.4257690430e+003,5.4605126953e+003,5.6270512695e+003,5.5676923828e+003,5.6214101563e+003,5.5138461914e+003,5.2605126953e+003,5.5414101563e+003,5.4285898438e+003,5.5117949219e+003,5.6210258789e+003,
2.5390625000e+000,5.1626923828e+003,5.4160258789e+003,5.5864101563e+003,5.3926923828e+003,5.4193588867e+003,5.5823076172e+003,5.5262822266e+003,5.5803847656e+003,5.4764101563e+003,5.2189741211e+003,5.4989741211e+003,5.3923076172e+003,5.4760258789e+003,5.5870512695e+003,
2.5468750000e+000,4.7969228516e+003,4.9817949219e+003,5.1851284180e+003,5.0056411133e+003,5.0046152344e+003,5.1653847656e+003,5.1179487305e+003,5.1853847656e+003,5.0978203125e+003,4.8147436523e+003,5.0829487305e+003,4.9965385742e+003,5.0591025391e+003,5.1832050781e+003,
2.5546875000e+000,4.6011538086e+003,4.7600000000e+003,4.9774360352e+003,4.8021796875e+003,4.7865385742e+003,4.9620512695e+003,4.9178203125e+003,4.9771796875e+003,4.8958974609e+003,4.5957690430e+003,4.8621796875e+003,4.7847436523e+003,4.8442309570e+003,4.9726923828e+003,
2.5625000000e+000,4.4635898438e+003,4.5991025391e+003,4.8242309570e+003,4.6548715820e+003,4.6271796875e+003,4.8174360352e+003,4.7747436523e+003,4.8242309570e+003,4.7484614258e+003,4.4328203125e+003,4.6997436523e+003,4.6260258789e+003,4.6888461914e+003,4.8196152344e+003,
2.5703125000e+000,4.2896152344e+003,4.3266665039e+003,4.5574360352e+003,4.4287177734e+003,4.3579487305e+003,4.5712822266e+003,4.5424360352e+003,4.5894873047e+003,4.5212822266e+003,4.1792309570e+003,4.4376923828e+003,4.3574360352e+003,4.4343588867e+003,4.5702563477e+003,
2.5781250000e+000,4.2769228516e+003,4.2920512695e+003,4.5267949219e+003,4.4035898438e+003,4.3333334961e+003,4.5446152344e+003,4.5184614258e+003,4.5612822266e+003,4.4942309570e+003,4.1474360352e+003,4.4029487305e+003,4.3283334961e+003,4.4019228516e+003,4.5392309570e+003,
2.5859375000e+000,4.2520512695e+003,4.2176923828e+003,4.4519228516e+003,4.3411538086e+003,4.2756411133e+003,4.4876923828e+003,4.4591025391e+003,4.4929487305e+003,4.4266665039e+003,4.0716667480e+003,4.3211538086e+003,4.2548715820e+003,4.3238461914e+003,4.4730771484e+003,
2.5937500000e+000,4.1383334961e+003,4.0714101563e+003,4.3037177734e+003,4.1935898438e+003,4.1228203125e+003,4.3507690430e+003,4.3210258789e+003,4.3424360352e+003,4.2794873047e+003,3.9178205566e+003,4.1684614258e+003,4.1035898438e+003,4.1729487305e+003,4.3203847656e+003,
2.6015625000e+000,4.1075639648e+003,4.0258974609e+003,4.2623076172e+003,4.1580771484e+003,4.0769230957e+003,4.3094873047e+003,4.2807690430e+003,4.2997436523e+003,4.2362822266e+003,3.8757692871e+003,4.1292309570e+003,4.0628205566e+003,4.1289741211e+003,4.2765385742e+003,
2.6093750000e+000,3.9903845215e+003,3.8570512695e+003,4.1041025391e+003,4.0205129395e+003,3.8956411133e+003,4.1391025391e+003,4.1119228516e+003,4.1294873047e+003,4.0728205566e+003,3.7091025391e+003,3.9516667480e+003,3.8941025391e+003,3.9760256348e+003,4.1183334961e+003,
2.6171875000e+000,3.9296154785e+003,3.7805129395e+003,4.0297436523e+003,3.9428205566e+003,3.8193588867e+003,4.0605129395e+003,4.0342307129e+003,4.0505129395e+003,3.9970512695e+003,3.6293588867e+003,3.8705129395e+003,3.8174357910e+003,3.9024357910e+003,4.0464101563e+003,
2.6250000000e+000,3.8176923828e+003,3.6370512695e+003,3.8942307129e+003,3.7984614258e+003,3.6925642090e+003,3.9174357910e+003,3.8961538086e+003,3.9061538086e+003,3.8537180176e+003,3.4871794434e+003,3.7374357910e+003,3.6906411133e+003,3.7565385742e+003,3.9185898438e+003,
2.6328125000e+000,3.7850000000e+003,3.5879487305e+003,3.8479487305e+003,3.7573076172e+003,3.6500000000e+003,3.8679487305e+003,3.8491025391e+003,3.8561538086e+003,3.8043588867e+003,3.4420512695e+003,3.6941025391e+003,3.6507692871e+003,3.7067949219e+003,3.8760256348e+003,
2.6406250000e+000,3.7000000000e+003,3.4558974609e+003,3.7207692871e+003,3.6551281738e+003,3.4902563477e+003,3.7310256348e+003,3.7170512695e+003,3.7188461914e+003,3.6771794434e+003,3.3082050781e+003,3.5497436523e+003,3.5243588867e+003,3.5843588867e+003,3.7480769043e+003,
2.6484375000e+000,3.6603845215e+003,3.4039743652e+003,3.6720512695e+003,3.6034614258e+003,3.4289743652e+003,3.6770512695e+003,3.6669230957e+003,3.6674357910e+003,3.6284614258e+003,3.2519230957e+003,3.4985898438e+003,3.4735898438e+003,3.5324357910e+003,3.6982050781e+003,
2.6562500000e+000,3.6137180176e+003,3.3351281738e+003,3.6060256348e+003,3.5314101563e+003,3.3692307129e+003,3.6008974609e+003,3.5993588867e+003,3.6048718262e+003,3.5669230957e+003,3.1851281738e+003,3.4478205566e+003,3.4096154785e+003,3.4587180176e+003,3.6367949219e+003,
2.6640625000e+000,3.6064101563e+003,3.3138461914e+003,3.5860256348e+003,3.5142307129e+003,3.3611538086e+003,3.5782050781e+003,3.5793588867e+003,3.5897436523e+003,3.5520512695e+003,3.1703845215e+003,3.4352563477e+003,3.3933332520e+003,3.4382050781e+003,3.6196154785e+003,
2.6718750000e+000,3.5950000000e+003,3.2867949219e+003,3.5612819824e+003,3.4935898438e+003,3.3456411133e+003,3.5541025391e+003,3.5567949219e+003,3.5705129395e+003,3.5339743652e+003,3.1506411133e+003,3.4120512695e+003,3.3733332520e+003,3.4155129395e+003,3.5960256348e+003,
2.6796875000e+000,3.3702563477e+003,3.0120512695e+003,3.2855129395e+003,3.2302563477e+003,3.0652563477e+003,3.3230769043e+003,3.3293588867e+003,3.3360256348e+003,3.2975642090e+003,2.8971794434e+003,3.1223076172e+003,3.1056411133e+003,3.1534614258e+003,3.3278205566e+003,
2.6875000000e+000,3.3185898438e+003,2.9465385742e+003,3.2265385742e+003,3.1756411133e+003,3.0014101563e+003,3.2653845215e+003,3.2716667480e+003,3.2743588867e+003,3.2360256348e+003,2.8330769043e+003,3.0520512695e+003,3.0384614258e+003,3.0871794434e+003,3.2642307129e+003,
2.6953125000e+000,3.2562819824e+003,2.8446154785e+003,3.1339743652e+003,3.0956411133e+003,2.9176923828e+003,3.1791025391e+003,3.1778205566e+003,3.1702563477e+003,3.1406411133e+003,2.7326923828e+003,2.9514101563e+003,2.9298718262e+003,2.9883332520e+003,3.1635898438e+003,
2.7031250000e+000,3.2556411133e+003,2.8373076172e+003,3.1206411133e+003,3.0905129395e+003,2.9152563477e+003,3.1706411133e+003,3.1665385742e+003,3.1579487305e+003,3.1294870605e+003,2.7239743652e+003,2.9461538086e+003,2.9208974609e+003,2.9810256348e+003,3.1548718262e+003,
2.7109375000e+000,3.2297436523e+003,2.7878205566e+003,3.0615385742e+003,3.0550000000e+003,2.8533332520e+003,3.1088461914e+003,3.1084614258e+003,3.0973076172e+003,3.0666667480e+003,2.6691025391e+003,2.8932050781e+003,2.8734614258e+003,2.9317949219e+003,3.1088461914e+003,
2.7187500000e+000,3.1744870605e+003,2.7008974609e+003,2.9867949219e+003,2.9741025391e+003,2.7546154785e+003,3.0206411133e+003,3.0229487305e+003,3.0052563477e+003,2.9808974609e+003,2.5891025391e+003,2.8083332520e+003,2.7975642090e+003,2.8483332520e+003,3.0269230957e+003,
2.7265625000e+000,3.1743588867e+003,2.6903845215e+003,2.9766667480e+003,2.9624357910e+003,2.7547436523e+003,3.0060256348e+003,3.0083332520e+003,2.9879487305e+003,2.9637180176e+003,2.5771794434e+003,2.7997436523e+003,2.7894870605e+003,2.8389743652e+003,3.0165385742e+003,
2.7343750000e+000,3.2670512695e+003,2.7557692871e+003,3.0400000000e+003,3.0269230957e+003,2.8270512695e+003,3.0487180176e+003,3.0567949219e+003,3.0370512695e+003,3.0076923828e+003,2.6350000000e+003,2.8603845215e+003,2.8587180176e+003,2.9150000000e+003,3.0807692871e+003,
2.7421875000e+000,3.3138461914e+003,2.7979487305e+003,3.0806411133e+003,3.0667949219e+003,2.8548718262e+003,3.0835898438e+003,3.0938461914e+003,3.0765385742e+003,3.0451281738e+003,2.6764101563e+003,2.8991025391e+003,2.9003845215e+003,2.9592307129e+003,3.1196154785e+003,
2.7500000000e+000,3.4306411133e+003,2.9157692871e+003,3.1835898438e+003,3.1691025391e+003,2.9524357910e+003,3.1824357910e+003,3.1924357910e+003,3.1817949219e+003,3.1484614258e+003,2.7917949219e+003,3.0135898438e+003,3.0075642090e+003,3.0712819824e+003,3.2212819824e+003,
2.7578125000e+000,3.4824357910e+003,2.9674357910e+003,3.2292307129e+003,3.2143588867e+003,3.0080769043e+003,3.2252563477e+003,3.2353845215e+003,3.2280769043e+003,3.1955129395e+003,2.8450000000e+003,3.0687180176e+003,3.0567949219e+003,3.1194870605e+003,3.2669230957e+003,
2.7656250000e+000,3.5165385742e+003,2.9779487305e+003,3.2507692871e+003,3.2400000000e+003,3.0275642090e+003,3.2342307129e+003,3.2479487305e+003,3.2423076172e+003,3.2179487305e+003,2.8697436523e+003,3.0926923828e+003,3.0882050781e+003,3.1320512695e+003,3.2843588867e+003,
2.7734375000e+000,3.5292307129e+003,2.9856411133e+003,3.2558974609e+003,3.2488461914e+003,3.0265385742e+003,3.2432050781e+003,3.2542307129e+003,3.2483332520e+003,3.2279487305e+003,2.8780769043e+003,3.0955129395e+003,3.0956411133e+003,3.1392307129e+003,3.2888461914e+003,
2.7812500000e+000,3.6017949219e+003,3.0630769043e+003,3.3153845215e+003,3.3112819824e+003,3.1048718262e+003,3.3185898438e+003,3.3229487305e+003,3.3166667480e+003,3.3010256348e+003,2.9515385742e+003,3.1603845215e+003,3.1592307129e+003,3.2124357910e+003,3.3501281738e+003,
2.7890625000e+000,3.6511538086e+003,3.1165385742e+003,3.3630769043e+003,3.3584614258e+003,3.1702563477e+003,3.3719230957e+003,3.3750000000e+003,3.3683332520e+003,3.3514101563e+003,3.0038461914e+003,3.2128205566e+003,3.2066667480e+003,3.2647436523e+003,3.3976923828e+003,
2.7968750000e+000,3.8019230957e+003,3.2773076172e+003,3.5093588867e+003,3.5174357910e+003,3.3373076172e+003,3.5339743652e+003,3.5291025391e+003,3.5341025391e+003,3.5046154785e+003,3.1723076172e+003,3.3728205566e+003,3.3530769043e+003,3.4162819824e+003,3.5421794434e+003,
2.8046875000e+000,3.8128205566e+003,3.2939743652e+003,3.5169230957e+003,3.5301281738e+003,3.3451281738e+003,3.5501281738e+003,3.5408974609e+003,3.5514101563e+003,3.5194870605e+003,3.1921794434e+003,3.3857692871e+003,3.3646154785e+003,3.4267949219e+003,3.5501281738e+003,
2.8125000000e+000,3.7946154785e+003,3.2806411133e+003,3.4971794434e+003,3.5106411133e+003,3.3264101563e+003,3.5370512695e+003,3.5258974609e+003,3.5382050781e+003,3.5058974609e+003,3.1802563477e+003,3.3701281738e+003,3.3476923828e+003,3.4098718262e+003,3.5298718262e+003,
2.8203125000e+000,3.6862819824e+003,3.1662819824e+003,3.3817949219e+003,3.3941025391e+003,3.2101281738e+003,3.4310256348e+003,3.4264101563e+003,3.4269230957e+003,3.3952563477e+003,3.0846154785e+003,3.2594870605e+003,3.2411538086e+003,3.3153845215e+003,3.4243588867e+003,
2.8281250000e+000,3.6744870605e+003,3.1552563477e+003,3.3675642090e+003,3.3810256348e+003,3.1935898438e+003,3.4132050781e+003,3.4097436523e+003,3.4066667480e+003,3.3774357910e+003,3.0696154785e+003,3.2443588867e+003,3.2269230957e+003,3.3015385742e+003,3.4103845215e+003,
2.8359375000e+000,3.7048718262e+003,3.1710256348e+003,3.3989743652e+003,3.4057692871e+003,3.2125642090e+003,3.4120512695e+003,3.4188461914e+003,3.4093588867e+003,3.3844870605e+003,3.0858974609e+003,3.2794870605e+003,3.2533332520e+003,3.3219230957e+003,3.4289743652e+003,
2.8437500000e+000,3.6388461914e+003,3.0982050781e+003,3.3260256348e+003,3.3357692871e+003,3.1515385742e+003,3.3255129395e+003,3.3302563477e+003,3.3235898438e+003,3.2929487305e+003,3.0085898438e+003,3.1982050781e+003,3.1916667480e+003,3.2407692871e+003,3.3641025391e+003,
2.8515625000e+000,3.6017949219e+003,3.0614101563e+003,3.2842307129e+003,3.2964101563e+003,3.1141025391e+003,3.2816667480e+003,3.2856411133e+003,3.2776923828e+003,3.2492307129e+003,2.9653845215e+003,3.1548718262e+003,3.1512819824e+003,3.1992307129e+003,3.3224357910e+003,
2.8593750000e+000,3.5176923828e+003,2.9625642090e+003,3.1985898438e+003,3.2064101563e+003,3.0023076172e+003,3.1791025391e+003,3.1882050781e+003,3.1746154785e+003,3.1585898438e+003,2.8721794434e+003,3.0617949219e+003,3.0634614258e+003,3.1041025391e+003,3.2287180176e+003,
2.8671875000e+000,3.4901281738e+003,2.9317949219e+003,3.1696154785e+003,3.1766667480e+003,2.9696154785e+003,3.1485898438e+003,3.1571794434e+003,3.1469230957e+003,3.1344870605e+003,2.8470512695e+003,3.0328205566e+003,3.0357692871e+003,3.0729487305e+003,3.2000000000e+003,
2.8750000000e+000,3.4061538086e+003,2.8520512695e+003,3.0775642090e+003,3.0901281738e+003,2.8887180176e+003,3.0660256348e+003,3.0693588867e+003,3.0689743652e+003,3.0621794434e+003,2.7680769043e+003,2.9473076172e+003,2.9444870605e+003,2.9865385742e+003,3.1092307129e+003,
2.8828125000e+000,3.3548718262e+003,2.8021794434e+003,3.0237180176e+003,3.0391025391e+003,2.8393588867e+003,3.0184614258e+003,3.0214101563e+003,3.0207692871e+003,3.0157692871e+003,2.7156411133e+003,2.8933332520e+003,2.8875642090e+003,2.9360256348e+003,3.0539743652e+003,
2.8906250000e+000,3.2752563477e+003,2.7088461914e+003,2.9360256348e+003,2.9505129395e+003,2.7570512695e+003,2.9560256348e+003,2.9669230957e+003,2.9502563477e+003,2.9430769043e+003,2.6308974609e+003,2.7953845215e+003,2.7919230957e+003,2.8505129395e+003,2.9646154785e+003,
2.8984375000e+000,3.2606411133e+003,2.6893588867e+003,2.9146154785e+003,2.9280769043e+003,2.7382050781e+003,2.9469230957e+003,2.9585898438e+003,2.9412819824e+003,2.9307692871e+003,2.6165385742e+003,2.7753845215e+003,2.7730769043e+003,2.8302563477e+003,2.9450000000e+003,
2.9062500000e+000,3.2174357910e+003,2.6397436523e+003,2.8575642090e+003,2.8739743652e+003,2.6798718262e+003,2.9067949219e+003,2.9182050781e+003,2.9051281738e+003,2.8896154785e+003,2.5671794434e+003,2.7235898438e+003,2.7230769043e+003,2.7712819824e+003,2.8894870605e+003,
2.9140625000e+000,3.2151281738e+003,2.6342307129e+003,2.8500000000e+003,2.8702563477e+003,2.6720512695e+003,2.9007692871e+003,2.9125642090e+003,2.9019230957e+003,2.8858974609e+003,2.5600000000e+003,2.7174357910e+003,2.7161538086e+003,2.7614101563e+003,2.8811538086e+003,
2.9218750000e+000,3.2717949219e+003,2.6782050781e+003,2.8976923828e+003,2.9267949219e+003,2.7396154785e+003,2.9429487305e+003,2.9534614258e+003,2.9538461914e+003,2.9317949219e+003,2.6223076172e+003,2.7639743652e+003,2.7578205566e+003,2.8161538086e+003,2.9311538086e+003,
2.9296875000e+000,3.2514101563e+003,2.6548718262e+003,2.8739743652e+003,2.9048718262e+003,2.7228205566e+003,2.9198718262e+003,2.9307692871e+003,2.9333332520e+003,2.9076923828e+003,2.6053845215e+003,2.7402563477e+003,2.7361538086e+003,2.7974357910e+003,2.9102563477e+003,
2.9375000000e+000,3.2083332520e+003,2.6111538086e+003,2.8264101563e+003,2.8587180176e+003,2.6792307129e+003,2.8747436523e+003,2.8875642090e+003,2.8892307129e+003,2.8615385742e+003,2.5611538086e+003,2.6943588867e+003,2.6921794434e+003,2.7520512695e+003,2.8652563477e+003,
2.9453125000e+000,3.1615385742e+003,2.5653845215e+003,2.7755129395e+003,2.8089743652e+003,2.6288461914e+003,2.8255129395e+003,2.8412819824e+003,2.8389743652e+003,2.8116667480e+003,2.5088461914e+003,2.6457692871e+003,2.6438461914e+003,2.6991025391e+003,2.8156411133e+003,
2.9531250000e+000,3.1311538086e+003,2.5158974609e+003,2.7379487305e+003,2.7737180176e+003,2.5735898438e+003,2.7580769043e+003,2.7782050781e+003,2.7497436523e+003,2.7347436523e+003,2.4446154785e+003,2.5861538086e+003,2.5943588867e+003,2.6437180176e+003,2.7660256348e+003,
2.9609375000e+000,3.2058974609e+003,2.5878205566e+003,2.7966667480e+003,2.8242307129e+003,2.6247436523e+003,2.8024357910e+003,2.8161538086e+003,2.7769230957e+003,2.7724357910e+003,2.4912819824e+003,2.6523076172e+003,2.6652563477e+003,2.7066667480e+003,2.8279487305e+003,
2.9687500000e+000,3.2560256348e+003,2.6379487305e+003,2.8478205566e+003,2.8689743652e+003,2.6757692871e+003,2.8475642090e+003,2.8619230957e+003,2.8219230957e+003,2.8207692871e+003,2.5417949219e+003,2.7091025391e+003,2.7151281738e+003,2.7566667480e+003,2.8766667480e+003,
2.9765625000e+000,3.3785898438e+003,2.7605129395e+003,2.9702563477e+003,2.9861538086e+003,2.8039743652e+003,2.9630769043e+003,2.9765385742e+003,2.9466667480e+003,2.9478205566e+003,2.6851281738e+003,2.8398718262e+003,2.8389743652e+003,2.8848718262e+003,2.9958974609e+003,
2.9843750000e+000,3.3982050781e+003,2.7932050781e+003,2.9865385742e+003,3.0079487305e+003,2.8075642090e+003,2.9998718262e+003,3.0138461914e+003,3.0062819824e+003,2.9953845215e+003,2.7330769043e+003,2.8633332520e+003,2.8638461914e+003,2.9156411133e+003,3.0165385742e+003,
2.9921875000e+000,3.3871794434e+003,2.7852563477e+003,2.9748718262e+003,2.9966667480e+003,2.8069230957e+003,2.9961538086e+003,3.0134614258e+003,3.0056411133e+003,2.9932050781e+003,2.7275642090e+003,2.8544870605e+003,2.8530769043e+003,2.9085898438e+003,3.0062819824e+003,
3.0000000000e+000,3.3660256348e+003,2.7692307129e+003,2.9512819824e+003,2.9741025391e+003,2.8180769043e+003,2.9894870605e+003,3.0106411133e+003,3.0047436523e+003,2.9885898438e+003,2.7228205566e+003,2.8367949219e+003,2.8388461914e+003,2.8860256348e+003,2.9861538086e+003,
3.0078125000e+000,3.3648718262e+003,2.7701281738e+003,2.9480769043e+003,2.9723076172e+003,2.8275642090e+003,2.9941025391e+003,3.0143588867e+003,3.0093588867e+003,2.9906411133e+003,2.7265385742e+003,2.8369230957e+003,2.8375642090e+003,2.8811538086e+003,2.9837180176e+003,
3.0156250000e+000,3.5433332520e+003,2.9612819824e+003,3.1184614258e+003,3.1575642090e+003,3.0135898438e+003,3.1732050781e+003,3.1910256348e+003,3.1791025391e+003,3.1588461914e+003,2.9073076172e+003,3.0217949219e+003,2.9956411133e+003,3.0697436523e+003,3.1506411133e+003,
3.0234375000e+000,3.6373076172e+003,3.0614101563e+003,3.2128205566e+003,3.2532050781e+003,3.1101281738e+003,3.2633332520e+003,3.2794870605e+003,3.2693588867e+003,3.2496154785e+003,3.0055129395e+003,3.1170512695e+003,3.0888461914e+003,3.1698718262e+003,3.2423076172e+003,
3.0312500000e+000,3.7344870605e+003,3.1683332520e+003,3.3152563477e+003,3.3523076172e+003,3.2129487305e+003,3.3550000000e+003,3.3625642090e+003,3.3682050781e+003,3.3478205566e+003,3.1171794434e+003,3.2191025391e+003,3.1993588867e+003,3.2694870605e+003,3.3432050781e+003,
3.0390625000e+000,3.7256411133e+003,3.1624357910e+003,3.3092307129e+003,3.3475642090e+003,3.2035898438e+003,3.3461538086e+003,3.3497436523e+003,3.3610256348e+003,3.3398718262e+003,3.1126923828e+003,3.2156411133e+003,3.1983332520e+003,3.2597436523e+003,3.3389743652e+003,
3.0468750000e+000,3.7696154785e+003,3.2229487305e+003,3.3610256348e+003,3.4032050781e+003,3.2511538086e+003,3.3932050781e+003,3.3970512695e+003,3.3880769043e+003,3.3652563477e+003,3.1514101563e+003,3.2671794434e+003,3.2523076172e+003,3.3101281738e+003,3.3887180176e+003,
3.0546875000e+000,3.8532050781e+003,3.3161538086e+003,3.4458974609e+003,3.4848718262e+003,3.3420512695e+003,3.4750000000e+003,3.4776923828e+003,3.4643588867e+003,3.4406411133e+003,3.2383332520e+003,3.3488461914e+003,3.3378205566e+003,3.3964101563e+003,3.4706411133e+003,
3.0625000000e+000,3.9333332520e+003,3.4043588867e+003,3.5282050781e+003,3.5638461914e+003,3.4262819824e+003,3.5524357910e+003,3.5524357910e+003,3.5405129395e+003,3.5151281738e+003,3.3261538086e+003,3.4300000000e+003,3.4220512695e+003,3.4780769043e+003,3.5501281738e+003,
3.0703125000e+000,3.9838461914e+003,3.4598718262e+003,3.5834614258e+003,3.6167949219e+003,3.4747436523e+003,3.6011538086e+003,3.5984614258e+003,3.5893588867e+003,3.5621794434e+003,3.3851281738e+003,3.4870512695e+003,3.4785898438e+003,3.5297436523e+003,3.6020512695e+003,
3.0781250000e+000,4.1229487305e+003,3.6189743652e+003,3.7444870605e+003,3.7607692871e+003,3.6265385742e+003,3.7410256348e+003,3.7333332520e+003,3.7178205566e+003,3.6932050781e+003,3.5351281738e+003,3.6576923828e+003,3.6302563477e+003,3.6923076172e+003,3.7519230957e+003,
3.0859375000e+000,4.2400000000e+003,3.7650000000e+003,3.8861538086e+003,3.8953845215e+003,3.7880769043e+003,3.8758974609e+003,3.8735898438e+003,3.8758974609e+003,3.8455129395e+003,3.6975642090e+003,3.8100000000e+003,3.7814101563e+003,3.8252563477e+003,3.8924357910e+003,
3.0937500000e+000,4.2423076172e+003,3.7787180176e+003,3.8898718262e+003,3.9064101563e+003,3.7975642090e+003,3.8878205566e+003,3.8846154785e+003,3.8903845215e+003,3.8608974609e+003,3.7102563477e+003,3.8210256348e+003,3.7912819824e+003,3.8357692871e+003,3.9015385742e+003,
3.1015625000e+000,4.1961538086e+003,3.7506411133e+003,3.8528205566e+003,3.8675642090e+003,3.7742307129e+003,3.8626923828e+003,3.8605129395e+003,3.8716667480e+003,3.8384614258e+003,3.6817949219e+003,3.7793588867e+003,3.7600000000e+003,3.8080769043e+003,3.8692307129e+003,
3.1093750000e+000,4.1810258789e+003,3.7462819824e+003,3.8630769043e+003,3.8803845215e+003,3.7770512695e+003,3.8810256348e+003,3.8882050781e+003,3.9096154785e+003,3.8647436523e+003,3.7053845215e+003,3.7982050781e+003,3.7629487305e+003,3.8138461914e+003,3.8714101563e+003,
3.1171875000e+000,4.1876923828e+003,3.7605129395e+003,3.8689743652e+003,3.8910256348e+003,3.7823076172e+003,3.8912819824e+003,3.8961538086e+003,3.9217949219e+003,3.8784614258e+003,3.7173076172e+003,3.8093588867e+003,3.7725642090e+003,3.8230769043e+003,3.8810256348e+003,
3.1250000000e+000,4.2317949219e+003,3.8130769043e+003,3.9134614258e+003,3.9388461914e+003,3.8330769043e+003,3.9361538086e+003,3.9376923828e+003,3.9652563477e+003,3.9228205566e+003,3.7624357910e+003,3.8488461914e+003,3.8124357910e+003,3.8684614258e+003,3.9258974609e+003,
3.1328125000e+000,4.2950000000e+003,3.8807692871e+003,3.9803845215e+003,4.0083332520e+003,3.9060256348e+003,4.0008974609e+003,4.0008974609e+003,4.0287180176e+003,3.9858974609e+003,3.8308974609e+003,3.9138461914e+003,3.8741025391e+003,3.9351281738e+003,3.9892307129e+003,
3.1406250000e+000,4.3398715820e+003,3.9537180176e+003,4.0393588867e+003,4.0708974609e+003,3.9567949219e+003,4.0600000000e+003,4.0476923828e+003,4.0857692871e+003,4.0457692871e+003,3.9024357910e+003,3.9789743652e+003,3.9471794434e+003,4.0001281738e+003,4.0525642090e+003,
3.1484375000e+000,4.2380771484e+003,3.8566667480e+003,3.9407692871e+003,3.9660256348e+003,3.8443588867e+003,3.9610256348e+003,3.9462819824e+003,3.9823076172e+003,3.9439743652e+003,3.7980769043e+003,3.8779487305e+003,3.8520512695e+003,3.9005129395e+003,3.9566667480e+003,
3.1562500000e+000,4.0706411133e+003,3.6856411133e+003,3.7810256348e+003,3.7958974609e+003,3.6792307129e+003,3.7932050781e+003,3.7833332520e+003,3.7998718262e+003,3.7630769043e+003,3.6165385742e+003,3.7108974609e+003,3.6793588867e+003,3.7316667480e+003,3.7920512695e+003,
3.1640625000e+000,4.0789743652e+003,3.6928205566e+003,3.7942307129e+003,3.8107692871e+003,3.7065385742e+003,3.8003845215e+003,3.7941025391e+003,3.8014101563e+003,3.7644870605e+003,3.6228205566e+003,3.7224357910e+003,3.6857692871e+003,3.7414101563e+003,3.8017949219e+003,
3.1718750000e+000,4.2741025391e+003,3.9050000000e+003,3.9955129395e+003,4.0187180176e+003,3.9251281738e+003,3.9958974609e+003,3.9860256348e+003,3.9937180176e+003,3.9543588867e+003,3.8325642090e+003,3.9262819824e+003,3.8987180176e+003,3.9494870605e+003,4.0101281738e+003,
3.1796875000e+000,4.3067949219e+003,3.9400000000e+003,4.0296154785e+003,4.0485898438e+003,3.9466667480e+003,4.0296154785e+003,4.0175642090e+003,4.0257692871e+003,3.9865385742e+003,3.8687180176e+003,3.9619230957e+003,3.9353845215e+003,3.9829487305e+003,4.0451281738e+003,
3.1875000000e+000,4.3276923828e+003,3.9600000000e+003,4.0538461914e+003,4.0700000000e+003,3.9617949219e+003,4.0515385742e+003,4.0391025391e+003,4.0448718262e+003,4.0066667480e+003,3.8919230957e+003,3.9869230957e+003,3.9579487305e+003,4.0032050781e+003,4.0665385742e+003,
3.1953125000e+000,4.3571796875e+003,3.9905129395e+003,4.0873076172e+003,4.1057690430e+003,3.9974357910e+003,4.0814101563e+003,4.0698718262e+003,4.0725642090e+003,4.0360256348e+003,3.9252563477e+003,4.0211538086e+003,3.9897436523e+003,4.0335898438e+003,4.0958974609e+003,
3.2031250000e+000,4.5229487305e+003,4.1925639648e+003,4.2670512695e+003,4.2871796875e+003,4.1984614258e+003,4.2501284180e+003,4.2402563477e+003,4.2515385742e+003,4.2162822266e+003,4.1234614258e+003,4.2150000000e+003,4.1830771484e+003,4.2292309570e+003,4.2764101563e+003,
3.2109375000e+000,4.5543588867e+003,4.2261538086e+003,4.3048715820e+003,4.3143588867e+003,4.2311538086e+003,4.2867949219e+003,4.2776923828e+003,4.2879487305e+003,4.2519228516e+003,4.1589741211e+003,4.2579487305e+003,4.2173076172e+003,4.2660258789e+003,4.3126923828e+003,
3.2187500000e+000,4.7128203125e+003,4.4057690430e+003,4.4728203125e+003,4.4776923828e+003,4.4079487305e+003,4.4675639648e+003,4.4597436523e+003,4.4791025391e+003,4.4366665039e+003,4.3502563477e+003,4.4470512695e+003,4.3885898438e+003,4.4456411133e+003,4.4855126953e+003,
3.2265625000e+000,4.7893588867e+003,4.5021796875e+003,4.5650000000e+003,4.5565385742e+003,4.4961538086e+003,4.5655126953e+003,4.5591025391e+003,4.5906411133e+003,4.5333334961e+003,4.4473076172e+003,4.5256411133e+003,4.4819228516e+003,4.5338461914e+003,4.5679487305e+003,
3.2343750000e+000,4.8357690430e+003,4.5537177734e+003,4.6166665039e+003,4.6047436523e+003,4.5596152344e+003,4.6203847656e+003,4.6101284180e+003,4.6453847656e+003,4.5857690430e+003,4.5017949219e+003,4.5769228516e+003,4.5300000000e+003,4.5811538086e+003,4.6155126953e+003,
3.2421875000e+000,4.7955126953e+003,4.5464101563e+003,4.5926923828e+003,4.5846152344e+003,4.5600000000e+003,4.6152563477e+003,4.5951284180e+003,4.6524360352e+003,4.5865385742e+003,4.5123076172e+003,4.5761538086e+003,4.5244873047e+003,4.5660258789e+003,4.6074360352e+003,
3.2500000000e+000,4.6441025391e+003,4.4062822266e+003,4.4612822266e+003,4.4426923828e+003,4.4116665039e+003,4.4751284180e+003,4.4626923828e+003,4.5066665039e+003,4.4447436523e+003,4.3657690430e+003,4.4406411133e+003,4.3839741211e+003,4.4371796875e+003,4.4697436523e+003,
3.2578125000e+000,4.6735898438e+003,4.4348715820e+003,4.4930771484e+003,4.4726923828e+003,4.4475639648e+003,4.5016665039e+003,4.4897436523e+003,4.5294873047e+003,4.4710258789e+003,4.3914101563e+003,4.4687177734e+003,4.4121796875e+003,4.4658974609e+003,4.4978203125e+003,
3.2656250000e+000,4.7278203125e+003,4.4848715820e+003,4.5515385742e+003,4.5197436523e+003,4.4952563477e+003,4.5382050781e+003,4.5250000000e+003,4.5715385742e+003,4.5151284180e+003,4.4451284180e+003,4.5237177734e+003,4.4720512695e+003,4.5194873047e+003,4.5630771484e+003,
3.2734375000e+000,4.6875639648e+003,4.4442309570e+003,4.5158974609e+003,4.4793588867e+003,4.4503847656e+003,4.4956411133e+003,4.4812822266e+003,4.5274360352e+003,4.4712822266e+003,4.4057690430e+003,4.4855126953e+003,4.4343588867e+003,4.4833334961e+003,4.5265385742e+003,
3.2812500000e+000,4.6210258789e+003,4.3871796875e+003,4.4571796875e+003,4.4221796875e+003,4.3865385742e+003,4.4333334961e+003,4.4185898438e+003,4.4475639648e+003,4.3946152344e+003,4.3341025391e+003,4.4170512695e+003,4.3724360352e+003,4.4198715820e+003,4.4612822266e+003,
3.2890625000e+000,4.6387177734e+003,4.4137177734e+003,4.4746152344e+003,4.4455126953e+003,4.4066665039e+003,4.4534614258e+003,4.4394873047e+003,4.4579487305e+003,4.4071796875e+003,4.3484614258e+003,4.4330771484e+003,4.3908974609e+003,4.4362822266e+003,4.4784614258e+003,
3.2968750000e+000,4.6952563477e+003,4.4880771484e+003,4.5353847656e+003,4.5105126953e+003,4.4652563477e+003,4.5141025391e+003,4.4933334961e+003,4.5115385742e+003,4.4682050781e+003,4.4153847656e+003,4.5060258789e+003,4.4562822266e+003,4.4979487305e+003,4.5453847656e+003,
3.3046875000e+000,4.6564101563e+003,4.4483334961e+003,4.5024360352e+003,4.4705126953e+003,4.4306411133e+003,4.4767949219e+003,4.4516665039e+003,4.4733334961e+003,4.4326923828e+003,4.3791025391e+003,4.4719228516e+003,4.4210258789e+003,4.4598715820e+003,4.5092309570e+003,
3.3125000000e+000,4.6116665039e+003,4.4015385742e+003,4.4619228516e+003,4.4234614258e+003,4.3943588867e+003,4.4339741211e+003,4.4061538086e+003,4.4283334961e+003,4.3906411133e+003,4.3344873047e+003,4.4274360352e+003,4.3771796875e+003,4.4158974609e+003,4.4641025391e+003,
3.3203125000e+000,4.5742309570e+003,4.3628203125e+003,4.4257690430e+003,4.3853847656e+003,4.3667949219e+003,4.4001284180e+003,4.3716665039e+003,4.3929487305e+003,4.3571796875e+003,4.2976923828e+003,4.3880771484e+003,4.3382050781e+003,4.3819228516e+003,4.4244873047e+003,
3.3281250000e+000,4.3274360352e+003,4.1064101563e+003,4.1848715820e+003,4.1665385742e+003,4.1037177734e+003,4.1844873047e+003,4.1688461914e+003,4.1903847656e+003,4.1479487305e+003,4.0603845215e+003,4.1479487305e+003,4.1015385742e+003,4.1451284180e+003,4.1900000000e+003,
3.3359375000e+000,4.3147436523e+003,4.0915385742e+003,4.1711538086e+003,4.1489741211e+003,4.0893588867e+003,4.1767949219e+003,4.1629487305e+003,4.1841025391e+003,4.1403847656e+003,4.0451281738e+003,4.1320512695e+003,4.0891025391e+003,4.1269228516e+003,4.1769228516e+003,
3.3437500000e+000,4.5751284180e+003,4.3629487305e+003,4.4170512695e+003,4.3879487305e+003,4.3932050781e+003,4.4350000000e+003,4.4216665039e+003,4.4498715820e+003,4.4006411133e+003,4.3102563477e+003,4.3800000000e+003,4.3320512695e+003,4.3938461914e+003,4.4191025391e+003,
3.3515625000e+000,4.8033334961e+003,4.6105126953e+003,4.6529487305e+003,4.6371796875e+003,4.6229487305e+003,4.6658974609e+003,4.6547436523e+003,4.6933334961e+003,4.6370512695e+003,4.5683334961e+003,4.6407690430e+003,4.5720512695e+003,4.6426923828e+003,4.6585898438e+003,
3.3593750000e+000,4.8188461914e+003,4.6307690430e+003,4.6753847656e+003,4.6575639648e+003,4.6330771484e+003,4.6875639648e+003,4.6756411133e+003,4.7180771484e+003,4.6579487305e+003,4.5932050781e+003,4.6660258789e+003,4.5978203125e+003,4.6632050781e+003,4.6810258789e+003,
3.3671875000e+000,4.6535898438e+003,4.4757690430e+003,4.5243588867e+003,4.5017949219e+003,4.4984614258e+003,4.5406411133e+003,4.5219228516e+003,4.5673076172e+003,4.5039741211e+003,4.4384614258e+003,4.5039741211e+003,4.4464101563e+003,4.5105126953e+003,4.5271796875e+003,
3.3750000000e+000,4.4206411133e+003,4.2488461914e+003,4.3032050781e+003,4.2723076172e+003,4.2560258789e+003,4.3116665039e+003,4.2994873047e+003,4.3330771484e+003,4.2807690430e+003,4.1982050781e+003,4.2693588867e+003,4.2338461914e+003,4.2775639648e+003,4.3075639648e+003,
3.3828125000e+000,4.3721796875e+003,4.1982050781e+003,4.2591025391e+003,4.2221796875e+003,4.1962822266e+003,4.2607690430e+003,4.2502563477e+003,4.2783334961e+003,4.2294873047e+003,4.1446152344e+003,4.2207690430e+003,4.1903847656e+003,4.2324360352e+003,4.2628203125e+003,
3.3906250000e+000,4.3771796875e+003,4.1930771484e+003,4.2553847656e+003,4.2197436523e+003,4.2008974609e+003,4.2488461914e+003,4.2373076172e+003,4.2498715820e+003,4.2111538086e+003,4.1364101563e+003,4.2262822266e+003,4.1847436523e+003,4.2453847656e+003,4.2629487305e+003,
3.3984375000e+000,4.4325639648e+003,4.2485898438e+003,4.3085898438e+003,4.2726923828e+003,4.2550000000e+003,4.2997436523e+003,4.2884614258e+003,4.2975639648e+003,4.2615385742e+003,4.1917949219e+003,4.2806411133e+003,4.2392309570e+003,4.2996152344e+003,4.3162822266e+003,
3.4062500000e+000,4.5507690430e+003,4.3706411133e+003,4.4285898438e+003,4.3875639648e+003,4.3670512695e+003,4.4132050781e+003,4.3983334961e+003,4.4084614258e+003,4.3764101563e+003,4.3120512695e+003,4.3943588867e+003,4.3602563477e+003,4.4162822266e+003,4.4328203125e+003,
3.4140625000e+000,4.5852563477e+003,4.4070512695e+003,4.4628203125e+003,4.4220512695e+003,4.4048715820e+003,4.4467949219e+003,4.4274360352e+003,4.4415385742e+003,4.4111538086e+003,4.3465385742e+003,4.4279487305e+003,4.3946152344e+003,4.4508974609e+003,4.4665385742e+003,
3.4218750000e+000,4.6579487305e+003,4.4888461914e+003,4.5346152344e+003,4.4903847656e+003,4.4983334961e+003,4.5243588867e+003,4.5020512695e+003,4.5225639648e+003,4.4915385742e+003,4.4250000000e+003,4.5039741211e+003,4.4747436523e+003,4.5206411133e+003,4.5414101563e+003,
3.4296875000e+000,4.7010258789e+003,4.5348715820e+003,4.5826923828e+003,4.5293588867e+003,4.5421796875e+003,4.5720512695e+003,4.5524360352e+003,4.5743588867e+003,4.5401284180e+003,4.4758974609e+003,4.5501284180e+003,4.5233334961e+003,4.5639741211e+003,4.5869228516e+003,
