Time (s);AF3;F7;F3;FC5;T7;P7;O1;O2;P8;T8;FC6;F4;F8;AF4;Sampling Rate
0.0000000000e+000;3.6155129395e+003;3.6087180176e+003;3.6416667480e+003;3.6662819824e+003;3.6211538086e+003;3.6614101563e+003;3.6448718262e+003;3.6173076172e+003;3.6155129395e+003;3.6016667480e+003;3.6296154785e+003;3.6425642090e+003;3.6374357910e+003;3.6402563477e+003;128
7.8125000000e-003;3.6453845215e+003;3.6355129395e+003;3.6705129395e+003;3.6921794434e+003;3.6469230957e+003;3.6878205566e+003;3.6678205566e+003;3.6448718262e+003;3.6461538086e+003;3.6335898438e+003;3.6566667480e+003;3.6737180176e+003;3.6614101563e+003;3.6664101563e+003;
1.5625000000e-002;3.6488461914e+003;3.6338461914e+003;3.6674357910e+003;3.6921794434e+003;3.6602563477e+003;3.6821794434e+003;3.6657692871e+003;3.6642307129e+003;3.6720512695e+003;3.6551281738e+003;3.6728205566e+003;3.6762819824e+003;3.6761538086e+003;3.6730769043e+003;
2.3437500000e-002;3.6492307129e+003;3.6361538086e+003;3.6652563477e+003;3.6950000000e+003;3.6708974609e+003;3.6842307129e+003;3.6658974609e+003;3.6730769043e+003;3.6803845215e+003;3.6625642090e+003;3.6720512695e+003;3.6764101563e+003;3.6756411133e+003;3.6746154785e+003;
3.1250000000e-002;3.6083332520e+003;3.6212819824e+003;3.6284614258e+003;3.6869230957e+003;3.6515385742e+003;3.6767949219e+003;3.6543588867e+003;3.6519230957e+003;3.6603845215e+003;3.6311538086e+003;3.6351281738e+003;3.6420512695e+003;3.6469230957e+003;3.6376923828e+003;
3.9062500000e-002;3.6224357910e+003;3.6402563477e+003;3.6414101563e+003;3.6914101563e+003;3.6635898438e+003;3.6991025391e+003;3.6774357910e+003;3.6784614258e+003;3.6852563477e+003;3.6571794434e+003;3.6630769043e+003;3.6633332520e+003;3.6679487305e+003;3.6598718262e+003;
4.6875000000e-002;3.5757692871e+003;3.5883332520e+003;3.5961538086e+003;3.6452563477e+003;3.6169230957e+003;3.6557692871e+003;3.6320512695e+003;3.6308974609e+003;3.6343588867e+003;3.6073076172e+003;3.6148718262e+003;3.6166667480e+003;3.6148718262e+003;3.6125642090e+003;
5.4687500000e-002;3.6008974609e+003;3.6087180176e+003;3.6208974609e+003;3.6732050781e+003;3.6374357910e+003;3.6730769043e+003;3.6511538086e+003;3.6462819824e+003;3.6474357910e+003;3.6289743652e+003;3.6329487305e+003;3.6371794434e+003;3.6389743652e+003;3.6316667480e+003;
6.2500000000e-002;3.5458974609e+003;3.5533332520e+003;3.5729487305e+003;3.6129487305e+003;3.5773076172e+003;3.6258974609e+003;3.6008974609e+003;3.5855129395e+003;3.5756411133e+003;3.5621794434e+003;3.5803845215e+003;3.5884614258e+003;3.5902563477e+003;3.5841025391e+003;
7.0312500000e-002;3.5708974609e+003;3.5737180176e+003;3.5956411133e+003;3.6347436523e+003;3.5919230957e+003;3.6438461914e+003;3.6208974609e+003;3.6060256348e+003;3.5924357910e+003;3.5825642090e+003;3.6033332520e+003;3.6128205566e+003;3.6128205566e+003;3.6087180176e+003;
7.8125000000e-002;3.5814101563e+003;3.5788461914e+003;3.6030769043e+003;3.6441025391e+003;3.5892307129e+003;3.6475642090e+003;3.6258974609e+003;3.6135898438e+003;3.5988461914e+003;3.5914101563e+003;3.6103845215e+003;3.6243588867e+003;3.6193588867e+003;3.6184614258e+003;
8.5937500000e-002;3.5464101563e+003;3.5441025391e+003;3.5651281738e+003;3.6125642090e+003;3.5491025391e+003;3.6107692871e+003;3.5898718262e+003;3.5726923828e+003;3.5619230957e+003;3.5535898438e+003;3.5710256348e+003;3.5951281738e+003;3.5775642090e+003;3.5830769043e+003;
9.3750000000e-002;3.6451281738e+003;3.6511538086e+003;3.6612819824e+003;3.7048718262e+003;3.6794870605e+003;3.6912819824e+003;3.6744870605e+003;3.6608974609e+003;3.6579487305e+003;3.6594870605e+003;3.6857692871e+003;3.6937180176e+003;3.6862819824e+003;3.6829487305e+003;
1.0156250000e-001;3.6252563477e+003;3.6265385742e+003;3.6434614258e+003;3.6832050781e+003;3.6551281738e+003;3.6683332520e+003;3.6510256348e+003;3.6410256348e+003;3.6412819824e+003;3.6403845215e+003;3.6673076172e+003;3.6720512695e+003;3.6666667480e+003;3.6614101563e+003;
1.0937500000e-001;3.6051281738e+003;3.6006411133e+003;3.6247436523e+003;3.6606411133e+003;3.6237180176e+003;3.6466667480e+003;3.6300000000e+003;3.6194870605e+003;3.6242307129e+003;3.6162819824e+003;3.6419230957e+003;3.6471794434e+003;3.6425642090e+003;3.6370512695e+003;
1.1718750000e-001;3.7270512695e+003;3.7185898438e+003;3.7426923828e+003;3.7719230957e+003;3.7308974609e+003;3.7544870605e+003;3.7457692871e+003;3.7411538086e+003;3.7532050781e+003;3.7384614258e+003;3.7528205566e+003;3.7597436523e+003;3.7575642090e+003;3.7506411133e+003;
1.2500000000e-001;3.8006411133e+003;3.7943588867e+003;3.8147436523e+003;3.8432050781e+003;3.8075642090e+003;3.8212819824e+003;3.8165385742e+003;3.8219230957e+003;3.8347436523e+003;3.8233332520e+003;3.8287180176e+003;3.8346154785e+003;3.8337180176e+003;3.8251281738e+003;
1.3281250000e-001;3.8108974609e+003;3.8074357910e+003;3.8257692871e+003;3.8552563477e+003;3.8246154785e+003;3.8314101563e+003;3.8284614258e+003;3.8412819824e+003;3.8535898438e+003;3.8453845215e+003;3.8439743652e+003;3.8480769043e+003;3.8485898438e+003;3.8382050781e+003;
1.4062500000e-001;3.6830769043e+003;3.6847436523e+003;3.6996154785e+003;3.7284614258e+003;3.6914101563e+003;3.7343588867e+003;3.7162819824e+003;3.7257692871e+003;3.7357692871e+003;3.7184614258e+003;3.7146154785e+003;3.7211538086e+003;3.7075642090e+003;3.7091025391e+003;
1.4843750000e-001;3.6417949219e+003;3.6419230957e+003;3.6574357910e+003;3.6948718262e+003;3.6541025391e+003;3.6994870605e+003;3.6798718262e+003;3.6843588867e+003;3.6916667480e+003;3.6706411133e+003;3.6700000000e+003;3.6797436523e+003;3.6644870605e+003;3.6685898438e+003;
1.5625000000e-001;3.7524357910e+003;3.7455129395e+003;3.7597436523e+003;3.7891025391e+003;3.7519230957e+003;3.7880769043e+003;3.7824357910e+003;3.7779487305e+003;3.7791025391e+003;3.7676923828e+003;3.7694870605e+003;3.7719230957e+003;3.7765385742e+003;3.7741025391e+003;
1.6406250000e-001;3.7470512695e+003;3.7421794434e+003;3.7539743652e+003;3.7826923828e+003;3.7517949219e+003;3.7878205566e+003;3.7803845215e+003;3.7643588867e+003;3.7619230957e+003;3.7542307129e+003;3.7614101563e+003;3.7597436523e+003;3.7584614258e+003;3.7632050781e+003;
1.7187500000e-001;3.7865385742e+003;3.7844870605e+003;3.7893588867e+003;3.8207692871e+003;3.7992307129e+003;3.8217949219e+003;3.8150000000e+003;3.7966667480e+003;3.7924357910e+003;3.7882050781e+003;3.7961538086e+003;3.7953845215e+003;3.7973076172e+003;3.8001281738e+003;
1.7968750000e-001;3.7623076172e+003;3.7633332520e+003;3.7710256348e+003;3.7960256348e+003;3.7739743652e+003;3.7889743652e+003;3.7796154785e+003;3.7687180176e+003;3.7594870605e+003;3.7658974609e+003;3.7747436523e+003;3.7887180176e+003;3.7835898438e+003;3.7851281738e+003;
1.8750000000e-001;3.7717949219e+003;3.7733332520e+003;3.7769230957e+003;3.8094870605e+003;3.7792307129e+003;3.7955129395e+003;3.7857692871e+003;3.7666667480e+003;3.7702563477e+003;3.7797436523e+003;3.7958974609e+003;3.8006411133e+003;3.7952563477e+003;3.7942307129e+003;
1.9531250000e-001;3.7596154785e+003;3.7630769043e+003;3.7637180176e+003;3.7979487305e+003;3.7691025391e+003;3.7829487305e+003;3.7696154785e+003;3.7551281738e+003;3.7635898438e+003;3.7748718262e+003;3.7853845215e+003;3.7900000000e+003;3.7865385742e+003;3.7828205566e+003;
2.0312500000e-001;3.7160256348e+003;3.7210256348e+003;3.7223076172e+003;3.7565385742e+003;3.7270512695e+003;3.7416667480e+003;3.7248718262e+003;3.7134614258e+003;3.7246154785e+003;3.7352563477e+003;3.7415385742e+003;3.7485898438e+003;3.7460256348e+003;3.7417949219e+003;
2.1093750000e-001;3.7003845215e+003;3.6989743652e+003;3.7137180176e+003;3.7367949219e+003;3.7007692871e+003;3.7166667480e+003;3.7033332520e+003;3.6980769043e+003;3.7121794434e+003;3.7157692871e+003;3.7228205566e+003;3.7333332520e+003;3.7284614258e+003;3.7307692871e+003;
2.1875000000e-001;3.7133332520e+003;3.7006411133e+003;3.7347436523e+003;3.7455129395e+003;3.6865385742e+003;3.7107692871e+003;3.7039743652e+003;3.7141025391e+003;3.7294870605e+003;3.7288461914e+003;3.7296154785e+003;3.7515385742e+003;3.7314101563e+003;3.7412819824e+003;
2.2656250000e-001;3.7117949219e+003;3.7064101563e+003;3.7315385742e+003;3.7487180176e+003;3.6932050781e+003;3.7117949219e+003;3.7052563477e+003;3.7141025391e+003;3.7288461914e+003;3.7270512695e+003;3.7276923828e+003;3.7496154785e+003;3.7294870605e+003;3.7379487305e+003;
2.3437500000e-001;3.7473076172e+003;3.7494870605e+003;3.7617949219e+003;3.7848718262e+003;3.7441025391e+003;3.7488461914e+003;3.7435898438e+003;3.7532050781e+003;3.7673076172e+003;3.7648718262e+003;3.7665385742e+003;3.7825642090e+003;3.7658974609e+003;3.7735898438e+003;
2.4218750000e-001;3.7839743652e+003;3.7847436523e+003;3.7900000000e+003;3.8150000000e+003;3.8012819824e+003;3.7939743652e+003;3.7867949219e+003;3.8046154785e+003;3.8164101563e+003;3.8103845215e+003;3.8125642090e+003;3.8142307129e+003;3.8033332520e+003;3.8130769043e+003;
2.5000000000e-001;3.7415385742e+003;3.7366667480e+003;3.7471794434e+003;3.7729487305e+003;3.7566667480e+003;3.7623076172e+003;3.7507692871e+003;3.7666667480e+003;3.7765385742e+003;3.7667949219e+003;3.7678205566e+003;3.7685898438e+003;3.7593588867e+003;3.7673076172e+003;
2.5781250000e-001;3.7080769043e+003;3.7011538086e+003;3.7135898438e+003;3.7420512695e+003;3.7180769043e+003;3.7388461914e+003;3.7241025391e+003;3.7328205566e+003;3.7419230957e+003;3.7292307129e+003;3.7279487305e+003;3.7312819824e+003;3.7247436523e+003;3.7273076172e+003;
2.6562500000e-001;3.7000000000e+003;3.7043588867e+003;3.7134614258e+003;3.7455129395e+003;3.7200000000e+003;3.7478205566e+003;3.7411538086e+003;3.7278205566e+003;3.7358974609e+003;3.7260256348e+003;3.7185898438e+003;3.7329487305e+003;3.7234614258e+003;3.7278205566e+003;
2.7343750000e-001;3.7235898438e+003;3.7251281738e+003;3.7347436523e+003;3.7679487305e+003;3.7366667480e+003;3.7671794434e+003;3.7610256348e+003;3.7428205566e+003;3.7480769043e+003;3.7411538086e+003;3.7365385742e+003;3.7519230957e+003;3.7432050781e+003;3.7471794434e+003;
2.8125000000e-001;3.7241025391e+003;3.7160256348e+003;3.7347436523e+003;3.7584614258e+003;3.7265385742e+003;3.7602563477e+003;3.7506411133e+003;3.7315385742e+003;3.7270512695e+003;3.7364101563e+003;3.7338461914e+003;3.7538461914e+003;3.7394870605e+003;3.7471794434e+003;
2.8906250000e-001;3.7430769043e+003;3.7396154785e+003;3.7460256348e+003;3.7798718262e+003;3.7396154785e+003;3.7683332520e+003;3.7608974609e+003;3.7280769043e+003;3.7273076172e+003;3.7391025391e+003;3.7478205566e+003;3.7635898438e+003;3.7541025391e+003;3.7642307129e+003;
2.9687500000e-001;3.7601281738e+003;3.7596154785e+003;3.7605129395e+003;3.7983332520e+003;3.7534614258e+003;3.7810256348e+003;3.7710256348e+003;3.7439743652e+003;3.7455129395e+003;3.7576923828e+003;3.7697436523e+003;3.7820512695e+003;3.7714101563e+003;3.7800000000e+003;
3.0468750000e-001;3.7039743652e+003;3.6934614258e+003;3.7094870605e+003;3.7361538086e+003;3.7108974609e+003;3.7184614258e+003;3.7108974609e+003;3.6833332520e+003;3.6878205566e+003;3.6953845215e+003;3.7196154785e+003;3.7288461914e+003;3.7156411133e+003;3.7235898438e+003;
3.1250000000e-001;3.7298718262e+003;3.7197436523e+003;3.7337180176e+003;3.7608974609e+003;3.7405129395e+003;3.7358974609e+003;3.7325642090e+003;3.7106411133e+003;3.7162819824e+003;3.7238461914e+003;3.7412819824e+003;3.7547436523e+003;3.7430769043e+003;3.7494870605e+003;
3.2031250000e-001;3.7143588867e+003;3.7155129395e+003;3.7155129395e+003;3.7567949219e+003;3.7191025391e+003;3.7162819824e+003;3.7102563477e+003;3.7114101563e+003;3.7228205566e+003;3.7238461914e+003;3.7233332520e+003;3.7444870605e+003;3.7298718262e+003;3.7339743652e+003;
3.2812500000e-001;3.7034614258e+003;3.7094870605e+003;3.7047436523e+003;3.7487180176e+003;3.7044870605e+003;3.7074357910e+003;3.6996154785e+003;3.7051281738e+003;3.7207692871e+003;3.7169230957e+003;3.7147436523e+003;3.7323076172e+003;3.7191025391e+003;3.7212819824e+003;
3.3593750000e-001;3.8473076172e+003;3.8561538086e+003;3.8514101563e+003;3.8757692871e+003;3.8539743652e+003;3.8475642090e+003;3.8444870605e+003;3.8603845215e+003;3.8778205566e+003;3.8775642090e+003;3.8700000000e+003;3.8698718262e+003;3.8725642090e+003;3.8670512695e+003;
3.4375000000e-001;3.8275642090e+003;3.8369230957e+003;3.8337180176e+003;3.8589743652e+003;3.8350000000e+003;3.8378205566e+003;3.8342307129e+003;3.8521794434e+003;3.8664101563e+003;3.8651281738e+003;3.8516667480e+003;3.8543588867e+003;3.8565385742e+003;3.8508974609e+003;
3.5156250000e-001;3.8053845215e+003;3.8121794434e+003;3.8097436523e+003;3.8411538086e+003;3.8129487305e+003;3.8350000000e+003;3.8330769043e+003;3.8407692871e+003;3.8510256348e+003;3.8428205566e+003;3.8228205566e+003;3.8317949219e+003;3.8329487305e+003;3.8257692871e+003;
3.5937500000e-001;3.8575642090e+003;3.8606411133e+003;3.8608974609e+003;3.8879487305e+003;3.8679487305e+003;3.8875642090e+003;3.8867949219e+003;3.8920512695e+003;3.9017949219e+003;3.8946154785e+003;3.8719230957e+003;3.8806411133e+003;3.8826923828e+003;3.8753845215e+003;
3.6718750000e-001;3.8734614258e+003;3.8811538086e+003;3.8821794434e+003;3.9014101563e+003;3.8864101563e+003;3.9128205566e+003;3.9056411133e+003;3.9064101563e+003;3.9119230957e+003;3.9111538086e+003;3.8952563477e+003;3.8928205566e+003;3.8971794434e+003;3.8944870605e+003;
3.7500000000e-001;3.8852563477e+003;3.8994870605e+003;3.8883332520e+003;3.9142307129e+003;3.8962819824e+003;3.9247436523e+003;3.9169230957e+003;3.9125642090e+003;3.9173076172e+003;3.9175642090e+003;3.9089743652e+003;3.8992307129e+003;3.9097436523e+003;3.9033332520e+003;
3.8281250000e-001;3.9307692871e+003;3.9480769043e+003;3.9265385742e+003;3.9575642090e+003;3.9428205566e+003;3.9655129395e+003;3.9584614258e+003;3.9528205566e+003;3.9578205566e+003;3.9606411133e+003;3.9550000000e+003;3.9406411133e+003;3.9573076172e+003;3.9453845215e+003;
3.9062500000e-001;3.9621794434e+003;3.9771794434e+003;3.9551281738e+003;3.9860256348e+003;3.9791025391e+003;3.9932050781e+003;3.9869230957e+003;3.9819230957e+003;3.9874357910e+003;3.9941025391e+003;3.9861538086e+003;3.9728205566e+003;3.9911538086e+003;3.9755129395e+003;
3.9843750000e-001;3.9132050781e+003;3.9207692871e+003;3.9142307129e+003;3.9289743652e+003;3.9383332520e+003;3.9462819824e+003;3.9392307129e+003;3.9132050781e+003;3.9188461914e+003;3.9371794434e+003;3.9333332520e+003;3.9332050781e+003;3.9334614258e+003;3.9308974609e+003;
4.0625000000e-001;3.9380769043e+003;3.9425642090e+003;3.9343588867e+003;3.9639743652e+003;3.9417949219e+003;3.9464101563e+003;3.9415385742e+003;3.9202563477e+003;3.9208974609e+003;3.9408974609e+003;3.9361538086e+003;3.9552563477e+003;3.9425642090e+003;3.9453845215e+003;
4.1406250000e-001;3.9812819824e+003;3.9832050781e+003;3.9776923828e+003;3.9988461914e+003;3.9816667480e+003;3.9793588867e+003;3.9803845215e+003;3.9608974609e+003;3.9638461914e+003;3.9828205566e+003;3.9769230957e+003;3.9969230957e+003;3.9800000000e+003;3.9855129395e+003;
4.2187500000e-001;4.0165385742e+003;4.0215385742e+003;4.0150000000e+003;4.0208974609e+003;4.0106411133e+003;4.0038461914e+003;4.0151281738e+003;4.0078205566e+003;4.0132050781e+003;4.0294870605e+003;4.0221794434e+003;4.0366667480e+003;4.0117949219e+003;4.0280769043e+003;
4.2968750000e-001;4.3610258789e+003;4.3611538086e+003;4.3496152344e+003;4.3407690430e+003;4.3506411133e+003;4.3041025391e+003;4.3334614258e+003;4.3485898438e+003;4.3588461914e+003;4.3806411133e+003;4.3565385742e+003;4.3569228516e+003;4.3619228516e+003;4.3565385742e+003;
4.3750000000e-001;4.3944873047e+003;4.3924360352e+003;4.3830771484e+003;4.3708974609e+003;4.3829487305e+003;4.3400000000e+003;4.3639741211e+003;4.3896152344e+003;4.4011538086e+003;4.4232050781e+003;4.3903847656e+003;4.3928203125e+003;4.3955126953e+003;4.3885898438e+003;
4.4531250000e-001;4.3261538086e+003;4.3319228516e+003;4.3166665039e+003;4.3096152344e+003;4.3292309570e+003;4.3002563477e+003;4.3125639648e+003;4.3376923828e+003;4.3500000000e+003;4.3664101563e+003;4.3307690430e+003;4.3324360352e+003;4.3326923828e+003;4.3297436523e+003;
4.5312500000e-001;4.3160258789e+003;4.3267949219e+003;4.3066665039e+003;4.2994873047e+003;4.3251284180e+003;4.2982050781e+003;4.3087177734e+003;4.3312822266e+003;4.3442309570e+003;4.3605126953e+003;4.3278203125e+003;4.3229487305e+003;4.3293588867e+003;4.3247436523e+003;
4.6093750000e-001;4.1892309570e+003;4.1983334961e+003;4.1879487305e+003;4.1741025391e+003;4.1900000000e+003;4.1879487305e+003;4.1906411133e+003;4.2073076172e+003;4.2200000000e+003;4.2365385742e+003;4.2101284180e+003;4.1958974609e+003;4.2103847656e+003;4.1933334961e+003;
4.6875000000e-001;4.1566665039e+003;4.1648715820e+003;4.1542309570e+003;4.1484614258e+003;4.1623076172e+003;4.1624360352e+003;4.1637177734e+003;4.1710258789e+003;4.1833334961e+003;4.1973076172e+003;4.1729487305e+003;4.1607690430e+003;4.1717949219e+003;4.1548715820e+003;
4.7656250000e-001;4.2088461914e+003;4.2176923828e+003;4.1996152344e+003;4.2067949219e+003;4.2356411133e+003;4.2196152344e+003;4.2233334961e+003;4.2242309570e+003;4.2335898438e+003;4.2483334961e+003;4.2192309570e+003;4.2142309570e+003;4.2123076172e+003;4.2038461914e+003;
4.8437500000e-001;4.2052563477e+003;4.2130771484e+003;4.1979487305e+003;4.2029487305e+003;4.2382050781e+003;4.2207690430e+003;4.2250000000e+003;4.2274360352e+003;4.2326923828e+003;4.2480771484e+003;4.2144873047e+003;4.2156411133e+003;4.2062822266e+003;4.2024360352e+003;
4.9218750000e-001;4.2014101563e+003;4.2062822266e+003;4.2016665039e+003;4.1956411133e+003;4.2246152344e+003;4.2157690430e+003;4.2276923828e+003;4.2150000000e+003;4.2114101563e+003;4.2269228516e+003;4.2017949219e+003;4.2062822266e+003;4.2029487305e+003;4.1955126953e+003;
5.0000000000e-001;4.2532050781e+003;4.2569228516e+003;4.2519228516e+003;4.2407690430e+003;4.2675639648e+003;4.2548715820e+003;4.2691025391e+003;4.2556411133e+003;4.2529487305e+003;4.2735898438e+003;4.2539741211e+003;4.2547436523e+003;4.2553847656e+003;4.2466665039e+003;
5.0781250000e-001;4.2705126953e+003;4.2714101563e+003;4.2701284180e+003;4.2508974609e+003;4.2755126953e+003;4.2623076172e+003;4.2757690430e+003;4.2637177734e+003;4.2617949219e+003;4.2875639648e+003;4.2729487305e+003;4.2730771484e+003;4.2717949219e+003;4.2653847656e+003;
5.1562500000e-001;4.2561538086e+003;4.2538461914e+003;4.2592309570e+003;4.2315385742e+003;4.2533334961e+003;4.2425639648e+003;4.2550000000e+003;4.2420512695e+003;4.2397436523e+003;4.2680771484e+003;4.2584614258e+003;4.2610258789e+003;4.2548715820e+003;4.2520512695e+003;
5.2343750000e-001;4.3997436523e+003;4.4035898438e+003;4.3941025391e+003;4.3779487305e+003;4.3906411133e+003;4.3538461914e+003;4.3778203125e+003;4.3757690430e+003;4.3739741211e+003;4.4106411133e+003;4.3950000000e+003;4.4014101563e+003;4.3982050781e+003;4.3917949219e+003;
5.3125000000e-001;4.3491025391e+003;4.3541025391e+003;4.3424360352e+003;4.3289741211e+003;4.3364101563e+003;4.3043588867e+003;4.3262822266e+003;4.3301284180e+003;4.3273076172e+003;4.3641025391e+003;4.3461538086e+003;4.3543588867e+003;4.3471796875e+003;4.3438461914e+003;
5.3906250000e-001;4.2366665039e+003;4.2282050781e+003;4.2407690430e+003;4.2137177734e+003;4.2174360352e+003;4.2001284180e+003;4.2238461914e+003;4.2294873047e+003;4.2250000000e+003;4.2501284180e+003;4.2370512695e+003;4.2494873047e+003;4.2323076172e+003;4.2389741211e+003;
5.4687500000e-001;4.1962822266e+003;4.2015385742e+003;4.1974360352e+003;4.1893588867e+003;4.1939741211e+003;4.1757690430e+003;4.1956411133e+003;4.2010258789e+003;4.2046152344e+003;4.2176923828e+003;4.2101284180e+003;4.2119228516e+003;4.2026923828e+003;4.2051284180e+003;
5.5468750000e-001;4.1939741211e+003;4.2038461914e+003;4.1907690430e+003;4.1823076172e+003;4.1871796875e+003;4.1741025391e+003;4.1905126953e+003;4.1965385742e+003;4.2038461914e+003;4.2142309570e+003;4.2073076172e+003;4.2043588867e+003;4.2026923828e+003;4.1991025391e+003;
5.6250000000e-001;4.1041025391e+003;4.1044873047e+003;4.1105126953e+003;4.0967949219e+003;4.0996152344e+003;4.0998715820e+003;4.1044873047e+003;4.1170512695e+003;4.1253847656e+003;4.1342309570e+003;4.1169228516e+003;4.1188461914e+003;4.1165385742e+003;4.1119228516e+003;
5.7031250000e-001;4.0523076172e+003;4.0580769043e+003;4.0564101563e+003;4.0551281738e+003;4.0728205566e+003;4.0610256348e+003;4.0660256348e+003;4.0633332520e+003;4.0647436523e+003;4.0785898438e+003;4.0673076172e+003;4.0712819824e+003;4.0697436523e+003;4.0688461914e+003;
5.7812500000e-001;4.0437180176e+003;4.0479487305e+003;4.0478205566e+003;4.0462819824e+003;4.0576923828e+003;4.0530769043e+003;4.0567949219e+003;4.0556411133e+003;4.0556411133e+003;4.0684614258e+003;4.0601281738e+003;4.0633332520e+003;4.0597436523e+003;4.0611538086e+003;
5.8593750000e-001;3.9870512695e+003;3.9803845215e+003;3.9994870605e+003;3.9902563477e+003;3.9837180176e+003;4.0026923828e+003;4.0044870605e+003;3.9892307129e+003;3.9848718262e+003;3.9915385742e+003;3.9961538086e+003;4.0055129395e+003;3.9864101563e+003;4.0011538086e+003;
5.9375000000e-001;4.0260256348e+003;4.0203845215e+003;4.0358974609e+003;4.0220512695e+003;4.0247436523e+003;4.0344870605e+003;4.0383332520e+003;4.0232050781e+003;4.0164101563e+003;4.0280769043e+003;4.0316667480e+003;4.0448718262e+003;4.0251281738e+003;4.0408974609e+003;
6.0156250000e-001;4.0223076172e+003;4.0202563477e+003;4.0285898438e+003;4.0183332520e+003;4.0219230957e+003;4.0211538086e+003;4.0241025391e+003;4.0133332520e+003;4.0043588867e+003;4.0229487305e+003;4.0226923828e+003;4.0452563477e+003;4.0266667480e+003;4.0387180176e+003;
6.0937500000e-001;4.0014101563e+003;3.9989743652e+003;4.0078205566e+003;4.0048718262e+003;3.9991025391e+003;3.9983332520e+003;4.0008974609e+003;3.9853845215e+003;3.9796154785e+003;3.9955129395e+003;3.9980769043e+003;4.0211538086e+003;4.0060256348e+003;4.0143588867e+003;
6.1718750000e-001;4.1032050781e+003;4.0925642090e+003;4.1061538086e+003;4.1033334961e+003;4.0921794434e+003;4.0823076172e+003;4.0903845215e+003;4.0755129395e+003;4.0815385742e+003;4.0933332520e+003;4.1019228516e+003;4.1082050781e+003;4.1050000000e+003;4.1102563477e+003;
6.2500000000e-001;4.0843588867e+003;4.0730769043e+003;4.0876923828e+003;4.0820512695e+003;4.0724357910e+003;4.0646154785e+003;4.0729487305e+003;4.0639743652e+003;4.0688461914e+003;4.0810256348e+003;4.0875642090e+003;4.0935898438e+003;4.0878205566e+003;4.0942307129e+003;
6.3281250000e-001;4.0515385742e+003;4.0432050781e+003;4.0551281738e+003;4.0502563477e+003;4.0412819824e+003;4.0360256348e+003;4.0461538086e+003;4.0393588867e+003;4.0419230957e+003;4.0529487305e+003;4.0570512695e+003;4.0660256348e+003;4.0579487305e+003;4.0632050781e+003;
6.4062500000e-001;4.0530769043e+003;4.0498718262e+003;4.0565385742e+003;4.0528205566e+003;4.0446154785e+003;4.0397436523e+003;4.0541025391e+003;4.0482050781e+003;4.0488461914e+003;4.0585898438e+003;4.0589743652e+003;4.0706411133e+003;4.0632050781e+003;4.0648718262e+003;
6.4843750000e-001;4.0162819824e+003;4.0128205566e+003;4.0307692871e+003;4.0178205566e+003;4.0071794434e+003;4.0233332520e+003;4.0339743652e+003;4.0402563477e+003;4.0392307129e+003;4.0369230957e+003;4.0270512695e+003;4.0358974609e+003;4.0312819824e+003;4.0287180176e+003;
6.5625000000e-001;4.0029487305e+003;4.0019230957e+003;4.0137180176e+003;4.0092307129e+003;4.0079487305e+003;4.0121794434e+003;4.0211538086e+003;4.0241025391e+003;4.0241025391e+003;4.0194870605e+003;4.0092307129e+003;4.0194870605e+003;4.0175642090e+003;4.0141025391e+003;
6.6406250000e-001;4.0638461914e+003;4.0769230957e+003;4.0635898438e+003;4.0674357910e+003;4.0911538086e+003;4.0644870605e+003;4.0703845215e+003;4.0810256348e+003;4.0848718262e+003;4.0879487305e+003;4.0682050781e+003;4.0803845215e+003;4.0873076172e+003;4.0812819824e+003;
6.7187500000e-001;4.0028205566e+003;4.0076923828e+003;4.0057692871e+003;4.0062819824e+003;4.0194870605e+003;4.0203845215e+003;4.0176923828e+003;4.0208974609e+003;4.0232050781e+003;4.0176923828e+003;4.0160256348e+003;4.0173076172e+003;4.0229487305e+003;4.0187180176e+003;
6.7968750000e-001;4.0064101563e+003;4.0083332520e+003;4.0079487305e+003;4.0151281738e+003;4.0257692871e+003;4.0247436523e+003;4.0217949219e+003;4.0252563477e+003;4.0264101563e+003;4.0206411133e+003;4.0180769043e+003;4.0224357910e+003;4.0234614258e+003;4.0196154785e+003;
6.8750000000e-001;3.9301281738e+003;3.9356411133e+003;3.9356411133e+003;3.9512819824e+003;3.9556411133e+003;3.9587180176e+003;3.9565385742e+003;3.9428205566e+003;3.9392307129e+003;3.9343588867e+003;3.9283332520e+003;3.9458974609e+003;3.9482050781e+003;3.9412819824e+003;
6.9531250000e-001;3.9565385742e+003;3.9670512695e+003;3.9606411133e+003;3.9650000000e+003;3.9775642090e+003;3.9774357910e+003;3.9742307129e+003;3.9591025391e+003;3.9512819824e+003;3.9547436523e+003;3.9596154785e+003;3.9711538086e+003;3.9679487305e+003;3.9589743652e+003;
7.0312500000e-001;3.9288461914e+003;3.9379487305e+003;3.9326923828e+003;3.9420512695e+003;3.9519230957e+003;3.9502563477e+003;3.9487180176e+003;3.9302563477e+003;3.9219230957e+003;3.9244870605e+003;3.9296154785e+003;3.9452563477e+003;3.9364101563e+003;3.9270512695e+003;
7.1093750000e-001;4.0225642090e+003;4.0276923828e+003;4.0244870605e+003;4.0334614258e+003;4.0247436523e+003;4.0238461914e+003;4.0315385742e+003;4.0164101563e+003;4.0110256348e+003;4.0161538086e+003;4.0161538086e+003;4.0342307129e+003;4.0298718262e+003;4.0166667480e+003;
7.1875000000e-001;4.0148718262e+003;4.0198718262e+003;4.0194870605e+003;4.0251281738e+003;4.0114101563e+003;4.0165385742e+003;4.0216667480e+003;4.0142307129e+003;4.0083332520e+003;4.0148718262e+003;4.0121794434e+003;4.0311538086e+003;4.0269230957e+003;4.0139743652e+003;
7.2656250000e-001;3.9574357910e+003;3.9657692871e+003;3.9641025391e+003;3.9750000000e+003;3.9714101563e+003;3.9678205566e+003;3.9733332520e+003;3.9673076172e+003;3.9642307129e+003;3.9667949219e+003;3.9621794434e+003;3.9789743652e+003;3.9758974609e+003;3.9614101563e+003;
7.3437500000e-001;3.9861538086e+003;3.9953845215e+003;3.9897436523e+003;4.0043588867e+003;4.0121794434e+003;3.9937180176e+003;4.0037180176e+003;3.9993588867e+003;4.0007692871e+003;4.0010256348e+003;3.9942307129e+003;4.0048718262e+003;4.0057692871e+003;3.9878205566e+003;
7.4218750000e-001;4.0226923828e+003;4.0305129395e+003;4.0241025391e+003;4.0392307129e+003;4.0526923828e+003;4.0267949219e+003;4.0389743652e+003;4.0416667480e+003;4.0470512695e+003;4.0457692871e+003;4.0341025391e+003;4.0384614258e+003;4.0434614258e+003;4.0223076172e+003;
7.5000000000e-001;3.9825642090e+003;3.9832050781e+003;3.9864101563e+003;3.9967949219e+003;3.9974357910e+003;3.9951281738e+003;4.0001281738e+003;4.0103845215e+003;4.0173076172e+003;4.0121794434e+003;3.9905129395e+003;3.9930769043e+003;4.0034614258e+003;3.9797436523e+003;
7.5781250000e-001;3.9603845215e+003;3.9597436523e+003;3.9639743652e+003;3.9724357910e+003;3.9700000000e+003;3.9778205566e+003;3.9792307129e+003;3.9838461914e+003;3.9911538086e+003;3.9841025391e+003;3.9598718262e+003;3.9665385742e+003;3.9792307129e+003;3.9550000000e+003;
7.6562500000e-001;3.9798718262e+003;3.9816667480e+003;3.9806411133e+003;3.9891025391e+003;3.9925642090e+003;3.9974357910e+003;3.9973076172e+003;3.9966667480e+003;4.0055129395e+003;3.9983332520e+003;3.9714101563e+003;3.9835898438e+003;3.9965385742e+003;3.9725642090e+003;
7.7343750000e-001;3.9897436523e+003;3.9976923828e+003;3.9960256348e+003;4.0069230957e+003;4.0137180176e+003;4.0160256348e+003;4.0197436523e+003;4.0098718262e+003;4.0057692871e+003;4.0057692871e+003;3.9998718262e+003;4.0042307129e+003;4.0082050781e+003;3.9848718262e+003;
7.8125000000e-001;4.0261538086e+003;4.0294870605e+003;4.0289743652e+003;4.0370512695e+003;4.0428205566e+003;4.0469230957e+003;4.0515385742e+003;4.0420512695e+003;4.0389743652e+003;4.0426923828e+003;4.0344870605e+003;4.0376923828e+003;4.0451281738e+003;4.0189743652e+003;
7.8906250000e-001;3.9973076172e+003;4.0061538086e+003;4.0042307129e+003;4.0138461914e+003;4.0253845215e+003;4.0300000000e+003;4.0305129395e+003;4.0160256348e+003;4.0110256348e+003;4.0155129395e+003;4.0028205566e+003;4.0220512695e+003;4.0165385742e+003;3.9952563477e+003;
7.9687500000e-001;4.1002563477e+003;4.1093588867e+003;4.1043588867e+003;4.1158974609e+003;4.1252563477e+003;4.1207690430e+003;4.1296152344e+003;4.1183334961e+003;4.1069228516e+003;4.1237177734e+003;4.1132050781e+003;4.1258974609e+003;4.1247436523e+003;4.1050000000e+003;
8.0468750000e-001;4.0567949219e+003;4.0612819824e+003;4.0616667480e+003;4.0710256348e+003;4.0673076172e+003;4.0751281738e+003;4.0820512695e+003;4.0724357910e+003;4.0632050781e+003;4.0802563477e+003;4.0653845215e+003;4.0817949219e+003;4.0814101563e+003;4.0614101563e+003;
8.1250000000e-001;4.0255129395e+003;4.0238461914e+003;4.0300000000e+003;4.0220512695e+003;4.0276923828e+003;4.0366667480e+003;4.0415385742e+003;4.0294870605e+003;4.0276923828e+003;4.0393588867e+003;4.0300000000e+003;4.0474357910e+003;4.0488461914e+003;4.0212819824e+003;
8.2031250000e-001;4.0300000000e+003;4.0305129395e+003;4.0351281738e+003;4.0280769043e+003;4.0425642090e+003;4.0397436523e+003;4.0457692871e+003;4.0376923828e+003;4.0370512695e+003;4.0479487305e+003;4.0414101563e+003;4.0561538086e+003;4.0543588867e+003;4.0294870605e+003;
8.2812500000e-001;3.9810256348e+003;3.9875642090e+003;3.9864101563e+003;3.9955129395e+003;4.0066667480e+003;3.9910256348e+003;4.0003845215e+003;3.9911538086e+003;3.9942307129e+003;4.0005129395e+003;3.9983332520e+003;4.0105129395e+003;4.0052563477e+003;3.9884614258e+003;
8.3593750000e-001;4.0016667480e+003;4.0093588867e+003;4.0043588867e+003;4.0166667480e+003;4.0251281738e+003;4.0062819824e+003;4.0179487305e+003;4.0083332520e+003;4.0142307129e+003;4.0206411133e+003;4.0175642090e+003;4.0274357910e+003;4.0265385742e+003;4.0084614258e+003;
8.4375000000e-001;4.0333332520e+003;4.0324357910e+003;4.0388461914e+003;4.0332050781e+003;4.0428205566e+003;4.0350000000e+003;4.0435898438e+003;4.0502563477e+003;4.0592307129e+003;4.0702563477e+003;4.0520512695e+003;4.0607692871e+003;4.0605129395e+003;4.0357692871e+003;
8.5156250000e-001;3.9761538086e+003;3.9785898438e+003;3.9858974609e+003;3.9824357910e+003;3.9856411133e+003;3.9878205566e+003;3.9955129395e+003;3.9921794434e+003;3.9979487305e+003;4.0016667480e+003;3.9810256348e+003;3.9979487305e+003;3.9889743652e+003;3.9735898438e+003;
8.5937500000e-001;3.9803845215e+003;3.9875642090e+003;3.9897436523e+003;3.9874357910e+003;3.9920512695e+003;3.9948718262e+003;4.0003845215e+003;3.9974357910e+003;4.0015385742e+003;4.0047436523e+003;3.9811538086e+003;4.0017949219e+003;3.9908974609e+003;3.9792307129e+003;
8.6718750000e-001;3.9607692871e+003;3.9726923828e+003;3.9708974609e+003;3.9710256348e+003;3.9791025391e+003;3.9834614258e+003;3.9843588867e+003;3.9803845215e+003;3.9844870605e+003;3.9853845215e+003;3.9611538086e+003;3.9830769043e+003;3.9710256348e+003;3.9616667480e+003;
8.7500000000e-001;3.9438461914e+003;3.9596154785e+003;3.9542307129e+003;3.9596154785e+003;3.9707692871e+003;3.9751281738e+003;3.9719230957e+003;3.9644870605e+003;3.9708974609e+003;3.9680769043e+003;3.9474357910e+003;3.9650000000e+003;3.9556411133e+003;3.9455129395e+003;
8.8281250000e-001;3.9773076172e+003;3.9908974609e+003;3.9893588867e+003;4.0003845215e+003;3.9814101563e+003;4.0078205566e+003;4.0048718262e+003;3.9984614258e+003;4.0064101563e+003;4.0057692871e+003;3.9921794434e+003;3.9950000000e+003;3.9979487305e+003;3.9778205566e+003;
8.9062500000e-001;3.9535898438e+003;3.9658974609e+003;3.9662819824e+003;3.9746154785e+003;3.9579487305e+003;3.9884614258e+003;3.9858974609e+003;3.9707692871e+003;3.9764101563e+003;3.9764101563e+003;3.9629487305e+003;3.9696154785e+003;3.9710256348e+003;3.9529487305e+003;
8.9843750000e-001;4.0578205566e+003;4.0755129395e+003;4.0637180176e+003;4.0726923828e+003;4.0957692871e+003;4.0794870605e+003;4.0829487305e+003;4.0635898438e+003;4.0732050781e+003;4.0852563477e+003;4.0725642090e+003;4.0714101563e+003;4.0775642090e+003;4.0575642090e+003;
9.0625000000e-001;4.0328205566e+003;4.0523076172e+003;4.0401281738e+003;4.0521794434e+003;4.0715385742e+003;4.0535898438e+003;4.0557692871e+003;4.0414101563e+003;4.0496154785e+003;4.0652563477e+003;4.0552563477e+003;4.0526923828e+003;4.0571794434e+003;4.0369230957e+003;
9.1406250000e-001;4.0037180176e+003;4.0184614258e+003;4.0043588867e+003;4.0167949219e+003;4.0202563477e+003;4.0162819824e+003;4.0185898438e+003;4.0032050781e+003;4.0052563477e+003;4.0233332520e+003;4.0233332520e+003;4.0241025391e+003;4.0292307129e+003;4.0097436523e+003;
9.2187500000e-001;3.9671794434e+003;3.9717949219e+003;3.9712819824e+003;3.9739743652e+003;3.9721794434e+003;3.9679487305e+003;3.9711538086e+003;3.9637180176e+003;3.9728205566e+003;3.9858974609e+003;3.9871794434e+003;3.9843588867e+003;3.9825642090e+003;3.9719230957e+003;
9.2968750000e-001;3.9647436523e+003;3.9717949219e+003;3.9708974609e+003;3.9714101563e+003;3.9678205566e+003;3.9628205566e+003;3.9682050781e+003;3.9594870605e+003;3.9708974609e+003;3.9810256348e+003;3.9806411133e+003;3.9787180176e+003;3.9776923828e+003;3.9670512695e+003;
9.3750000000e-001;4.0110256348e+003;4.0232050781e+003;4.0126923828e+003;4.0183332520e+003;4.0125642090e+003;4.0026923828e+003;4.0097436523e+003;4.0200000000e+003;4.0288461914e+003;4.0443588867e+003;4.0257692871e+003;4.0241025391e+003;4.0287180176e+003;4.0101281738e+003;
9.4531250000e-001;3.9823076172e+003;3.9907692871e+003;3.9830769043e+003;3.9944870605e+003;3.9843588867e+003;3.9769230957e+003;3.9830769043e+003;3.9939743652e+003;4.0023076172e+003;4.0158974609e+003;3.9967949219e+003;3.9938461914e+003;4.0003845215e+003;3.9793588867e+003;
9.5312500000e-001;4.0383332520e+003;4.0417949219e+003;4.0347436523e+003;4.0460256348e+003;4.0392307129e+003;4.0302563477e+003;4.0357692871e+003;4.0448718262e+003;4.0580769043e+003;4.0639743652e+003;4.0447436523e+003;4.0397436523e+003;4.0534614258e+003;4.0279487305e+003;
9.6093750000e-001;4.0825642090e+003;4.0882050781e+003;4.0773076172e+003;4.0828205566e+003;4.0808974609e+003;4.0743588867e+003;4.0774357910e+003;4.0906411133e+003;4.1071796875e+003;4.1100000000e+003;4.0891025391e+003;4.0826923828e+003;4.0975639648e+003;4.0716667480e+003;
9.6875000000e-001;4.0310256348e+003;4.0478205566e+003;4.0228205566e+003;4.0335898438e+003;4.0305129395e+003;4.0447436523e+003;4.0452563477e+003;4.0470512695e+003;4.0623076172e+003;4.0632050781e+003;4.0530769043e+003;4.0367949219e+003;4.0491025391e+003;4.0279487305e+003;
9.7656250000e-001;4.0523076172e+003;4.0697436523e+003;4.0420512695e+003;4.0589743652e+003;4.0601281738e+003;4.0673076172e+003;4.0703845215e+003;4.0671794434e+003;4.0788461914e+003;4.0835898438e+003;4.0758974609e+003;4.0579487305e+003;4.0707692871e+003;4.0510256348e+003;
9.8437500000e-001;4.0619230957e+003;4.0737180176e+003;4.0546154785e+003;4.0716667480e+003;4.0852563477e+003;4.0770512695e+003;4.0792307129e+003;4.0787180176e+003;4.0844870605e+003;4.0915385742e+003;4.0793588867e+003;4.0711538086e+003;4.0789743652e+003;4.0616667480e+003;
9.9218750000e-001;4.0270512695e+003;4.0347436523e+003;4.0235898438e+003;4.0361538086e+003;4.0524357910e+003;4.0446154785e+003;4.0457692871e+003;4.0434614258e+003;4.0475642090e+003;4.0517949219e+003;4.0394870605e+003;4.0371794434e+003;4.0426923828e+003;4.0248718262e+003;
1.0000000000e+000;4.0635898438e+003;4.0669230957e+003;4.0561538086e+003;4.0650000000e+003;4.0758974609e+003;4.0737180176e+003;4.0802563477e+003;4.0734614258e+003;4.0737180176e+003;4.0847436523e+003;4.0757692871e+003;4.0712819824e+003;4.0774357910e+003;4.0610256348e+003;
1.0078125000e+000;4.0446154785e+003;4.0469230957e+003;4.0362819824e+003;4.0451281738e+003;4.0515385742e+003;4.0546154785e+003;4.0594870605e+003;4.0541025391e+003;4.0524357910e+003;4.0669230957e+003;4.0582050781e+003;4.0550000000e+003;4.0565385742e+003;4.0444870605e+003;
1.0156250000e+000;4.0020512695e+003;4.0033332520e+003;3.9943588867e+003;4.0014101563e+003;4.0041025391e+003;4.0132050781e+003;4.0156411133e+003;4.0061538086e+003;4.0043588867e+003;4.0184614258e+003;4.0123076172e+003;4.0132050781e+003;4.0103845215e+003;4.0010256348e+003;
1.0234375000e+000;4.0847436523e+003;4.0894870605e+003;4.0714101563e+003;4.0829487305e+003;4.0788461914e+003;4.0653845215e+003;4.0673076172e+003;4.0657692871e+003;4.0742307129e+003;4.1052563477e+003;4.0953845215e+003;4.0947436523e+003;4.0983334961e+003;4.0775642090e+003;
1.0312500000e+000;4.0515385742e+003;4.0570512695e+003;4.0402563477e+003;4.0538461914e+003;4.0432050781e+003;4.0346154785e+003;4.0355129395e+003;4.0335898438e+003;4.0415385742e+003;4.0724357910e+003;4.0652563477e+003;4.0606411133e+003;4.0644870605e+003;4.0471794434e+003;
1.0390625000e+000;4.0960258789e+003;4.1003847656e+003;4.0878205566e+003;4.0873076172e+003;4.0637180176e+003;4.0591025391e+003;4.0651281738e+003;4.0739743652e+003;4.0867949219e+003;4.1066665039e+003;4.0989741211e+003;4.0997436523e+003;4.0992309570e+003;4.0887180176e+003;
1.0468750000e+000;4.0511538086e+003;4.0544870605e+003;4.0452563477e+003;4.0405129395e+003;4.0462819824e+003;4.0183332520e+003;4.0243588867e+003;4.0330769043e+003;4.0461538086e+003;4.0632050781e+003;4.0530769043e+003;4.0596154785e+003;4.0569230957e+003;4.0457692871e+003;
1.0546875000e+000;4.0730769043e+003;4.0758974609e+003;4.0670512695e+003;4.0560256348e+003;4.0728205566e+003;4.0412819824e+003;4.0484614258e+003;4.0579487305e+003;4.0698718262e+003;4.0874357910e+003;4.0771794434e+003;4.0778205566e+003;4.0794870605e+003;4.0674357910e+003;
1.0625000000e+000;3.9925642090e+003;3.9907692871e+003;3.9919230957e+003;3.9992307129e+003;3.9874357910e+003;3.9926923828e+003;3.9991025391e+003;3.9985898438e+003;4.0043588867e+003;4.0071794434e+003;3.9911538086e+003;3.9932050781e+003;3.9932050781e+003;3.9837180176e+003;
1.0703125000e+000;3.9814101563e+003;3.9951281738e+003;3.9815385742e+003;3.9924357910e+003;3.9975642090e+003;4.0067949219e+003;4.0157692871e+003;4.0088461914e+003;4.0198718262e+003;4.0164101563e+003;3.9896154785e+003;3.9956411133e+003;3.9923076172e+003;3.9826923828e+003;
1.0781250000e+000;3.9383332520e+003;3.9519230957e+003;3.9424357910e+003;3.9455129395e+003;3.9516667480e+003;3.9715385742e+003;3.9764101563e+003;3.9688461914e+003;3.9800000000e+003;3.9738461914e+003;3.9480769043e+003;3.9546154785e+003;3.9485898438e+003;3.9414101563e+003;
1.0859375000e+000;3.9089743652e+003;3.9176923828e+003;3.9139743652e+003;3.9153845215e+003;3.9153845215e+003;3.9450000000e+003;3.9464101563e+003;3.9352563477e+003;3.9455129395e+003;3.9367949219e+003;3.9158974609e+003;3.9208974609e+003;3.9150000000e+003;3.9082050781e+003;
1.0937500000e+000;3.9616667480e+003;3.9600000000e+003;3.9621794434e+003;3.9682050781e+003;3.9650000000e+003;3.9862819824e+003;3.9875642090e+003;3.9755129395e+003;3.9839743652e+003;3.9791025391e+003;3.9646154785e+003;3.9660256348e+003;3.9648718262e+003;3.9525642090e+003;
1.1015625000e+000;3.9717949219e+003;3.9711538086e+003;3.9750000000e+003;3.9800000000e+003;3.9816667480e+003;3.9957692871e+003;3.9967949219e+003;3.9867949219e+003;3.9951281738e+003;3.9943588867e+003;3.9782050781e+003;3.9835898438e+003;3.9787180176e+003;3.9675642090e+003;
1.1093750000e+000;3.9152563477e+003;3.9250000000e+003;3.9282050781e+003;3.9298718262e+003;3.9270512695e+003;3.9488461914e+003;3.9503845215e+003;3.9319230957e+003;3.9410256348e+003;3.9417949219e+003;3.9271794434e+003;3.9430769043e+003;3.9239743652e+003;3.9223076172e+003;
1.1171875000e+000;3.9247436523e+003;3.9353845215e+003;3.9361538086e+003;3.9397436523e+003;3.9270512695e+003;3.9538461914e+003;3.9584614258e+003;3.9353845215e+003;3.9448718262e+003;3.9461538086e+003;3.9348718262e+003;3.9498718262e+003;3.9300000000e+003;3.9291025391e+003;
1.1250000000e+000;3.9446154785e+003;3.9391025391e+003;3.9478205566e+003;3.9555129395e+003;3.9361538086e+003;3.9471794434e+003;3.9487180176e+003;3.9398718262e+003;3.9435898438e+003;3.9548718262e+003;3.9369230957e+003;3.9589743652e+003;3.9451281738e+003;3.9361538086e+003;
1.1328125000e+000;3.9342307129e+003;3.9294870605e+003;3.9371794434e+003;3.9441025391e+003;3.9352563477e+003;3.9325642090e+003;3.9330769043e+003;3.9244870605e+003;3.9264101563e+003;3.9393588867e+003;3.9224357910e+003;3.9484614258e+003;3.9335898438e+003;3.9260256348e+003;
1.1406250000e+000;3.9715385742e+003;3.9708974609e+003;3.9723076172e+003;3.9773076172e+003;3.9788461914e+003;3.9614101563e+003;3.9652563477e+003;3.9564101563e+003;3.9585898438e+003;3.9726923828e+003;3.9600000000e+003;3.9843588867e+003;3.9691025391e+003;3.9642307129e+003;
1.1484375000e+000;4.0215385742e+003;4.0167949219e+003;4.0205129395e+003;4.0096154785e+003;4.0017949219e+003;3.9907692871e+003;4.0017949219e+003;4.0073076172e+003;4.0147436523e+003;4.0261538086e+003;4.0128205566e+003;4.0241025391e+003;4.0196154785e+003;4.0193588867e+003;
1.1562500000e+000;4.0784614258e+003;4.0770512695e+003;4.0738461914e+003;4.0662819824e+003;4.0615385742e+003;4.0458974609e+003;4.0574357910e+003;4.0651281738e+003;4.0720512695e+003;4.0842307129e+003;4.0680769043e+003;4.0787180176e+003;4.0756411133e+003;4.0748718262e+003;
1.1640625000e+000;4.0803845215e+003;4.0857692871e+003;4.0771794434e+003;4.0821794434e+003;4.0719230957e+003;4.0697436523e+003;4.0784614258e+003;4.0893588867e+003;4.0902563477e+003;4.0973076172e+003;4.0742307129e+003;4.0850000000e+003;4.0802563477e+003;4.0688461914e+003;
1.1718750000e+000;4.1187177734e+003;4.1256411133e+003;4.1147436523e+003;4.1176923828e+003;4.1270512695e+003;4.1182050781e+003;4.1248715820e+003;4.1237177734e+003;4.1317949219e+003;4.1443588867e+003;4.1092309570e+003;4.1191025391e+003;4.1191025391e+003;4.1033334961e+003;
1.1796875000e+000;4.0979487305e+003;4.1029487305e+003;4.0926923828e+003;4.0993588867e+003;4.0974360352e+003;4.1014101563e+003;4.1048715820e+003;4.1008974609e+003;4.1114101563e+003;4.1260258789e+003;4.0916667480e+003;4.1005126953e+003;4.0947436523e+003;4.0851281738e+003;
1.1875000000e+000;4.0720512695e+003;4.0788461914e+003;4.0661538086e+003;4.0671794434e+003;4.0680769043e+003;4.0783332520e+003;4.0808974609e+003;4.0594870605e+003;4.0748718262e+003;4.0873076172e+003;4.0638461914e+003;4.0691025391e+003;4.0639743652e+003;4.0566667480e+003;
1.1953125000e+000;4.0875642090e+003;4.0979487305e+003;4.0832050781e+003;4.0806411133e+003;4.0952563477e+003;4.0912819824e+003;4.0939743652e+003;4.0744870605e+003;4.0896154785e+003;4.1042309570e+003;4.0769230957e+003;4.0866667480e+003;4.0820512695e+003;4.0746154785e+003;
1.2031250000e+000;4.0328205566e+003;4.0408974609e+003;4.0301281738e+003;4.0301281738e+003;4.0479487305e+003;4.0387180176e+003;4.0400000000e+003;4.0200000000e+003;4.0303845215e+003;4.0453845215e+003;4.0196154785e+003;4.0375642090e+003;4.0267949219e+003;4.0270512695e+003;
1.2109375000e+000;4.0285898438e+003;4.0305129395e+003;4.0242307129e+003;4.0229487305e+003;4.0341025391e+003;4.0326923828e+003;4.0344870605e+003;4.0125642090e+003;4.0202563477e+003;4.0352563477e+003;4.0146154785e+003;4.0308974609e+003;4.0194870605e+003;4.0225642090e+003;
1.2187500000e+000;4.0305129395e+003;4.0206411133e+003;4.0282050781e+003;4.0244870605e+003;4.0174357910e+003;4.0284614258e+003;4.0319230957e+003;4.0258974609e+003;4.0289743652e+003;4.0475642090e+003;4.0234614258e+003;4.0361538086e+003;4.0230769043e+003;4.0202563477e+003;
1.2265625000e+000;3.9826923828e+003;3.9729487305e+003;3.9825642090e+003;3.9862819824e+003;3.9769230957e+003;3.9829487305e+003;3.9892307129e+003;3.9811538086e+003;3.9814101563e+003;3.9984614258e+003;3.9760256348e+003;3.9919230957e+003;3.9774357910e+003;3.9725642090e+003;
1.2343750000e+000;4.0639743652e+003;4.0565385742e+003;4.0588461914e+003;4.0596154785e+003;4.0629487305e+003;4.0444870605e+003;4.0628205566e+003;4.0498718262e+003;4.0460256348e+003;4.0652563477e+003;4.0569230957e+003;4.0687180176e+003;4.0579487305e+003;4.0537180176e+003;
1.2421875000e+000;4.1565385742e+003;4.1503847656e+003;4.1482050781e+003;4.1367949219e+003;4.1466665039e+003;4.1200000000e+003;4.1416665039e+003;4.1370512695e+003;4.1333334961e+003;4.1574360352e+003;4.1529487305e+003;4.1594873047e+003;4.1497436523e+003;4.1469228516e+003;
1.2500000000e+000;4.1984614258e+003;4.1942309570e+003;4.1905126953e+003;4.1692309570e+003;4.1784614258e+003;4.1516665039e+003;4.1729487305e+003;4.1788461914e+003;4.1762822266e+003;4.2043588867e+003;4.1989741211e+003;4.2028203125e+003;4.1925639648e+003;4.1898715820e+003;
1.2578125000e+000;4.0975639648e+003;4.1002563477e+003;4.0920512695e+003;4.0878205566e+003;4.0753845215e+003;4.0519230957e+003;4.0734614258e+003;4.0893588867e+003;4.0912819824e+003;4.1123076172e+003;4.0969228516e+003;4.1065385742e+003;4.1056411133e+003;4.0976923828e+003;
1.2656250000e+000;4.0614101563e+003;4.0642307129e+003;4.0580769043e+003;4.0500000000e+003;4.0343588867e+003;4.0260256348e+003;4.0439743652e+003;4.0562819824e+003;4.0594870605e+003;4.0761538086e+003;4.0648718262e+003;4.0726923828e+003;4.0687180176e+003;4.0660256348e+003;
1.2734375000e+000;4.1017949219e+003;4.1074360352e+003;4.1008974609e+003;4.1033334961e+003;4.0953845215e+003;4.0917949219e+003;4.1065385742e+003;4.1046152344e+003;4.1112822266e+003;4.1221796875e+003;4.1080771484e+003;4.1156411133e+003;4.1060258789e+003;4.1042309570e+003;
1.2812500000e+000;4.0856411133e+003;4.0908974609e+003;4.0866667480e+003;4.0925642090e+003;4.0929487305e+003;4.0861538086e+003;4.0962822266e+003;4.0934614258e+003;4.1002563477e+003;4.1100000000e+003;4.0893588867e+003;4.1012822266e+003;4.0879487305e+003;4.0857692871e+003;
1.2890625000e+000;4.0206411133e+003;4.0319230957e+003;4.0166667480e+003;4.0174357910e+003;4.0333332520e+003;4.0393588867e+003;4.0387180176e+003;4.0141025391e+003;4.0296154785e+003;4.0360256348e+003;4.0175642090e+003;4.0270512695e+003;4.0191025391e+003;4.0130769043e+003;
1.2968750000e+000;3.9839743652e+003;3.9969230957e+003;3.9814101563e+003;3.9870512695e+003;3.9915385742e+003;4.0001281738e+003;3.9965385742e+003;3.9702563477e+003;3.9812819824e+003;3.9946154785e+003;3.9878205566e+003;3.9988461914e+003;3.9861538086e+003;3.9857692871e+003;
1.3046875000e+000;3.9612819824e+003;3.9724357910e+003;3.9620512695e+003;3.9708974609e+003;3.9717949219e+003;3.9802563477e+003;3.9741025391e+003;3.9458974609e+003;3.9538461914e+003;3.9678205566e+003;3.9628205566e+003;3.9762819824e+003;3.9621794434e+003;3.9639743652e+003;
1.3125000000e+000;4.0265385742e+003;4.0291025391e+003;4.0228205566e+003;4.0333332520e+003;4.0211538086e+003;4.0282050781e+003;4.0260256348e+003;4.0089743652e+003;4.0173076172e+003;4.0362819824e+003;4.0260256348e+003;4.0367949219e+003;4.0244870605e+003;4.0276923828e+003;
1.3203125000e+000;3.9989743652e+003;4.0005129395e+003;3.9952563477e+003;4.0034614258e+003;3.9887180176e+003;3.9989743652e+003;3.9980769043e+003;3.9834614258e+003;3.9896154785e+003;4.0079487305e+003;3.9987180176e+003;4.0101281738e+003;3.9961538086e+003;4.0005129395e+003;
1.3281250000e+000;4.0108974609e+003;4.0151281738e+003;4.0069230957e+003;4.0028205566e+003;4.0075642090e+003;4.0042307129e+003;4.0071794434e+003;3.9947436523e+003;3.9942307129e+003;4.0132050781e+003;4.0062819824e+003;4.0174357910e+003;4.0101281738e+003;4.0101281738e+003;
1.3359375000e+000;4.0532050781e+003;4.0587180176e+003;4.0493588867e+003;4.0394870605e+003;4.0521794434e+003;4.0398718262e+003;4.0444870605e+003;4.0391025391e+003;4.0360256348e+003;4.0591025391e+003;4.0480769043e+003;4.0601281738e+003;4.0569230957e+003;4.0534614258e+003;
1.3437500000e+000;3.9978205566e+003;4.0039743652e+003;3.9960256348e+003;4.0000000000e+003;3.9746154785e+003;3.9788461914e+003;3.9844870605e+003;3.9855129395e+003;3.9843588867e+003;4.0111538086e+003;3.9948718262e+003;4.0188461914e+003;4.0098718262e+003;4.0065385742e+003;
1.3515625000e+000;4.0164101563e+003;4.0243588867e+003;4.0112819824e+003;4.0183332520e+003;3.9901281738e+003;3.9897436523e+003;3.9973076172e+003;3.9973076172e+003;4.0016667480e+003;4.0264101563e+003;4.0152563477e+003;4.0352563477e+003;4.0285898438e+003;4.0235898438e+003;
1.3593750000e+000;4.0779487305e+003;4.0914101563e+003;4.0717949219e+003;4.0738461914e+003;4.0701281738e+003;4.0426923828e+003;4.0491025391e+003;4.0635898438e+003;4.0769230957e+003;4.0969228516e+003;4.0921794434e+003;4.0953845215e+003;4.0964101563e+003;4.0870512695e+003;
1.3671875000e+000;4.0482050781e+003;4.0642307129e+003;4.0462819824e+003;4.0485898438e+003;4.0546154785e+003;4.0223076172e+003;4.0261538086e+003;4.0441025391e+003;4.0592307129e+003;4.0738461914e+003;4.0702563477e+003;4.0688461914e+003;4.0707692871e+003;4.0610256348e+003;
1.3750000000e+000;4.0476923828e+003;4.0680769043e+003;4.0455129395e+003;4.0565385742e+003;4.0578205566e+003;4.0442307129e+003;4.0516667480e+003;4.0543588867e+003;4.0719230957e+003;4.0782050781e+003;4.0605129395e+003;4.0667949219e+003;4.0692307129e+003;4.0565385742e+003;
1.3828125000e+000;4.0637180176e+003;4.0834614258e+003;4.0602563477e+003;4.0708974609e+003;4.0693588867e+003;4.0623076172e+003;4.0703845215e+003;4.0721794434e+003;4.0884614258e+003;4.0974360352e+003;4.0728205566e+003;4.0823076172e+003;4.0832050781e+003;4.0701281738e+003;
1.3906250000e+000;4.0407692871e+003;4.0588461914e+003;4.0387180176e+003;4.0485898438e+003;4.0487180176e+003;4.0448718262e+003;4.0519230957e+003;4.0506411133e+003;4.0651281738e+003;4.0753845215e+003;4.0494870605e+003;4.0598718262e+003;4.0591025391e+003;4.0460256348e+003;
1.3984375000e+000;4.0083332520e+003;4.0250000000e+003;4.0084614258e+003;4.0179487305e+003;4.0251281738e+003;4.0191025391e+003;4.0252563477e+003;4.0165385742e+003;4.0308974609e+003;4.0398718262e+003;4.0179487305e+003;4.0274357910e+003;4.0261538086e+003;4.0125642090e+003;
1.4062500000e+000;3.9755129395e+003;3.9923076172e+003;3.9747436523e+003;3.9835898438e+003;3.9973076172e+003;3.9992307129e+003;3.9962819824e+003;3.9714101563e+003;3.9943588867e+003;4.0000000000e+003;3.9800000000e+003;3.9905129395e+003;3.9841025391e+003;3.9708974609e+003;
1.4140625000e+000;4.0084614258e+003;4.0200000000e+003;4.0061538086e+003;4.0139743652e+003;4.0260256348e+003;4.0205129395e+003;4.0201281738e+003;4.0032050781e+003;4.0074357910e+003;4.0175642090e+003;4.0143588867e+003;4.0208974609e+003;4.0132050781e+003;4.0017949219e+003;
1.4218750000e+000;3.9938461914e+003;4.0042307129e+003;3.9916667480e+003;3.9983332520e+003;4.0142307129e+003;4.0053845215e+003;4.0034614258e+003;3.9934614258e+003;3.9950000000e+003;4.0067949219e+003;4.0008974609e+003;4.0120512695e+003;4.0002563477e+003;3.9902563477e+003;
1.4296875000e+000;3.9952563477e+003;4.0074357910e+003;3.9917949219e+003;3.9984614258e+003;4.0132050781e+003;4.0052563477e+003;4.0044870605e+003;3.9947436523e+003;3.9933332520e+003;4.0044870605e+003;4.0007692871e+003;4.0114101563e+003;4.0053845215e+003;3.9939743652e+003;
1.4375000000e+000;4.0156411133e+003;4.0187180176e+003;4.0102563477e+003;4.0039743652e+003;4.0146154785e+003;4.0048718262e+003;4.0052563477e+003;4.0051281738e+003;4.0046154785e+003;4.0232050781e+003;4.0192307129e+003;4.0293588867e+003;4.0217949219e+003;4.0107692871e+003;
1.4453125000e+000;4.0228205566e+003;4.0230769043e+003;4.0160256348e+003;4.0092307129e+003;4.0303845215e+003;4.0066667480e+003;4.0092307129e+003;4.0066667480e+003;4.0101281738e+003;4.0261538086e+003;4.0221794434e+003;4.0346154785e+003;4.0258974609e+003;4.0129487305e+003;
1.4531250000e+000;4.1062822266e+003;4.1097436523e+003;4.1005126953e+003;4.0976923828e+003;4.1219228516e+003;4.0792307129e+003;4.0858974609e+003;4.0933332520e+003;4.1028203125e+003;4.1166665039e+003;4.1084614258e+003;4.1185898438e+003;4.1152563477e+003;4.0984614258e+003;
1.4609375000e+000;4.0925642090e+003;4.1000000000e+003;4.0905129395e+003;4.0894870605e+003;4.1034614258e+003;4.0679487305e+003;4.0732050781e+003;4.0867949219e+003;4.0967949219e+003;4.1108974609e+003;4.0993588867e+003;4.1074360352e+003;4.1067949219e+003;4.0898718262e+003;
1.4687500000e+000;4.0533332520e+003;4.0682050781e+003;4.0439743652e+003;4.0456411133e+003;4.0611538086e+003;4.0314101563e+003;4.0387180176e+003;4.0464101563e+003;4.0575642090e+003;4.0798718262e+003;4.0611538086e+003;4.0628205566e+003;4.0720512695e+003;4.0479487305e+003;
1.4765625000e+000;4.0682050781e+003;4.0847436523e+003;4.0561538086e+003;4.0598718262e+003;4.0832050781e+003;4.0491025391e+003;4.0556411133e+003;4.0633332520e+003;4.0750000000e+003;4.0983334961e+003;4.0770512695e+003;4.0794870605e+003;4.0908974609e+003;4.0624357910e+003;
1.4843750000e+000;4.0089743652e+003;4.0325642090e+003;4.0042307129e+003;4.0150000000e+003;4.0356411133e+003;4.0152563477e+003;4.0138461914e+003;4.0125642090e+003;4.0232050781e+003;4.0371794434e+003;4.0185898438e+003;4.0265385742e+003;4.0371794434e+003;4.0057692871e+003;
1.4921875000e+000;4.0001281738e+003;4.0258974609e+003;3.9973076172e+003;4.0075642090e+003;4.0275642090e+003;4.0142307129e+003;4.0103845215e+003;4.0008974609e+003;4.0116667480e+003;4.0223076172e+003;4.0085898438e+003;4.0141025391e+003;4.0248718262e+003;3.9953845215e+003;
1.5000000000e+000;4.0539743652e+003;4.0634614258e+003;4.0484614258e+003;4.0424357910e+003;4.0679487305e+003;4.0642307129e+003;4.0585898438e+003;4.0462819824e+003;4.0578205566e+003;4.0765385742e+003;4.0639743652e+003;4.0603845215e+003;4.0662819824e+003;4.0465385742e+003;
1.5078125000e+000;4.0387180176e+003;4.0430769043e+003;4.0341025391e+003;4.0301281738e+003;4.0524357910e+003;4.0532050781e+003;4.0483332520e+003;4.0324357910e+003;4.0407692871e+003;4.0588461914e+003;4.0444870605e+003;4.0455129395e+003;4.0506411133e+003;4.0310256348e+003;
1.5156250000e+000;4.0603845215e+003;4.0643588867e+003;4.0543588867e+003;4.0541025391e+003;4.0779487305e+003;4.0761538086e+003;4.0739743652e+003;4.0544870605e+003;4.0584614258e+003;4.0752563477e+003;4.0598718262e+003;4.0638461914e+003;4.0730769043e+003;4.0508974609e+003;
1.5234375000e+000;4.1250000000e+003;4.1325639648e+003;4.1161538086e+003;4.1153847656e+003;4.1469228516e+003;4.1360258789e+003;4.1373076172e+003;4.1201284180e+003;4.1205126953e+003;4.1382050781e+003;4.1211538086e+003;4.1243588867e+003;4.1394873047e+003;4.1146152344e+003;
1.5312500000e+000;4.0930769043e+003;4.1038461914e+003;4.0908974609e+003;4.0833332520e+003;4.1014101563e+003;4.0992309570e+003;4.1046152344e+003;4.0974360352e+003;4.0939743652e+003;4.1162822266e+003;4.1060258789e+003;4.1124360352e+003;4.1094873047e+003;4.0973076172e+003;
1.5390625000e+000;4.1024360352e+003;4.1134614258e+003;4.0976923828e+003;4.0960258789e+003;4.1153847656e+003;4.1067949219e+003;4.1144873047e+003;4.1032050781e+003;4.1002563477e+003;4.1242309570e+003;4.1165385742e+003;4.1219228516e+003;4.1206411133e+003;4.1062822266e+003;
1.5468750000e+000;4.0953845215e+003;4.1064101563e+003;4.0919230957e+003;4.0878205566e+003;4.1257690430e+003;4.0953845215e+003;4.0958974609e+003;4.0975639648e+003;4.0942307129e+003;4.1224360352e+003;4.1103847656e+003;4.1087177734e+003;4.1184614258e+003;4.0974360352e+003;
1.5546875000e+000;4.1169228516e+003;4.1333334961e+003;4.1176923828e+003;4.1135898438e+003;4.1342309570e+003;4.1053847656e+003;4.1098715820e+003;4.1130771484e+003;4.1210258789e+003;4.1429487305e+003;4.1280771484e+003;4.1370512695e+003;4.1343588867e+003;4.1189741211e+003;
1.5625000000e+000;4.1103847656e+003;4.1284614258e+003;4.1114101563e+003;4.1117949219e+003;4.1252563477e+003;4.0988461914e+003;4.1023076172e+003;4.1097436523e+003;4.1185898438e+003;4.1408974609e+003;4.1273076172e+003;4.1348715820e+003;4.1292309570e+003;4.1139741211e+003;
1.5703125000e+000;4.0997436523e+003;4.1107690430e+003;4.0978203125e+003;4.0933332520e+003;4.1106411133e+003;4.0850000000e+003;4.0874357910e+003;4.0957692871e+003;4.1030771484e+003;4.1246152344e+003;4.1147436523e+003;4.1173076172e+003;4.1176923828e+003;4.0989741211e+003;
1.5781250000e+000;4.0997436523e+003;4.1110258789e+003;4.1008974609e+003;4.0923076172e+003;4.1112822266e+003;4.0929487305e+003;4.0969228516e+003;4.1042309570e+003;4.1183334961e+003;4.1329487305e+003;4.1173076172e+003;4.1261538086e+003;4.1153847656e+003;4.1024360352e+003;
1.5859375000e+000;4.0744870605e+003;4.0883332520e+003;4.0753845215e+003;4.0723076172e+003;4.0916667480e+003;4.0780769043e+003;4.0796154785e+003;4.0796154785e+003;4.0937180176e+003;4.1053847656e+003;4.0966665039e+003;4.0987177734e+003;4.0915385742e+003;4.0762819824e+003;
1.5937500000e+000;4.1476923828e+003;4.1534614258e+003;4.1397436523e+003;4.1330771484e+003;4.1482050781e+003;4.1457690430e+003;4.1469228516e+003;4.1464101563e+003;4.1553847656e+003;4.1715385742e+003;4.1557690430e+003;4.1567949219e+003;4.1575639648e+003;4.1402563477e+003;
1.6015625000e+000;4.1221796875e+003;4.1260258789e+003;4.1162822266e+003;4.1056411133e+003;4.1160258789e+003;4.1216665039e+003;4.1223076172e+003;4.1205126953e+003;4.1283334961e+003;4.1435898438e+003;4.1234614258e+003;4.1316665039e+003;4.1267949219e+003;4.1141025391e+003;
1.6093750000e+000;4.1387177734e+003;4.1471796875e+003;4.1362822266e+003;4.1243588867e+003;4.1429487305e+003;4.1371796875e+003;4.1410258789e+003;4.1301284180e+003;4.1371796875e+003;4.1525639648e+003;4.1388461914e+003;4.1460258789e+003;4.1416665039e+003;4.1298715820e+003;
1.6171875000e+000;4.1923076172e+003;4.2017949219e+003;4.1896152344e+003;4.1775639648e+003;4.2052563477e+003;4.1843588867e+003;4.1906411133e+003;4.1812822266e+003;4.1871796875e+003;4.2064101563e+003;4.1950000000e+003;4.1996152344e+003;4.1966665039e+003;4.1842309570e+003;
1.6250000000e+000;4.1364101563e+003;4.1400000000e+003;4.1355126953e+003;4.1242309570e+003;4.1457690430e+003;4.1317949219e+003;4.1366665039e+003;4.1275639648e+003;4.1280771484e+003;4.1447436523e+003;4.1369228516e+003;4.1506411133e+003;4.1320512695e+003;4.1301284180e+003;
1.6328125000e+000;4.1306411133e+003;4.1357690430e+003;4.1293588867e+003;4.1176923828e+003;4.1347436523e+003;4.1264101563e+003;4.1328203125e+003;4.1198715820e+003;4.1198715820e+003;4.1360258789e+003;4.1314101563e+003;4.1415385742e+003;4.1256411133e+003;4.1235898438e+003;
1.6406250000e+000;4.1543588867e+003;4.1616665039e+003;4.1529487305e+003;4.1397436523e+003;4.1556411133e+003;4.1466665039e+003;4.1551284180e+003;4.1435898438e+003;4.1430771484e+003;4.1629487305e+003;4.1583334961e+003;4.1625639648e+003;4.1533334961e+003;4.1491025391e+003;
1.6484375000e+000;4.1647436523e+003;4.1730771484e+003;4.1644873047e+003;4.1506411133e+003;4.1665385742e+003;4.1539741211e+003;4.1633334961e+003;4.1567949219e+003;4.1556411133e+003;4.1801284180e+003;4.1725639648e+003;4.1737177734e+003;4.1700000000e+003;4.1641025391e+003;
1.6562500000e+000;4.1308974609e+003;4.1351284180e+003;4.1217949219e+003;4.1137177734e+003;4.1235898438e+003;4.1112822266e+003;4.1184614258e+003;4.1252563477e+003;4.1282050781e+003;4.1443588867e+003;4.1380771484e+003;4.1398715820e+003;4.1428203125e+003;4.1358974609e+003;
1.6640625000e+000;4.1273076172e+003;4.1315385742e+003;4.1184614258e+003;4.1070512695e+003;4.1170512695e+003;4.1082050781e+003;4.1128203125e+003;4.1246152344e+003;4.1305126953e+003;4.1457690430e+003;4.1380771484e+003;4.1394873047e+003;4.1398715820e+003;4.1332050781e+003;
1.6718750000e+000;4.2260258789e+003;4.2312822266e+003;4.2241025391e+003;4.2055126953e+003;4.2294873047e+003;4.2006411133e+003;4.2171796875e+003;4.2169228516e+003;4.2258974609e+003;4.2457690430e+003;4.2343588867e+003;4.2396152344e+003;4.2325639648e+003;4.2288461914e+003;
1.6796875000e+000;4.3957690430e+003;4.4111538086e+003;4.3805126953e+003;4.3669228516e+003;4.3851284180e+003;4.3521796875e+003;4.3698715820e+003;4.3924360352e+003;4.3979487305e+003;4.4226923828e+003;4.4093588867e+003;4.3993588867e+003;4.4105126953e+003;4.3960258789e+003;
1.6875000000e+000;4.3937177734e+003;4.4098715820e+003;4.3760258789e+003;4.3641025391e+003;4.3841025391e+003;4.3517949219e+003;4.3666665039e+003;4.3882050781e+003;4.3910258789e+003;4.4160258789e+003;4.4070512695e+003;4.3928203125e+003;4.4074360352e+003;4.3896152344e+003;
1.6953125000e+000;4.5874360352e+003;4.5966665039e+003;4.5662822266e+003;4.5375639648e+003;4.5947436523e+003;4.5279487305e+003;4.5496152344e+003;4.5653847656e+003;4.5680771484e+003;4.6088461914e+003;4.5905126953e+003;4.5803847656e+003;4.5941025391e+003;4.5753847656e+003;
1.7031250000e+000;4.5128203125e+003;4.5246152344e+003;4.4911538086e+003;4.4675639648e+003;4.5100000000e+003;4.4720512695e+003;4.4893588867e+003;4.4874360352e+003;4.4923076172e+003;4.5289741211e+003;4.5073076172e+003;4.5015385742e+003;4.5153847656e+003;4.4967949219e+003;
1.7109375000e+000;4.5612822266e+003;4.5726923828e+003;4.5375639648e+003;4.5107690430e+003;4.5570512695e+003;4.5174360352e+003;4.5376923828e+003;4.5311538086e+003;4.5352563477e+003;4.5698715820e+003;4.5529487305e+003;4.5438461914e+003;4.5594873047e+003;4.5403847656e+003;
1.7187500000e+000;4.6173076172e+003;4.6252563477e+003;4.5944873047e+003;4.5597436523e+003;4.6135898438e+003;4.5671796875e+003;4.5907690430e+003;4.5864101563e+003;4.5879487305e+003;4.6230771484e+003;4.6096152344e+003;4.5979487305e+003;4.6134614258e+003;4.5951284180e+003;
1.7265625000e+000;4.5700000000e+003;4.5721796875e+003;4.5543588867e+003;4.5130771484e+003;4.5642309570e+003;4.5238461914e+003;4.5461538086e+003;4.5469228516e+003;4.5405126953e+003;4.5779487305e+003;4.5658974609e+003;4.5585898438e+003;4.5701284180e+003;4.5535898438e+003;
1.7343750000e+000;4.4135898438e+003;4.4293588867e+003;4.3962822266e+003;4.3792309570e+003;4.4147436523e+003;4.3921796875e+003;4.4052563477e+003;4.4037177734e+003;4.3944873047e+003;4.4266665039e+003;4.4021796875e+003;4.4114101563e+003;4.4147436523e+003;4.4021796875e+003;
1.7421875000e+000;4.3583334961e+003;4.3742309570e+003;4.3425639648e+003;4.3271796875e+003;4.3671796875e+003;4.3421796875e+003;4.3538461914e+003;4.3523076172e+003;4.3438461914e+003;4.3710258789e+003;4.3452563477e+003;4.3584614258e+003;4.3564101563e+003;4.3480771484e+003;
1.7500000000e+000;4.3021796875e+003;4.3142309570e+003;4.2884614258e+003;4.2708974609e+003;4.3133334961e+003;4.2874360352e+003;4.3000000000e+003;4.2953847656e+003;4.2875639648e+003;4.3101284180e+003;4.2898715820e+003;4.3028203125e+003;4.2976923828e+003;4.2920512695e+003;
1.7578125000e+000;4.2752563477e+003;4.2820512695e+003;4.2619228516e+003;4.2414101563e+003;4.2806411133e+003;4.2564101563e+003;4.2717949219e+003;4.2637177734e+003;4.2567949219e+003;4.2770512695e+003;4.2670512695e+003;4.2747436523e+003;4.2702563477e+003;4.2646152344e+003;
1.7656250000e+000;4.1966665039e+003;4.1993588867e+003;4.1911538086e+003;4.1769228516e+003;4.1915385742e+003;4.1833334961e+003;4.1952563477e+003;4.2015385742e+003;4.1960258789e+003;4.2110258789e+003;4.2070512695e+003;4.2074360352e+003;4.2076923828e+003;4.1985898438e+003;
1.7734375000e+000;4.1676923828e+003;4.1714101563e+003;4.1638461914e+003;4.1493588867e+003;4.1741025391e+003;4.1580771484e+003;4.1700000000e+003;4.1762822266e+003;4.1723076172e+003;4.1823076172e+003;4.1750000000e+003;4.1752563477e+003;4.1805126953e+003;4.1705126953e+003;
1.7812500000e+000;4.1673076172e+003;4.1721796875e+003;4.1616665039e+003;4.1421796875e+003;4.1683334961e+003;4.1464101563e+003;4.1574360352e+003;4.1762822266e+003;4.1725639648e+003;4.1839741211e+003;4.1769228516e+003;4.1760258789e+003;4.1779487305e+003;4.1706411133e+003;
1.7890625000e+000;4.1157690430e+003;4.1206411133e+003;4.1138461914e+003;4.0987177734e+003;4.1098715820e+003;4.1006411133e+003;4.1080771484e+003;4.1260258789e+003;4.1214101563e+003;4.1317949219e+003;4.1261538086e+003;4.1314101563e+003;4.1250000000e+003;4.1215385742e+003;
1.7968750000e+000;4.1042309570e+003;4.1128203125e+003;4.1087177734e+003;4.1015385742e+003;4.1107690430e+003;4.1002563477e+003;4.1078203125e+003;4.1164101563e+003;4.1167949219e+003;4.1210258789e+003;4.1123076172e+003;4.1180771484e+003;4.1171796875e+003;4.1120512695e+003;
1.8046875000e+000;4.0301281738e+003;4.0371794434e+003;4.0278205566e+003;4.0233332520e+003;4.0297436523e+003;4.0380769043e+003;4.0405129395e+003;4.0350000000e+003;4.0360256348e+003;4.0362819824e+003;4.0329487305e+003;4.0321794434e+003;4.0348718262e+003;4.0285898438e+003;
1.8125000000e+000;4.0474357910e+003;4.0520512695e+003;4.0419230957e+003;4.0379487305e+003;4.0448718262e+003;4.0551281738e+003;4.0579487305e+003;4.0487180176e+003;4.0489743652e+003;4.0496154785e+003;4.0517949219e+003;4.0457692871e+003;4.0492307129e+003;4.0428205566e+003;
1.8203125000e+000;4.0196154785e+003;4.0267949219e+003;4.0265385742e+003;4.0170512695e+003;4.0370512695e+003;4.0400000000e+003;4.0398718262e+003;4.0347436523e+003;4.0291025391e+003;4.0288461914e+003;4.0397436523e+003;4.0323076172e+003;4.0324357910e+003;4.0235898438e+003;
1.8281250000e+000;4.0723076172e+003;4.0829487305e+003;4.0696154785e+003;4.0669230957e+003;4.0769230957e+003;4.0867949219e+003;4.0880769043e+003;4.0682050781e+003;4.0674357910e+003;4.0683332520e+003;4.0717949219e+003;4.0821794434e+003;4.0793588867e+003;4.0751281738e+003;
1.8359375000e+000;4.0723076172e+003;4.0819230957e+003;4.0671794434e+003;4.0678205566e+003;4.0662819824e+003;4.0851281738e+003;4.0846154785e+003;4.0676923828e+003;4.0670512695e+003;4.0711538086e+003;4.0714101563e+003;4.0829487305e+003;4.0782050781e+003;4.0756411133e+003;
1.8437500000e+000;4.0312819824e+003;4.0411538086e+003;4.0284614258e+003;4.0301281738e+003;4.0238461914e+003;4.0485898438e+003;4.0455129395e+003;4.0301281738e+003;4.0275642090e+003;4.0325642090e+003;4.0337180176e+003;4.0439743652e+003;4.0385898438e+003;4.0364101563e+003;
1.8515625000e+000;4.0164101563e+003;4.0273076172e+003;4.0191025391e+003;4.0133332520e+003;4.0324357910e+003;4.0366667480e+003;4.0334614258e+003;4.0180769043e+003;4.0128205566e+003;4.0192307129e+003;4.0246154785e+003;4.0285898438e+003;4.0289743652e+003;4.0242307129e+003;
1.8593750000e+000;4.0341025391e+003;4.0379487305e+003;4.0407692871e+003;4.0361538086e+003;4.0525642090e+003;4.0453845215e+003;4.0458974609e+003;4.0478205566e+003;4.0497436523e+003;4.0539743652e+003;4.0498718262e+003;4.0523076172e+003;4.0493588867e+003;4.0475642090e+003;
1.8671875000e+000;4.0044870605e+003;4.0084614258e+003;4.0112819824e+003;4.0114101563e+003;4.0144870605e+003;4.0160256348e+003;4.0196154785e+003;4.0224357910e+003;4.0248718262e+003;4.0238461914e+003;4.0182050781e+003;4.0229487305e+003;4.0212819824e+003;4.0173076172e+003;
1.8750000000e+000;4.0111538086e+003;4.0167949219e+003;4.0157692871e+003;4.0173076172e+003;4.0165385742e+003;4.0192307129e+003;4.0271794434e+003;4.0311538086e+003;4.0329487305e+003;4.0291025391e+003;4.0210256348e+003;4.0283332520e+003;4.0305129395e+003;4.0229487305e+003;
1.8828125000e+000;4.0374357910e+003;4.0442307129e+003;4.0401281738e+003;4.0393588867e+003;4.0432050781e+003;4.0402563477e+003;4.0507692871e+003;4.0597436523e+003;4.0602563477e+003;4.0575642090e+003;4.0452563477e+003;4.0547436523e+003;4.0585898438e+003;4.0498718262e+003;
1.8906250000e+000;4.0143588867e+003;4.0308974609e+003;4.0194870605e+003;4.0266667480e+003;4.0161538086e+003;4.0183332520e+003;4.0257692871e+003;4.0339743652e+003;4.0388461914e+003;4.0398718262e+003;4.0332050781e+003;4.0266667480e+003;4.0262819824e+003;4.0214101563e+003;
1.8984375000e+000;4.0570512695e+003;4.0757692871e+003;4.0560256348e+003;4.0653845215e+003;4.0564101563e+003;4.0564101563e+003;4.0638461914e+003;4.0717949219e+003;4.0789743652e+003;4.0817949219e+003;4.0742307129e+003;4.0632050781e+003;4.0705129395e+003;4.0589743652e+003;
1.9062500000e+000;4.0246154785e+003;4.0303845215e+003;4.0201281738e+003;4.0225642090e+003;4.0279487305e+003;4.0255129395e+003;4.0251281738e+003;4.0262819824e+003;4.0312819824e+003;4.0315385742e+003;4.0253845215e+003;4.0260256348e+003;4.0343588867e+003;4.0216667480e+003;
1.9140625000e+000;4.0343588867e+003;4.0364101563e+003;4.0321794434e+003;4.0314101563e+003;4.0326923828e+003;4.0330769043e+003;4.0339743652e+003;4.0291025391e+003;4.0325642090e+003;4.0323076172e+003;4.0325642090e+003;4.0350000000e+003;4.0410256348e+003;4.0305129395e+003;
1.9218750000e+000;4.0287180176e+003;4.0325642090e+003;4.0355129395e+003;4.0333332520e+003;4.0252563477e+003;4.0443588867e+003;4.0421794434e+003;4.0350000000e+003;4.0350000000e+003;4.0375642090e+003;4.0294870605e+003;4.0451281738e+003;4.0408974609e+003;4.0350000000e+003;
1.9296875000e+000;4.0537180176e+003;4.0511538086e+003;4.0562819824e+003;4.0542307129e+003;4.0779487305e+003;4.0803845215e+003;4.0760256348e+003;4.0611538086e+003;4.0638461914e+003;4.0637180176e+003;4.0534614258e+003;4.0693588867e+003;4.0569230957e+003;4.0575642090e+003;
1.9375000000e+000;4.0684614258e+003;4.0621794434e+003;4.0732050781e+003;4.0633332520e+003;4.0902563477e+003;4.0914101563e+003;4.0861538086e+003;4.0783332520e+003;4.0810256348e+003;4.0833332520e+003;4.0758974609e+003;4.0852563477e+003;4.0725642090e+003;4.0739743652e+003;
1.9453125000e+000;4.0139743652e+003;4.0146154785e+003;4.0237180176e+003;4.0175642090e+003;4.0260256348e+003;4.0391025391e+003;4.0373076172e+003;4.0233332520e+003;4.0234614258e+003;4.0311538086e+003;4.0314101563e+003;4.0305129395e+003;4.0312819824e+003;4.0244870605e+003;
1.9531250000e+000;4.0696154785e+003;4.0746154785e+003;4.0730769043e+003;4.0730769043e+003;4.0806411133e+003;4.0862819824e+003;4.0879487305e+003;4.0747436523e+003;4.0765385742e+003;4.0887180176e+003;4.0861538086e+003;4.0833332520e+003;4.0878205566e+003;4.0776923828e+003;
1.9609375000e+000;4.1102563477e+003;4.1139741211e+003;4.1069228516e+003;4.1100000000e+003;4.1114101563e+003;4.1115385742e+003;4.1132050781e+003;4.1133334961e+003;4.1180771484e+003;4.1382050781e+003;4.1270512695e+003;4.1264101563e+003;4.1269228516e+003;4.1151284180e+003;
1.9687500000e+000;4.0902563477e+003;4.0911538086e+003;4.0880769043e+003;4.0891025391e+003;4.0852563477e+003;4.0871794434e+003;4.0893588867e+003;4.0907692871e+003;4.0967949219e+003;4.1166665039e+003;4.1047436523e+003;4.1064101563e+003;4.1069228516e+003;4.0938461914e+003;
1.9765625000e+000;4.1784614258e+003;4.1855126953e+003;4.1785898438e+003;4.1738461914e+003;4.1767949219e+003;4.1598715820e+003;4.1712822266e+003;4.1841025391e+003;4.1879487305e+003;4.2043588867e+003;4.1874360352e+003;4.1878203125e+003;4.2026923828e+003;4.1865385742e+003;
1.9843750000e+000;4.1602563477e+003;4.1698715820e+003;4.1619228516e+003;4.1575639648e+003;4.1623076172e+003;4.1433334961e+003;4.1535898438e+003;4.1721796875e+003;4.1747436523e+003;4.1885898438e+003;4.1717949219e+003;4.1702563477e+003;4.1834614258e+003;4.1703847656e+003;
1.9921875000e+000;4.0905129395e+003;4.0952563477e+003;4.0915385742e+003;4.0820512695e+003;4.0826923828e+003;4.0737180176e+003;4.0819230957e+003;4.0935898438e+003;4.1006411133e+003;4.1080771484e+003;4.0993588867e+003;4.0950000000e+003;4.1039741211e+003;4.0925642090e+003;
2.0000000000e+000;4.0979487305e+003;4.0979487305e+003;4.0973076172e+003;4.0803845215e+003;4.0788461914e+003;4.0766667480e+003;4.0848718262e+003;4.0914101563e+003;4.1019228516e+003;4.1100000000e+003;4.1012822266e+003;4.1001284180e+003;4.1082050781e+003;4.0947436523e+003;
2.0078125000e+000;4.0361538086e+003;4.0393588867e+003;4.0383332520e+003;4.0258974609e+003;4.0294870605e+003;4.0370512695e+003;4.0375642090e+003;4.0314101563e+003;4.0398718262e+003;4.0483332520e+003;4.0382050781e+003;4.0539743652e+003;4.0479487305e+003;4.0443588867e+003;
2.0156250000e+000;4.0360256348e+003;4.0441025391e+003;4.0374357910e+003;4.0347436523e+003;4.0484614258e+003;4.0444870605e+003;4.0452563477e+003;4.0328205566e+003;4.0402563477e+003;4.0474357910e+003;4.0423076172e+003;4.0555129395e+003;4.0485898438e+003;4.0476923828e+003;
2.0234375000e+000;4.0719230957e+003;4.0821794434e+003;4.0725642090e+003;4.0752563477e+003;4.0970512695e+003;4.0806411133e+003;4.0828205566e+003;4.0692307129e+003;4.0770512695e+003;4.0861538086e+003;4.0819230957e+003;4.0907692871e+003;4.0856411133e+003;4.0837180176e+003;
2.0312500000e+000;4.0760256348e+003;4.0796154785e+003;4.0793588867e+003;4.0715385742e+003;4.0852563477e+003;4.0920512695e+003;4.0870512695e+003;4.0637180176e+003;4.0602563477e+003;4.0767949219e+003;4.0800000000e+003;4.0905129395e+003;4.0824357910e+003;4.0830769043e+003;
2.0390625000e+000;4.1375639648e+003;4.1444873047e+003;4.1367949219e+003;4.1319228516e+003;4.1506411133e+003;4.1456411133e+003;4.1437177734e+003;4.1242309570e+003;4.1200000000e+003;4.1398715820e+003;4.1429487305e+003;4.1515385742e+003;4.1461538086e+003;4.1446152344e+003;
2.0468750000e+000;4.1276923828e+003;4.1261538086e+003;4.1358974609e+003;4.1238461914e+003;4.1284614258e+003;4.1302563477e+003;4.1305126953e+003;4.1202563477e+003;4.1133334961e+003;4.1343588867e+003;4.1252563477e+003;4.1400000000e+003;4.1314101563e+003;4.1265385742e+003;
2.0546875000e+000;4.1728203125e+003;4.1723076172e+003;4.1812822266e+003;4.1525639648e+003;4.1742309570e+003;4.1650000000e+003;4.1662822266e+003;4.1674360352e+003;4.1641025391e+003;4.1801284180e+003;4.1728203125e+003;4.1823076172e+003;4.1680771484e+003;4.1688461914e+003;
2.0625000000e+000;4.1506411133e+003;4.1558974609e+003;4.1562822266e+003;4.1367949219e+003;4.1483334961e+003;4.1461538086e+003;4.1456411133e+003;4.1469228516e+003;4.1465385742e+003;4.1594873047e+003;4.1521796875e+003;4.1614101563e+003;4.1501284180e+003;4.1485898438e+003;
2.0703125000e+000;4.2475639648e+003;4.2517949219e+003;4.2392309570e+003;4.2375639648e+003;4.2356411133e+003;4.2323076172e+003;4.2361538086e+003;4.2426923828e+003;4.2451284180e+003;4.2617949219e+003;4.2494873047e+003;4.2515385742e+003;4.2574360352e+003;4.2437177734e+003;
2.0781250000e+000;4.2694873047e+003;4.2685898438e+003;4.2626923828e+003;4.2550000000e+003;4.2638461914e+003;4.2479487305e+003;4.2548715820e+003;4.2647436523e+003;4.2669228516e+003;4.2851284180e+003;4.2712822266e+003;4.2733334961e+003;4.2771796875e+003;4.2660258789e+003;
2.0859375000e+000;4.3357690430e+003;4.3367949219e+003;4.3338461914e+003;4.3120512695e+003;4.3429487305e+003;4.3012822266e+003;4.3165385742e+003;4.3171796875e+003;4.3211538086e+003;4.3424360352e+003;4.3315385742e+003;4.3341025391e+003;4.3347436523e+003;4.3282050781e+003;
2.0937500000e+000;4.4360258789e+003;4.4428203125e+003;4.4311538086e+003;4.4033334961e+003;4.4414101563e+003;4.3908974609e+003;4.4087177734e+003;4.4076923828e+003;4.4143588867e+003;4.4408974609e+003;4.4311538086e+003;4.4292309570e+003;4.4325639648e+003;4.4235898438e+003;
2.1015625000e+000;4.4893588867e+003;4.4932050781e+003;4.4793588867e+003;4.4441025391e+003;4.4861538086e+003;4.4524360352e+003;4.4602563477e+003;4.4671796875e+003;4.4783334961e+003;4.5082050781e+003;4.4923076172e+003;4.4833334961e+003;4.4916665039e+003;4.4747436523e+003;
2.1093750000e+000;4.4223076172e+003;4.4234614258e+003;4.4151284180e+003;4.3856411133e+003;4.4287177734e+003;4.3989741211e+003;4.4058974609e+003;4.4055126953e+003;4.4157690430e+003;4.4402563477e+003;4.4220512695e+003;4.4165385742e+003;4.4273076172e+003;4.4097436523e+003;
2.1171875000e+000;4.3651284180e+003;4.3698715820e+003;4.3620512695e+003;4.3433334961e+003;4.3858974609e+003;4.3515385742e+003;4.3591025391e+003;4.3528203125e+003;4.3614101563e+003;4.3828203125e+003;4.3620512695e+003;4.3612822266e+003;4.3725639648e+003;4.3557690430e+003;
2.1250000000e+000;4.3311538086e+003;4.3394873047e+003;4.3296152344e+003;4.3112822266e+003;4.3512822266e+003;4.3208974609e+003;4.3237177734e+003;4.3185898438e+003;4.3266665039e+003;4.3494873047e+003;4.3320512695e+003;4.3306411133e+003;4.3379487305e+003;4.3223076172e+003;
2.1328125000e+000;4.3885898438e+003;4.3992309570e+003;4.3792309570e+003;4.3560258789e+003;4.4039741211e+003;4.3773076172e+003;4.3724360352e+003;4.3567949219e+003;4.3617949219e+003;4.3874360352e+003;4.3869228516e+003;4.3729487305e+003;4.3908974609e+003;4.3674360352e+003;
2.1406250000e+000;4.4824360352e+003;4.4905126953e+003;4.4688461914e+003;4.4465385742e+003;4.4900000000e+003;4.4608974609e+003;4.4603847656e+003;4.4500000000e+003;4.4514101563e+003;4.4812822266e+003;4.4769228516e+003;4.4630771484e+003;4.4852563477e+003;4.4589741211e+003;
2.1484375000e+000;4.5219228516e+003;4.5273076172e+003;4.5079487305e+003;4.4874360352e+003;4.5194873047e+003;4.4942309570e+003;4.4975639648e+003;4.4956411133e+003;4.4917949219e+003;4.5256411133e+003;4.5164101563e+003;4.5069228516e+003;4.5250000000e+003;4.5001284180e+003;
2.1562500000e+000;4.4889741211e+003;4.4939741211e+003;4.4743588867e+003;4.4456411133e+003;4.5111538086e+003;4.4615385742e+003;4.4714101563e+003;4.4707690430e+003;4.4664101563e+003;4.4976923828e+003;4.4952563477e+003;4.4860258789e+003;4.4966665039e+003;4.4742309570e+003;
2.1640625000e+000;4.4519228516e+003;4.4570512695e+003;4.4383334961e+003;4.4132050781e+003;4.4720512695e+003;4.4297436523e+003;4.4376923828e+003;4.4401284180e+003;4.4366665039e+003;4.4653847656e+003;4.4596152344e+003;4.4482050781e+003;4.4630771484e+003;4.4365385742e+003;
2.1718750000e+000;4.4241025391e+003;4.4297436523e+003;4.4128203125e+003;4.3911538086e+003;4.4282050781e+003;4.4038461914e+003;4.4179487305e+003;4.4191025391e+003;4.4208974609e+003;4.4416665039e+003;4.4371796875e+003;4.4160258789e+003;4.4385898438e+003;4.4071796875e+003;
2.1796875000e+000;4.4400000000e+003;4.4435898438e+003;4.4293588867e+003;4.4056411133e+003;4.4442309570e+003;4.4178203125e+003;4.4323076172e+003;4.4375639648e+003;4.4406411133e+003;4.4605126953e+003;4.4538461914e+003;4.4353847656e+003;4.4542309570e+003;4.4270512695e+003;
2.1875000000e+000;4.3992309570e+003;4.4014101563e+003;4.3885898438e+003;4.3678203125e+003;4.4078203125e+003;4.3817949219e+003;4.3908974609e+003;4.3970512695e+003;4.4008974609e+003;4.4175639648e+003;4.4067949219e+003;4.3967949219e+003;4.4092309570e+003;4.3896152344e+003;
2.1953125000e+000;4.3692309570e+003;4.3775639648e+003;4.3564101563e+003;4.3407690430e+003;4.3720512695e+003;4.3553847656e+003;4.3594873047e+003;4.3744873047e+003;4.3793588867e+003;4.3991025391e+003;4.3838461914e+003;4.3621796875e+003;4.3891025391e+003;4.3587177734e+003;
2.2031250000e+000;4.3252563477e+003;4.3314101563e+003;4.3146152344e+003;4.3033334961e+003;4.3284614258e+003;4.3178203125e+003;4.3220512695e+003;4.3312822266e+003;4.3346152344e+003;4.3515385742e+003;4.3364101563e+003;4.3201284180e+003;4.3433334961e+003;4.3143588867e+003;
2.2109375000e+000;4.3306411133e+003;4.3353847656e+003;4.3193588867e+003;4.3094873047e+003;4.3437177734e+003;4.3230771484e+003;4.3291025391e+003;4.3293588867e+003;4.3325639648e+003;4.3478203125e+003;4.3338461914e+003;4.3233334961e+003;4.3434614258e+003;4.3187177734e+003;
2.2187500000e+000;4.3317949219e+003;4.3383334961e+003;4.3216665039e+003;4.3074360352e+003;4.3514101563e+003;4.3255126953e+003;4.3291025391e+003;4.3319228516e+003;4.3351284180e+003;4.3520512695e+003;4.3383334961e+003;4.3261538086e+003;4.3467949219e+003;4.3233334961e+003;
2.2265625000e+000;4.2800000000e+003;4.2908974609e+003;4.2743588867e+003;4.2564101563e+003;4.2884614258e+003;4.2883334961e+003;4.2871796875e+003;4.2820512695e+003;4.2833334961e+003;4.2980771484e+003;4.2956411133e+003;4.2764101563e+003;4.3008974609e+003;4.2716665039e+003;
2.2343750000e+000;4.3228203125e+003;4.3342309570e+003;4.3144873047e+003;4.3005126953e+003;4.3235898438e+003;4.3266665039e+003;4.3274360352e+003;4.3217949219e+003;4.3223076172e+003;4.3383334961e+003;4.3379487305e+003;4.3157690430e+003;4.3408974609e+003;4.3103847656e+003;
2.2421875000e+000;4.3414101563e+003;4.3535898438e+003;4.3335898438e+003;4.3238461914e+003;4.3514101563e+003;4.3417949219e+003;4.3412822266e+003;4.3391025391e+003;4.3392309570e+003;4.3587177734e+003;4.3575639648e+003;4.3339741211e+003;4.3533334961e+003;4.3288461914e+003;
2.2500000000e+000;4.3241025391e+003;4.3369228516e+003;4.3182050781e+003;4.3074360352e+003;4.3473076172e+003;4.3269228516e+003;4.3256411133e+003;4.3191025391e+003;4.3198715820e+003;4.3396152344e+003;4.3394873047e+003;4.3170512695e+003;4.3346152344e+003;4.3124360352e+003;
2.2578125000e+000;4.4435898438e+003;4.4562822266e+003;4.4337177734e+003;4.4165385742e+003;4.4651284180e+003;4.4320512695e+003;4.4405126953e+003;4.4344873047e+003;4.4300000000e+003;4.4580771484e+003;4.4508974609e+003;4.4348715820e+003;4.4528203125e+003;4.4266665039e+003;
2.2656250000e+000;4.4351284180e+003;4.4470512695e+003;4.4255126953e+003;4.4100000000e+003;4.4443588867e+003;4.4206411133e+003;4.4300000000e+003;4.4285898438e+003;4.4216665039e+003;4.4497436523e+003;4.4400000000e+003;4.4276923828e+003;4.4415385742e+003;4.4173076172e+003;
2.2734375000e+000;4.4008974609e+003;4.4126923828e+003;4.3919228516e+003;4.3793588867e+003;4.4016665039e+003;4.3860258789e+003;4.3947436523e+003;4.3929487305e+003;4.3870512695e+003;4.4119228516e+003;4.4039741211e+003;4.3935898438e+003;4.4043588867e+003;4.3833334961e+003;
2.2812500000e+000;4.3917949219e+003;4.4035898438e+003;4.3817949219e+003;4.3698715820e+003;4.3902563477e+003;4.3746152344e+003;4.3832050781e+003;4.3791025391e+003;4.3770512695e+003;4.3992309570e+003;4.3950000000e+003;4.3835898438e+003;4.3944873047e+003;4.3755126953e+003;
2.2890625000e+000;4.3897436523e+003;4.3876923828e+003;4.3882050781e+003;4.3533334961e+003;4.3879487305e+003;4.3661538086e+003;4.3782050781e+003;4.3869228516e+003;4.3920512695e+003;4.4093588867e+003;4.4034614258e+003;4.3873076172e+003;4.4000000000e+003;4.3778203125e+003;
2.2968750000e+000;4.3739741211e+003;4.3721796875e+003;4.3742309570e+003;4.3439741211e+003;4.3658974609e+003;4.3506411133e+003;4.3650000000e+003;4.3723076172e+003;4.3778203125e+003;4.3902563477e+003;4.3862822266e+003;4.3655126953e+003;4.3823076172e+003;4.3582050781e+003;
2.3046875000e+000;4.3779487305e+003;4.3879487305e+003;4.3738461914e+003;4.3639741211e+003;4.3644873047e+003;4.3529487305e+003;4.3664101563e+003;4.3794873047e+003;4.3846152344e+003;4.3979487305e+003;4.3869228516e+003;4.3669228516e+003;4.3851284180e+003;4.3606411133e+003;
2.3125000000e+000;4.3573076172e+003;4.3632050781e+003;4.3546152344e+003;4.3285898438e+003;4.3692309570e+003;4.3460258789e+003;4.3478203125e+003;4.3496152344e+003;4.3547436523e+003;4.3696152344e+003;4.3556411133e+003;4.3491025391e+003;4.3591025391e+003;4.3411538086e+003;
2.3203125000e+000;4.3880771484e+003;4.3943588867e+003;4.3846152344e+003;4.3582050781e+003;4.4038461914e+003;4.3779487305e+003;4.3773076172e+003;4.3797436523e+003;4.3876923828e+003;4.4021796875e+003;4.3875639648e+003;4.3817949219e+003;4.3891025391e+003;4.3743588867e+003;
2.3281250000e+000;4.3216665039e+003;4.3314101563e+003;4.3106411133e+003;4.3067949219e+003;4.3325639648e+003;4.3252563477e+003;4.3226923828e+003;4.3139741211e+003;4.3225639648e+003;4.3324360352e+003;4.3346152344e+003;4.3148715820e+003;4.3223076172e+003;4.3074360352e+003;
2.3359375000e+000;4.3896152344e+003;4.3874360352e+003;4.3788461914e+003;4.3547436523e+003;4.3924360352e+003;4.3861538086e+003;4.3796152344e+003;4.3732050781e+003;4.3767949219e+003;4.4006411133e+003;4.3962822266e+003;4.3766665039e+003;4.3880771484e+003;4.3689741211e+003;
2.3437500000e+000;4.3485898438e+003;4.3467949219e+003;4.3423076172e+003;4.3215385742e+003;4.3485898438e+003;4.3498715820e+003;4.3412822266e+003;4.3339741211e+003;4.3357690430e+003;4.3585898438e+003;4.3529487305e+003;4.3401284180e+003;4.3460258789e+003;4.3307690430e+003;
2.3515625000e+000;4.3402563477e+003;4.3470512695e+003;4.3314101563e+003;4.3221796875e+003;4.3432050781e+003;4.3352563477e+003;4.3356411133e+003;4.3266665039e+003;4.3257690430e+003;4.3387177734e+003;4.3417949219e+003;4.3370512695e+003;4.3357690430e+003;4.3258974609e+003;
2.3593750000e+000;4.3301284180e+003;4.3346152344e+003;4.3232050781e+003;4.3067949219e+003;4.3301284180e+003;4.3233334961e+003;4.3228203125e+003;4.3184614258e+003;4.3174360352e+003;4.3285898438e+003;4.3315385742e+003;4.3296152344e+003;4.3248715820e+003;4.3169228516e+003;
2.3671875000e+000;4.2724360352e+003;4.2687177734e+003;4.2739741211e+003;4.2510258789e+003;4.2562822266e+003;4.2685898438e+003;4.2678203125e+003;4.2580771484e+003;4.2576923828e+003;4.2676923828e+003;4.2742309570e+003;4.2711538086e+003;4.2674360352e+003;4.2605126953e+003;
2.3750000000e+000;4.2948715820e+003;4.2893588867e+003;4.2964101563e+003;4.2764101563e+003;4.2738461914e+003;4.2860258789e+003;4.2891025391e+003;4.2773076172e+003;4.2783334961e+003;4.2905126953e+003;4.3001284180e+003;4.2888461914e+003;4.2916665039e+003;4.2833334961e+003;
2.3828125000e+000;4.2985898438e+003;4.3039741211e+003;4.2958974609e+003;4.2846152344e+003;4.3019228516e+003;4.2875639648e+003;4.2888461914e+003;4.2946152344e+003;4.3007690430e+003;4.3101284180e+003;4.3139741211e+003;4.2997436523e+003;4.3044873047e+003;4.2979487305e+003;
2.3906250000e+000;4.2717949219e+003;4.2805126953e+003;4.2687177734e+003;4.2573076172e+003;4.2846152344e+003;4.2655126953e+003;4.2653847656e+003;4.2702563477e+003;4.2788461914e+003;4.2828203125e+003;4.2823076172e+003;4.2778203125e+003;4.2773076172e+003;4.2726923828e+003;
2.3984375000e+000;4.2853847656e+003;4.2938461914e+003;4.2808974609e+003;4.2678203125e+003;4.3001284180e+003;4.2780771484e+003;4.2800000000e+003;4.2829487305e+003;4.2944873047e+003;4.2958974609e+003;4.2917949219e+003;4.2929487305e+003;4.2889741211e+003;4.2855126953e+003;
2.4062500000e+000;4.3167949219e+003;4.3214101563e+003;4.3116665039e+003;4.2961538086e+003;4.3255126953e+003;4.3048715820e+003;4.3094873047e+003;4.3148715820e+003;4.3284614258e+003;4.3307690430e+003;4.3241025391e+003;4.3243588867e+003;4.3189741211e+003;4.3160258789e+003;
2.4140625000e+000;4.2511538086e+003;4.2529487305e+003;4.2483334961e+003;4.2416665039e+003;4.2514101563e+003;4.2415385742e+003;4.2478203125e+003;4.2574360352e+003;4.2703847656e+003;4.2670512695e+003;4.2617949219e+003;4.2539741211e+003;4.2562822266e+003;4.2482050781e+003;
2.4218750000e+000;4.2785898438e+003;4.2828203125e+003;4.2719228516e+003;4.2683334961e+003;4.2805126953e+003;4.2665385742e+003;4.2717949219e+003;4.2810258789e+003;4.2952563477e+003;4.2914101563e+003;4.2860258789e+003;4.2803847656e+003;4.2830771484e+003;4.2747436523e+003;
2.4296875000e+000;4.1984614258e+003;4.2007690430e+003;4.2001284180e+003;4.2012822266e+003;4.2032050781e+003;4.2101284180e+003;4.2038461914e+003;4.2011538086e+003;4.2133334961e+003;4.2093588867e+003;4.2111538086e+003;4.2066665039e+003;4.1967949219e+003;4.1989741211e+003;
2.4375000000e+000;4.1861538086e+003;4.1887177734e+003;4.1874360352e+003;4.1876923828e+003;4.1932050781e+003;4.2112822266e+003;4.2069228516e+003;4.1958974609e+003;4.2041025391e+003;4.2015385742e+003;4.1960258789e+003;4.1906411133e+003;4.1878203125e+003;4.1826923828e+003;
2.4453125000e+000;4.1556411133e+003;4.1562822266e+003;4.1551284180e+003;4.1551284180e+003;4.1551284180e+003;4.1811538086e+003;4.1757690430e+003;4.1632050781e+003;4.1694873047e+003;4.1650000000e+003;4.1601284180e+003;4.1584614258e+003;4.1547436523e+003;4.1494873047e+003;
2.4531250000e+000;4.2005126953e+003;4.2028203125e+003;4.1934614258e+003;4.1957690430e+003;4.2091025391e+003;4.2079487305e+003;4.2026923828e+003;4.1896152344e+003;4.1896152344e+003;4.1866665039e+003;4.1987177734e+003;4.1938461914e+003;4.1874360352e+003;4.1876923828e+003;
2.4609375000e+000;4.1511538086e+003;4.1596152344e+003;4.1479487305e+003;4.1606411133e+003;4.1707690430e+003;4.1675639648e+003;4.1630771484e+003;4.1502563477e+003;4.1452563477e+003;4.1491025391e+003;4.1561538086e+003;4.1570512695e+003;4.1544873047e+003;4.1530771484e+003;
2.4687500000e+000;4.1715385742e+003;4.1774360352e+003;4.1673076172e+003;4.1784614258e+003;4.1844873047e+003;4.1855126953e+003;4.1832050781e+003;4.1660258789e+003;4.1607690430e+003;4.1652563477e+003;4.1720512695e+003;4.1720512695e+003;4.1751284180e+003;4.1728203125e+003;
2.4765625000e+000;4.2406411133e+003;4.2419228516e+003;4.2379487305e+003;4.2326923828e+003;4.2414101563e+003;4.2366665039e+003;4.2388461914e+003;4.2364101563e+003;4.2375639648e+003;4.2428203125e+003;4.2408974609e+003;4.2388461914e+003;4.2400000000e+003;4.2410258789e+003;
2.4843750000e+000;4.2028203125e+003;4.2060258789e+003;4.2005126953e+003;4.1952563477e+003;4.2038461914e+003;4.2007690430e+003;4.2026923828e+003;4.2006411133e+003;4.2057690430e+003;4.2069228516e+003;4.2062822266e+003;4.2042309570e+003;4.2028203125e+003;4.2028203125e+003;
2.4921875000e+000;4.2293588867e+003;4.2330771484e+003;4.2207690430e+003;4.2164101563e+003;4.2170512695e+003;4.2185898438e+003;4.2206411133e+003;4.2219228516e+003;4.2347436523e+003;4.2303847656e+003;4.2312822266e+003;4.2261538086e+003;4.2296152344e+003;4.2220512695e+003;
2.5000000000e+000;4.2511538086e+003;4.2511538086e+003;4.2425639648e+003;4.2346152344e+003;4.2292309570e+003;4.2342309570e+003;4.2358974609e+003;4.2437177734e+003;4.2585898438e+003;4.2532050781e+003;4.2485898438e+003;4.2466665039e+003;4.2501284180e+003;4.2417949219e+003;
2.5078125000e+000;4.2014101563e+003;4.1975639648e+003;4.2015385742e+003;4.1889741211e+003;4.1920512695e+003;4.1874360352e+003;4.1948715820e+003;4.2003847656e+003;4.2148715820e+003;4.2071796875e+003;4.1969228516e+003;4.2008974609e+003;4.1996152344e+003;4.1948715820e+003;
2.5156250000e+000;4.2325639648e+003;4.2315385742e+003;4.2297436523e+003;4.2217949219e+003;4.2316665039e+003;4.2148715820e+003;4.2250000000e+003;4.2307690430e+003;4.2446152344e+003;4.2401284180e+003;4.2337177734e+003;4.2303847656e+003;4.2329487305e+003;4.2255126953e+003;
2.5234375000e+000;4.2530771484e+003;4.2534614258e+003;4.2476923828e+003;4.2455126953e+003;4.2556411133e+003;4.2334614258e+003;4.2424360352e+003;4.2515385742e+003;4.2643588867e+003;4.2633334961e+003;4.2593588867e+003;4.2500000000e+003;4.2546152344e+003;4.2456411133e+003;
2.5312500000e+000;4.2343588867e+003;4.2347436523e+003;4.2297436523e+003;4.2326923828e+003;4.2366665039e+003;4.2193588867e+003;4.2242309570e+003;4.2338461914e+003;4.2451284180e+003;4.2456411133e+003;4.2424360352e+003;4.2315385742e+003;4.2346152344e+003;4.2270512695e+003;
2.5390625000e+000;4.2429487305e+003;4.2542309570e+003;4.2461538086e+003;4.2458974609e+003;4.2514101563e+003;4.2576923828e+003;4.2584614258e+003;4.2524360352e+003;4.2643588867e+003;4.2600000000e+003;4.2497436523e+003;4.2514101563e+003;4.2410258789e+003;4.2435898438e+003;
2.5468750000e+000;4.2226923828e+003;4.2343588867e+003;4.2258974609e+003;4.2275639648e+003;4.2352563477e+003;4.2455126953e+003;4.2425639648e+003;4.2378203125e+003;4.2482050781e+003;4.2437177734e+003;4.2296152344e+003;4.2344873047e+003;4.2224360352e+003;4.2232050781e+003;
2.5546875000e+000;4.2230771484e+003;4.2326923828e+003;4.2214101563e+003;4.2210258789e+003;4.2483334961e+003;4.2443588867e+003;4.2406411133e+003;4.2237177734e+003;4.2238461914e+003;4.2279487305e+003;4.2202563477e+003;4.2133334961e+003;4.2207690430e+003;4.2070512695e+003;
2.5625000000e+000;4.2134614258e+003;4.2320512695e+003;4.2182050781e+003;4.2207690430e+003;4.2252563477e+003;4.2383334961e+003;4.2332050781e+003;4.2185898438e+003;4.2169228516e+003;4.2229487305e+003;4.2284614258e+003;4.2137177734e+003;4.2152563477e+003;4.2143588867e+003;
2.5703125000e+000;4.2138461914e+003;4.2329487305e+003;4.2167949219e+003;4.2266665039e+003;4.2196152344e+003;4.2410258789e+003;4.2358974609e+003;4.2185898438e+003;4.2162822266e+003;4.2214101563e+003;4.2279487305e+003;4.2175639648e+003;4.2170512695e+003;4.2165385742e+003;
2.5781250000e+000;4.2623076172e+003;4.2720512695e+003;4.2623076172e+003;4.2608974609e+003;4.2867949219e+003;4.2792309570e+003;4.2769228516e+003;4.2728203125e+003;4.2703847656e+003;4.2803847656e+003;4.2679487305e+003;4.2720512695e+003;4.2711538086e+003;4.2679487305e+003;
2.5859375000e+000;4.2964101563e+003;4.3000000000e+003;4.2965385742e+003;4.2857690430e+003;4.3102563477e+003;4.2978203125e+003;4.3012822266e+003;4.2932050781e+003;4.3007690430e+003;4.3062822266e+003;4.2973076172e+003;4.2942309570e+003;4.2970512695e+003;4.2908974609e+003;
2.5937500000e+000;4.3750000000e+003;4.3764101563e+003;4.3698715820e+003;4.3584614258e+003;4.3755126953e+003;4.3620512695e+003;4.3678203125e+003;4.3675639648e+003;4.3780771484e+003;4.3865385742e+003;4.3746152344e+003;4.3680771484e+003;4.3730771484e+003;4.3648715820e+003;
2.6015625000e+000;4.3517949219e+003;4.3542309570e+003;4.3526923828e+003;4.3287177734e+003;4.3476923828e+003;4.3294873047e+003;4.3330771484e+003;4.3426923828e+003;4.3562822266e+003;4.3674360352e+003;4.3578203125e+003;4.3466665039e+003;4.3447436523e+003;4.3444873047e+003;
2.6093750000e+000;4.3674360352e+003;4.3723076172e+003;4.3703847656e+003;4.3432050781e+003;4.3666665039e+003;4.3403847656e+003;4.3466665039e+003;4.3551284180e+003;4.3693588867e+003;4.3810258789e+003;4.3752563477e+003;4.3621796875e+003;4.3602563477e+003;4.3620512695e+003;
2.6171875000e+000;4.4057690430e+003;4.4107690430e+003;4.4082050781e+003;4.3841025391e+003;4.3970512695e+003;4.3720512695e+003;4.3839741211e+003;4.3979487305e+003;4.4084614258e+003;4.4221796875e+003;4.4146152344e+003;4.4012822266e+003;4.4002563477e+003;4.4030771484e+003;
2.6250000000e+000;4.3778203125e+003;4.3829487305e+003;4.3802563477e+003;4.3611538086e+003;4.3683334961e+003;4.3515385742e+003;4.3643588867e+003;4.3751284180e+003;4.3834614258e+003;4.3941025391e+003;4.3855126953e+003;4.3734614258e+003;4.3730771484e+003;4.3751284180e+003;
2.6328125000e+000;4.3811538086e+003;4.3933334961e+003;4.3787177734e+003;4.3651284180e+003;4.3905126953e+003;4.3773076172e+003;4.3914101563e+003;4.3879487305e+003;4.3975639648e+003;4.3988461914e+003;4.3897436523e+003;4.3775639648e+003;4.3788461914e+003;4.3769228516e+003;
2.6406250000e+000;4.3673076172e+003;4.3766665039e+003;4.3653847656e+003;4.3510258789e+003;4.3732050781e+003;4.3685898438e+003;4.3797436523e+003;4.3783334961e+003;4.3865385742e+003;4.3893588867e+003;4.3766665039e+003;4.3656411133e+003;4.3653847656e+003;4.3632050781e+003;
2.6484375000e+000;4.3257690430e+003;4.3288461914e+003;4.3258974609e+003;4.3116665039e+003;4.3252563477e+003;4.3323076172e+003;4.3402563477e+003;4.3375639648e+003;4.3430771484e+003;4.3469228516e+003;4.3312822266e+003;4.3226923828e+003;4.3219228516e+003;4.3189741211e+003;
2.6562500000e+000;4.3000000000e+003;4.2960258789e+003;4.3015385742e+003;4.2869228516e+003;4.2958974609e+003;4.3083334961e+003;4.3147436523e+003;4.3069228516e+003;4.3098715820e+003;4.3135898438e+003;4.2979487305e+003;4.2912822266e+003;4.2912822266e+003;4.2873076172e+003;
2.6640625000e+000;4.3284614258e+003;4.3214101563e+003;4.3287177734e+003;4.3052563477e+003;4.3356411133e+003;4.3250000000e+003;4.3266665039e+003;4.3174360352e+003;4.3108974609e+003;4.3275639648e+003;4.3262822266e+003;4.3229487305e+003;4.3074360352e+003;4.3156411133e+003;
2.6718750000e+000;4.3079487305e+003;4.3006411133e+003;4.3065385742e+003;4.2830771484e+003;4.3089741211e+003;4.3015385742e+003;4.3039741211e+003;4.2917949219e+003;4.2834614258e+003;4.3033334961e+003;4.3069228516e+003;4.3026923828e+003;4.2912822266e+003;4.2983334961e+003;
2.6796875000e+000;4.3351284180e+003;4.3279487305e+003;4.3329487305e+003;4.3076923828e+003;4.3196152344e+003;4.3178203125e+003;4.3216665039e+003;4.3185898438e+003;4.3120512695e+003;4.3330771484e+003;4.3432050781e+003;4.3316665039e+003;4.3319228516e+003;4.3338461914e+003;
2.6875000000e+000;4.3130771484e+003;4.3117949219e+003;4.3092309570e+003;4.2965385742e+003;4.3060258789e+003;4.2953847656e+003;4.3012822266e+003;4.2960258789e+003;4.2944873047e+003;4.3084614258e+003;4.3121796875e+003;4.3135898438e+003;4.3024360352e+003;4.3103847656e+003;
2.6953125000e+000;4.3600000000e+003;4.3562822266e+003;4.3512822266e+003;4.3389741211e+003;4.3506411133e+003;4.3319228516e+003;4.3419228516e+003;4.3407690430e+003;4.3417949219e+003;4.3582050781e+003;4.3534614258e+003;4.3566665039e+003;4.3473076172e+003;4.3534614258e+003;
2.7031250000e+000;4.2939741211e+003;4.2856411133e+003;4.2915385742e+003;4.2687177734e+003;4.2635898438e+003;4.2721796875e+003;4.2769228516e+003;4.2869228516e+003;4.2929487305e+003;4.2997436523e+003;4.2965385742e+003;4.2903847656e+003;4.2870512695e+003;4.2883334961e+003;
2.7109375000e+000;4.3578203125e+003;4.3596152344e+003;4.3511538086e+003;4.3321796875e+003;4.3408974609e+003;4.3260258789e+003;4.3303847656e+003;4.3467949219e+003;4.3593588867e+003;4.3621796875e+003;4.3707690430e+003;4.3541025391e+003;4.3578203125e+003;4.3580771484e+003;
2.7187500000e+000;4.3332050781e+003;4.3316665039e+003;4.3261538086e+003;4.3101284180e+003;4.3255126953e+003;4.2964101563e+003;4.3015385742e+003;4.3194873047e+003;4.3315385742e+003;4.3341025391e+003;4.3415385742e+003;4.3317949219e+003;4.3298715820e+003;4.3332050781e+003;
2.7265625000e+000;4.2966665039e+003;4.2897436523e+003;4.2892309570e+003;4.2743588867e+003;4.2919228516e+003;4.2571796875e+003;4.2638461914e+003;4.2779487305e+003;4.2880771484e+003;4.2894873047e+003;4.2961538086e+003;4.2950000000e+003;4.2862822266e+003;4.2933334961e+003;
2.7343750000e+000;4.3079487305e+003;4.2965385742e+003;4.2978203125e+003;4.2782050781e+003;4.2894873047e+003;4.2675639648e+003;4.2769228516e+003;4.2833334961e+003;4.2905126953e+003;4.2939741211e+003;4.2961538086e+003;4.3030771484e+003;4.2857690430e+003;4.2982050781e+003;
2.7421875000e+000;4.3062822266e+003;4.2964101563e+003;4.2971796875e+003;4.2766665039e+003;4.2815385742e+003;4.2729487305e+003;4.2806411133e+003;4.2861538086e+003;4.2932050781e+003;4.2974360352e+003;4.2980771484e+003;4.3039741211e+003;4.2844873047e+003;4.2983334961e+003;
2.7500000000e+000;4.2166665039e+003;4.2100000000e+003;4.2128203125e+003;4.2026923828e+003;4.1992309570e+003;4.2085898438e+003;4.2106411133e+003;4.2041025391e+003;4.2103847656e+003;4.2069228516e+003;4.2174360352e+003;4.2162822266e+003;4.2020512695e+003;4.2137177734e+003;
2.7578125000e+000;4.2079487305e+003;4.2017949219e+003;4.2026923828e+003;4.1988461914e+003;4.1979487305e+003;4.2050000000e+003;4.2064101563e+003;4.1924360352e+003;4.1966665039e+003;4.1908974609e+003;4.2067949219e+003;4.2015385742e+003;4.1950000000e+003;4.2029487305e+003;
2.7656250000e+000;4.2401284180e+003;4.2384614258e+003;4.2294873047e+003;4.2289741211e+003;4.2360258789e+003;4.2365385742e+003;4.2333334961e+003;4.2224360352e+003;4.2147436523e+003;4.2214101563e+003;4.2274360352e+003;4.2284614258e+003;4.2212822266e+003;4.2285898438e+003;
2.7734375000e+000;4.2089741211e+003;4.2108974609e+003;4.2007690430e+003;4.2020512695e+003;4.2084614258e+003;4.2106411133e+003;4.2043588867e+003;4.1906411133e+003;4.1816665039e+003;4.1887177734e+003;4.1960258789e+003;4.2010258789e+003;4.1882050781e+003;4.1980771484e+003;
2.7812500000e+000;4.2035898438e+003;4.2080771484e+003;4.1974360352e+003;4.1994873047e+003;4.2056411133e+003;4.2067949219e+003;4.2000000000e+003;4.1815385742e+003;4.1733334961e+003;4.1792309570e+003;4.1914101563e+003;4.1975639648e+003;4.1826923828e+003;4.1939741211e+003;
2.7890625000e+000;4.2069228516e+003;4.2006411133e+003;4.2038461914e+003;4.2005126953e+003;4.1938461914e+003;4.2023076172e+003;4.2012822266e+003;4.1750000000e+003;4.1666665039e+003;4.1798715820e+003;4.1892309570e+003;4.1975639648e+003;4.1825639648e+003;4.1993588867e+003;
2.7968750000e+000;4.2596152344e+003;4.2537177734e+003;4.2524360352e+003;4.2482050781e+003;4.2546152344e+003;4.2476923828e+003;4.2488461914e+003;4.2275639648e+003;4.2226923828e+003;4.2364101563e+003;4.2452563477e+003;4.2453847656e+003;4.2356411133e+003;4.2489741211e+003;
2.8046875000e+000;4.2352563477e+003;4.2323076172e+003;4.2357690430e+003;4.2260258789e+003;4.2407690430e+003;4.2233334961e+003;4.2223076172e+003;4.2246152344e+003;4.2308974609e+003;4.2330771484e+003;4.2301284180e+003;4.2329487305e+003;4.2246152344e+003;4.2319228516e+003;
2.8125000000e+000;4.2791025391e+003;4.2843588867e+003;4.2723076172e+003;4.2761538086e+003;4.2808974609e+003;4.2623076172e+003;4.2667949219e+003;4.2789741211e+003;4.2879487305e+003;4.2876923828e+003;4.2853847656e+003;4.2803847656e+003;4.2765385742e+003;4.2828203125e+003;
2.8203125000e+000;4.2665385742e+003;4.2689741211e+003;4.2607690430e+003;4.2625639648e+003;4.2661538086e+003;4.2494873047e+003;4.2534614258e+003;4.2698715820e+003;4.2796152344e+003;4.2788461914e+003;4.2764101563e+003;4.2696152344e+003;4.2664101563e+003;4.2721796875e+003;
2.8281250000e+000;4.2664101563e+003;4.2675639648e+003;4.2629487305e+003;4.2596152344e+003;4.2666665039e+003;4.2438461914e+003;4.2497436523e+003;4.2621796875e+003;4.2737177734e+003;4.2660258789e+003;4.2611538086e+003;4.2670512695e+003;4.2614101563e+003;4.2625639648e+003;
2.8359375000e+000;4.3041025391e+003;4.3089741211e+003;4.2980771484e+003;4.2958974609e+003;4.3078203125e+003;4.2788461914e+003;4.2839741211e+003;4.3001284180e+003;4.3100000000e+003;4.3060258789e+003;4.2967949219e+003;4.3044873047e+003;4.2974360352e+003;4.2965385742e+003;
2.8437500000e+000;4.2589741211e+003;4.2669228516e+003;4.2528203125e+003;4.2515385742e+003;4.2619228516e+003;4.2487177734e+003;4.2476923828e+003;4.2576923828e+003;4.2638461914e+003;4.2642309570e+003;4.2569228516e+003;4.2593588867e+003;4.2501284180e+003;4.2517949219e+003;
2.8515625000e+000;4.2351284180e+003;4.2411538086e+003;4.2288461914e+003;4.2267949219e+003;4.2325639648e+003;4.2338461914e+003;4.2320512695e+003;4.2293588867e+003;4.2360258789e+003;4.2353847656e+003;4.2352563477e+003;4.2329487305e+003;4.2248715820e+003;4.2293588867e+003;
2.8593750000e+000;4.2594873047e+003;4.2626923828e+003;4.2524360352e+003;4.2546152344e+003;4.2624360352e+003;4.2738461914e+003;4.2662822266e+003;4.2457690430e+003;4.2551284180e+003;4.2552563477e+003;4.2580771484e+003;4.2596152344e+003;4.2556411133e+003;4.2569228516e+003;
2.8671875000e+000;4.2335898438e+003;4.2380771484e+003;4.2280771484e+003;4.2319228516e+003;4.2491025391e+003;4.2542309570e+003;4.2429487305e+003;4.2196152344e+003;4.2260258789e+003;4.2274360352e+003;4.2279487305e+003;4.2351284180e+003;4.2330771484e+003;4.2297436523e+003;
2.8750000000e+000;4.2597436523e+003;4.2674360352e+003;4.2542309570e+003;4.2517949219e+003;4.2896152344e+003;4.2755126953e+003;4.2670512695e+003;4.2400000000e+003;4.2402563477e+003;4.2473076172e+003;4.2524360352e+003;4.2606411133e+003;4.2620512695e+003;4.2546152344e+003;
2.8828125000e+000;4.2856411133e+003;4.2951284180e+003;4.2796152344e+003;4.2756411133e+003;4.3112822266e+003;4.2957690430e+003;4.2900000000e+003;4.2670512695e+003;4.2660258789e+003;4.2747436523e+003;4.2847436523e+003;4.2905126953e+003;4.2880771484e+003;4.2842309570e+003;
2.8906250000e+000;4.2328203125e+003;4.2416665039e+003;4.2282050781e+003;4.2348715820e+003;4.2398715820e+003;4.2439741211e+003;4.2397436523e+003;4.2228203125e+003;4.2212822266e+003;4.2200000000e+003;4.2360258789e+003;4.2411538086e+003;4.2275639648e+003;4.2321796875e+003;
2.8984375000e+000;4.2830771484e+003;4.2889741211e+003;4.2774360352e+003;4.2776923828e+003;4.2885898438e+003;4.2853847656e+003;4.2846152344e+003;4.2726923828e+003;4.2712822266e+003;4.2714101563e+003;4.2797436523e+003;4.2838461914e+003;4.2764101563e+003;4.2755126953e+003;
2.9062500000e+000;4.3437177734e+003;4.3473076172e+003;4.3376923828e+003;4.3292309570e+003;4.3474360352e+003;4.3351284180e+003;4.3373076172e+003;4.3364101563e+003;4.3360258789e+003;4.3398715820e+003;4.3383334961e+003;4.3397436523e+003;4.3376923828e+003;4.3321796875e+003;
2.9140625000e+000;4.3379487305e+003;4.3452563477e+003;4.3311538086e+003;4.3225639648e+003;4.3229487305e+003;4.3170512695e+003;4.3198715820e+003;4.3369228516e+003;4.3553847656e+003;4.3470512695e+003;4.3407690430e+003;4.3357690430e+003;4.3339741211e+003;4.3320512695e+003;
2.9218750000e+000;4.3452563477e+003;4.3475639648e+003;4.3388461914e+003;4.3206411133e+003;4.3214101563e+003;4.3176923828e+003;4.3193588867e+003;4.3428203125e+003;4.3615385742e+003;4.3541025391e+003;4.3421796875e+003;4.3437177734e+003;4.3398715820e+003;4.3379487305e+003;
2.9296875000e+000;4.3247436523e+003;4.3288461914e+003;4.3165385742e+003;4.3048715820e+003;4.3117949219e+003;4.2906411133e+003;4.2951284180e+003;4.3105126953e+003;4.3269228516e+003;4.3217949219e+003;4.3241025391e+003;4.3207690430e+003;4.3132050781e+003;4.3166665039e+003;
2.9375000000e+000;4.3048715820e+003;4.3020512695e+003;4.2953847656e+003;4.2888461914e+003;4.2910258789e+003;4.2725639648e+003;4.2816665039e+003;4.2892309570e+003;4.3061538086e+003;4.3002563477e+003;4.3073076172e+003;4.3037177734e+003;4.2951284180e+003;4.3032050781e+003;
2.9453125000e+000;4.2747436523e+003;4.2675639648e+003;4.2657690430e+003;4.2575639648e+003;4.2582050781e+003;4.2483334961e+003;4.2569228516e+003;4.2575639648e+003;4.2724360352e+003;4.2637177734e+003;4.2688461914e+003;4.2706411133e+003;4.2610258789e+003;4.2700000000e+003;
2.9531250000e+000;4.3660258789e+003;4.3565385742e+003;4.3574360352e+003;4.3380771484e+003;4.3567949219e+003;4.3378203125e+003;4.3555126953e+003;4.3489741211e+003;4.3573076172e+003;4.3493588867e+003;4.3458974609e+003;4.3548715820e+003;4.3407690430e+003;4.3503847656e+003;
2.9609375000e+000;4.3358974609e+003;4.3246152344e+003;4.3316665039e+003;4.3106411133e+003;4.3250000000e+003;4.3137177734e+003;4.3314101563e+003;4.3235898438e+003;4.3274360352e+003;4.3203847656e+003;4.3194873047e+003;4.3283334961e+003;4.3093588867e+003;4.3212822266e+003;
2.9687500000e+000;4.2716665039e+003;4.2615385742e+003;4.2697436523e+003;4.2574360352e+003;4.2557690430e+003;4.2661538086e+003;4.2769228516e+003;4.2619228516e+003;4.2584614258e+003;4.2523076172e+003;4.2648715820e+003;4.2641025391e+003;4.2482050781e+003;4.2600000000e+003;
2.9765625000e+000;4.2784614258e+003;4.2719228516e+003;4.2732050781e+003;4.2674360352e+003;4.2657690430e+003;4.2773076172e+003;4.2826923828e+003;4.2692309570e+003;4.2651284180e+003;4.2608974609e+003;4.2748715820e+003;4.2697436523e+003;4.2598715820e+003;4.2688461914e+003;
2.9843750000e+000;4.2273076172e+003;4.2243588867e+003;4.2191025391e+003;4.2142309570e+003;4.2282050781e+003;4.2392309570e+003;4.2344873047e+003;4.2237177734e+003;4.2185898438e+003;4.2138461914e+003;4.2157690430e+003;4.2226923828e+003;4.2148715820e+003;4.2208974609e+003;
2.9921875000e+000;4.2535898438e+003;4.2500000000e+003;4.2450000000e+003;4.2362822266e+003;4.2482050781e+003;4.2620512695e+003;4.2597436523e+003;4.2474360352e+003;4.2425639648e+003;4.2374360352e+003;4.2396152344e+003;4.2453847656e+003;4.2405126953e+003;4.2455126953e+003;
3.0000000000e+000;4.3261538086e+003;4.3244873047e+003;4.3180771484e+003;4.3085898438e+003;4.3076923828e+003;4.3226923828e+003;4.3230771484e+003;4.3225639648e+003;4.3196152344e+003;4.3184614258e+003;4.3178203125e+003;4.3178203125e+003;4.3173076172e+003;4.3233334961e+003;
3.0078125000e+000;4.2941025391e+003;4.2932050781e+003;4.2884614258e+003;4.2823076172e+003;4.2784614258e+003;4.2914101563e+003;4.2907690430e+003;4.2944873047e+003;4.2928203125e+003;4.2919228516e+003;4.2883334961e+003;4.2916665039e+003;4.2878203125e+003;4.2962822266e+003;
3.0156250000e+000;4.2605126953e+003;4.2567949219e+003;4.2538461914e+003;4.2443588867e+003;4.2610258789e+003;4.2467949219e+003;4.2515385742e+003;4.2528203125e+003;4.2589741211e+003;4.2542309570e+003;4.2556411133e+003;4.2593588867e+003;4.2542309570e+003;4.2625639648e+003;
3.0234375000e+000;4.2826923828e+003;4.2778203125e+003;4.2757690430e+003;4.2610258789e+003;4.2758974609e+003;4.2608974609e+003;4.2658974609e+003;4.2748715820e+003;4.2824360352e+003;4.2776923828e+003;4.2811538086e+003;4.2787177734e+003;4.2756411133e+003;4.2843588867e+003;
3.0312500000e+000;4.2680771484e+003;4.2633334961e+003;4.2634614258e+003;4.2467949219e+003;4.2502563477e+003;4.2437177734e+003;4.2471796875e+003;4.2629487305e+003;4.2694873047e+003;4.2639741211e+003;4.2691025391e+003;4.2625639648e+003;4.2597436523e+003;4.2694873047e+003;
3.0390625000e+000;4.2034614258e+003;4.2020512695e+003;4.2002563477e+003;4.2024360352e+003;4.1812822266e+003;4.1755126953e+003;4.1891025391e+003;4.2030771484e+003;4.2048715820e+003;4.1952563477e+003;4.1987177734e+003;4.2029487305e+003;4.1953847656e+003;4.2065385742e+003;
3.0468750000e+000;4.1501284180e+003;4.1505126953e+003;4.1480771484e+003;4.1520512695e+003;4.1278203125e+003;4.1308974609e+003;4.1423076172e+003;4.1514101563e+003;4.1528203125e+003;4.1414101563e+003;4.1488461914e+003;4.1511538086e+003;4.1426923828e+003;4.1544873047e+003;
3.0546875000e+000;4.1278203125e+003;4.1270512695e+003;4.1243588867e+003;4.1284614258e+003;4.1129487305e+003;4.1183334961e+003;4.1252563477e+003;4.1267949219e+003;4.1243588867e+003;4.1167949219e+003;4.1239741211e+003;4.1266665039e+003;4.1158974609e+003;4.1314101563e+003;
3.0625000000e+000;3.9950000000e+003;3.9952563477e+003;3.9955129395e+003;4.0084614258e+003;3.9766667480e+003;4.0151281738e+003;4.0160256348e+003;4.0052563477e+003;4.0000000000e+003;3.9782050781e+003;3.9884614258e+003;3.9997436523e+003;3.9816667480e+003;4.0044870605e+003;
3.0703125000e+000;4.0106411133e+003;4.0141025391e+003;4.0088461914e+003;4.0260256348e+003;3.9907692871e+003;4.0358974609e+003;4.0369230957e+003;4.0229487305e+003;4.0176923828e+003;3.9941025391e+003;4.0076923828e+003;4.0139743652e+003;4.0001281738e+003;4.0194870605e+003;
3.0781250000e+000;3.9917949219e+003;3.9943588867e+003;3.9943588867e+003;4.0116667480e+003;3.9969230957e+003;4.0284614258e+003;4.0219230957e+003;4.0069230957e+003;3.9978205566e+003;3.9802563477e+003;3.9910256348e+003;3.9942307129e+003;3.9865385742e+003;3.9960256348e+003;
3.0859375000e+000;3.9874357910e+003;3.9887180176e+003;3.9921794434e+003;4.0056411133e+003;4.0014101563e+003;4.0221794434e+003;4.0150000000e+003;3.9969230957e+003;3.9865385742e+003;3.9694870605e+003;3.9767949219e+003;3.9878205566e+003;3.9791025391e+003;3.9887180176e+003;
3.0937500000e+000;4.0444870605e+003;4.0441025391e+003;4.0473076172e+003;4.0553845215e+003;4.0498718262e+003;4.0657692871e+003;4.0593588867e+003;4.0485898438e+003;4.0350000000e+003;4.0211538086e+003;4.0261538086e+003;4.0485898438e+003;4.0307692871e+003;4.0460256348e+003;
3.1015625000e+000;4.0329487305e+003;4.0298718262e+003;4.0357692871e+003;4.0448718262e+003;4.0256411133e+003;4.0517949219e+003;4.0441025391e+003;4.0380769043e+003;4.0241025391e+003;4.0119230957e+003;4.0220512695e+003;4.0426923828e+003;4.0206411133e+003;4.0383332520e+003;
3.1093750000e+000;4.0076923828e+003;3.9953845215e+003;4.0114101563e+003;4.0198718262e+003;3.9915385742e+003;4.0134614258e+003;4.0085898438e+003;4.0003845215e+003;3.9988461914e+003;3.9912819824e+003;4.0106411133e+003;4.0108974609e+003;4.0083332520e+003;4.0169230957e+003;
3.1171875000e+000;4.0294870605e+003;4.0196154785e+003;4.0325642090e+003;4.0411538086e+003;4.0182050781e+003;4.0293588867e+003;4.0257692871e+003;4.0235898438e+003;4.0252563477e+003;4.0185898438e+003;4.0335898438e+003;4.0321794434e+003;4.0325642090e+003;4.0392307129e+003;
3.1250000000e+000;3.9741025391e+003;3.9741025391e+003;3.9791025391e+003;3.9951281738e+003;3.9637180176e+003;3.9806411133e+003;3.9762819824e+003;3.9805129395e+003;3.9832050781e+003;3.9669230957e+003;3.9841025391e+003;3.9865385742e+003;3.9742307129e+003;3.9867949219e+003;
3.1328125000e+000;3.9573076172e+003;3.9593588867e+003;3.9614101563e+003;3.9779487305e+003;3.9429487305e+003;3.9658974609e+003;3.9641025391e+003;3.9656411133e+003;3.9692307129e+003;3.9470512695e+003;3.9660256348e+003;3.9707692871e+003;3.9535898438e+003;3.9688461914e+003;
3.1406250000e+000;3.9841025391e+003;3.9747436523e+003;3.9830769043e+003;3.9882050781e+003;3.9651281738e+003;3.9838461914e+003;3.9912819824e+003;3.9987180176e+003;4.0042307129e+003;3.9780769043e+003;3.9756411133e+003;3.9925642090e+003;3.9747436523e+003;3.9884614258e+003;
3.1484375000e+000;3.9347436523e+003;3.9217949219e+003;3.9348718262e+003;3.9444870605e+003;3.9170512695e+003;3.9405129395e+003;3.9464101563e+003;3.9535898438e+003;3.9580769043e+003;3.9274357910e+003;3.9253845215e+003;3.9434614258e+003;3.9253845215e+003;3.9394870605e+003;
3.1562500000e+000;3.9008974609e+003;3.8879487305e+003;3.9016667480e+003;3.9183332520e+003;3.8829487305e+003;3.9134614258e+003;3.9171794434e+003;3.9212819824e+003;3.9253845215e+003;3.8894870605e+003;3.8960256348e+003;3.9096154785e+003;3.8933332520e+003;3.9069230957e+003;
3.1640625000e+000;3.9056411133e+003;3.8948718262e+003;3.9062819824e+003;3.9274357910e+003;3.8851281738e+003;3.9216667480e+003;3.9235898438e+003;3.9261538086e+003;3.9303845215e+003;3.8923076172e+003;3.9088461914e+003;3.9151281738e+003;3.9016667480e+003;3.9135898438e+003;
3.1718750000e+000;3.8796154785e+003;3.8734614258e+003;3.8842307129e+003;3.9033332520e+003;3.8811538086e+003;3.9110256348e+003;3.9057692871e+003;3.8960256348e+003;3.8935898438e+003;3.8667949219e+003;3.8705129395e+003;3.8885898438e+003;3.8701281738e+003;3.8829487305e+003;
3.1796875000e+000;3.9684614258e+003;3.9634614258e+003;3.9675642090e+003;3.9912819824e+003;3.9676923828e+003;3.9965385742e+003;3.9847436523e+003;3.9737180176e+003;3.9783332520e+003;3.9602563477e+003;3.9707692871e+003;3.9752563477e+003;3.9537180176e+003;3.9719230957e+003;
3.1875000000e+000;3.9497436523e+003;3.9420512695e+003;3.9520512695e+003;3.9741025391e+003;3.9438461914e+003;3.9798718262e+003;3.9684614258e+003;3.9503845215e+003;3.9543588867e+003;3.9362819824e+003;3.9453845215e+003;3.9538461914e+003;3.9321794434e+003;3.9507692871e+003;
3.1953125000e+000;4.0287180176e+003;4.0206411133e+003;4.0284614258e+003;4.0434614258e+003;4.0203845215e+003;4.0443588867e+003;4.0382050781e+003;4.0183332520e+003;4.0226923828e+003;4.0085898438e+003;4.0129487305e+003;4.0203845215e+003;4.0092307129e+003;4.0202563477e+003;
3.2031250000e+000;3.9896154785e+003;3.9810256348e+003;3.9855129395e+003;3.9955129395e+003;3.9692307129e+003;4.0007692871e+003;3.9941025391e+003;3.9764101563e+003;3.9792307129e+003;3.9691025391e+003;3.9771794434e+003;3.9884614258e+003;3.9693588867e+003;3.9862819824e+003;
3.2109375000e+000;4.0341025391e+003;4.0225642090e+003;4.0276923828e+003;4.0382050781e+003;4.0126923828e+003;4.0380769043e+003;4.0337180176e+003;4.0183332520e+003;4.0214101563e+003;4.0120512695e+003;4.0187180176e+003;4.0325642090e+003;4.0124357910e+003;4.0316667480e+003;
3.2187500000e+000;4.0384614258e+003;4.0273076172e+003;4.0383332520e+003;4.0502563477e+003;4.0121794434e+003;4.0364101563e+003;4.0351281738e+003;4.0292307129e+003;4.0358974609e+003;4.0216667480e+003;4.0251281738e+003;4.0406411133e+003;4.0182050781e+003;4.0397436523e+003;
3.2265625000e+000;4.0185898438e+003;4.0112819824e+003;4.0220512695e+003;4.0342307129e+003;3.9887180176e+003;4.0166667480e+003;4.0192307129e+003;4.0135898438e+003;4.0216667480e+003;4.0026923828e+003;4.0100000000e+003;4.0208974609e+003;3.9989743652e+003;4.0191025391e+003;
3.2343750000e+000;4.0778205566e+003;4.0719230957e+003;4.0725642090e+003;4.0838461914e+003;4.0537180176e+003;4.0679487305e+003;4.0774357910e+003;4.0887180176e+003;4.0939743652e+003;4.0764101563e+003;4.0852563477e+003;4.0835898438e+003;4.0652563477e+003;4.0792307129e+003;
3.2421875000e+000;4.0443588867e+003;4.0344870605e+003;4.0387180176e+003;4.0519230957e+003;4.0282050781e+003;4.0389743652e+003;4.0446154785e+003;4.0596154785e+003;4.0643588867e+003;4.0461538086e+003;4.0521794434e+003;4.0550000000e+003;4.0364101563e+003;4.0489743652e+003;
3.2500000000e+000;4.0184614258e+003;4.0062819824e+003;4.0170512695e+003;4.0284614258e+003;4.0102563477e+003;4.0165385742e+003;4.0211538086e+003;4.0251281738e+003;4.0337180176e+003;4.0092307129e+003;4.0178205566e+003;4.0244870605e+003;4.0125642090e+003;4.0211538086e+003;
3.2578125000e+000;4.0589743652e+003;4.0487180176e+003;4.0593588867e+003;4.0653845215e+003;4.0465385742e+003;4.0530769043e+003;4.0597436523e+003;4.0610256348e+003;4.0707692871e+003;4.0460256348e+003;4.0565385742e+003;4.0585898438e+003;4.0500000000e+003;4.0585898438e+003;
3.2656250000e+000;4.0278205566e+003;4.0264101563e+003;4.0279487305e+003;4.0375642090e+003;4.0121794434e+003;4.0385898438e+003;4.0338461914e+003;4.0326923828e+003;4.0415385742e+003;4.0193588867e+003;4.0364101563e+003;4.0233332520e+003;4.0120512695e+003;4.0276923828e+003;
3.2734375000e+000;4.0232050781e+003;4.0225642090e+003;4.0191025391e+003;4.0364101563e+003;4.0139743652e+003;4.0379487305e+003;4.0297436523e+003;4.0239743652e+003;4.0341025391e+003;4.0121794434e+003;4.0298718262e+003;4.0191025391e+003;4.0078205566e+003;4.0234614258e+003;
3.2812500000e+000;4.0441025391e+003;4.0425642090e+003;4.0365385742e+003;4.0584614258e+003;4.0374357910e+003;4.0573076172e+003;4.0482050781e+003;4.0414101563e+003;4.0517949219e+003;4.0316667480e+003;4.0466667480e+003;4.0425642090e+003;4.0303845215e+003;4.0453845215e+003;
3.2890625000e+000;4.0517949219e+003;4.0485898438e+003;4.0453845215e+003;4.0667949219e+003;4.0430769043e+003;4.0635898438e+003;4.0546154785e+003;4.0493588867e+003;4.0578205566e+003;4.0405129395e+003;4.0516667480e+003;4.0556411133e+003;4.0406411133e+003;4.0555129395e+003;
3.2968750000e+000;4.0962822266e+003;4.0944870605e+003;4.0900000000e+003;4.1026923828e+003;4.0867949219e+003;4.0965385742e+003;4.0948718262e+003;4.0803845215e+003;4.0830769043e+003;4.0828205566e+003;4.1023076172e+003;4.0914101563e+003;4.0832050781e+003;4.0962822266e+003;
3.3046875000e+000;4.1214101563e+003;4.1203847656e+003;4.1101284180e+003;4.1247436523e+003;4.1043588867e+003;4.1150000000e+003;4.1112822266e+003;4.1017949219e+003;4.1048715820e+003;4.1089741211e+003;4.1258974609e+003;4.1142309570e+003;4.1073076172e+003;4.1198715820e+003;
3.3125000000e+000;4.0139743652e+003;4.0058974609e+003;4.0093588867e+003;4.0203845215e+003;3.9744870605e+003;4.0069230957e+003;3.9976923828e+003;3.9779487305e+003;3.9770512695e+003;3.9817949219e+003;4.0014101563e+003;4.0079487305e+003;3.9961538086e+003;4.0100000000e+003;
3.3203125000e+000;4.0612819824e+003;4.0492307129e+003;4.0620512695e+003;4.0648718262e+003;4.0426923828e+003;4.0441025391e+003;4.0382050781e+003;4.0252563477e+003;4.0297436523e+003;4.0365385742e+003;4.0583332520e+003;4.0548718262e+003;4.0493588867e+003;4.0553845215e+003;
3.3281250000e+000;4.0338461914e+003;4.0252563477e+003;4.0323076172e+003;4.0428205566e+003;4.0169230957e+003;4.0187180176e+003;4.0139743652e+003;4.0057692871e+003;4.0111538086e+003;4.0112819824e+003;4.0307692871e+003;4.0282050781e+003;4.0223076172e+003;4.0285898438e+003;
3.3359375000e+000;4.0532050781e+003;4.0523076172e+003;4.0475642090e+003;4.0635898438e+003;4.0237180176e+003;4.0294870605e+003;4.0361538086e+003;4.0470512695e+003;4.0529487305e+003;4.0378205566e+003;4.0484614258e+003;4.0524357910e+003;4.0391025391e+003;4.0512819824e+003;
3.3437500000e+000;4.0234614258e+003;4.0206411133e+003;4.0219230957e+003;4.0328205566e+003;3.9924357910e+003;4.0042307129e+003;4.0101281738e+003;4.0239743652e+003;4.0298718262e+003;4.0125642090e+003;4.0237180176e+003;4.0262819824e+003;4.0106411133e+003;4.0229487305e+003;
3.3515625000e+000;3.9644870605e+003;3.9602563477e+003;3.9656411133e+003;3.9765385742e+003;3.9385898438e+003;3.9589743652e+003;3.9633332520e+003;3.9667949219e+003;3.9732050781e+003;3.9500000000e+003;3.9692307129e+003;3.9655129395e+003;3.9526923828e+003;3.9624357910e+003;
3.3593750000e+000;3.9885898438e+003;3.9853845215e+003;3.9874357910e+003;4.0020512695e+003;3.9653845215e+003;3.9824357910e+003;3.9889743652e+003;3.9911538086e+003;3.9975642090e+003;3.9733332520e+003;3.9938461914e+003;3.9866667480e+003;3.9766667480e+003;3.9862819824e+003;
3.3671875000e+000;4.0071794434e+003;4.0042307129e+003;4.0052563477e+003;4.0233332520e+003;3.9862819824e+003;4.0000000000e+003;4.0078205566e+003;4.0143588867e+003;4.0196154785e+003;3.9958974609e+003;4.0138461914e+003;4.0050000000e+003;3.9951281738e+003;4.0066667480e+003;
3.3750000000e+000;3.9676923828e+003;3.9635898438e+003;3.9692307129e+003;3.9914101563e+003;3.9588461914e+003;3.9897436523e+003;3.9830769043e+003;3.9750000000e+003;3.9898718262e+003;3.9662819824e+003;3.9583332520e+003;3.9691025391e+003;3.9553845215e+003;3.9651281738e+003;
3.3828125000e+000;3.9558974609e+003;3.9500000000e+003;3.9616667480e+003;3.9816667480e+003;3.9392307129e+003;3.9793588867e+003;3.9706411133e+003;3.9639743652e+003;3.9810256348e+003;3.9576923828e+003;3.9516667480e+003;3.9576923828e+003;3.9443588867e+003;3.9562819824e+003;
3.3906250000e+000;3.9093588867e+003;3.9085898438e+003;3.9174357910e+003;3.9428205566e+003;3.9026923828e+003;3.9325642090e+003;3.9208974609e+003;3.9066667480e+003;3.9169230957e+003;3.8979487305e+003;3.9197436523e+003;3.9030769043e+003;3.9001281738e+003;3.9088461914e+003;
3.3984375000e+000;3.9082050781e+003;3.9105129395e+003;3.9094870605e+003;3.9364101563e+003;3.9064101563e+003;3.9284614258e+003;3.9137180176e+003;3.8944870605e+003;3.8964101563e+003;3.8848718262e+003;3.9017949219e+003;3.9132050781e+003;3.8962819824e+003;3.9087180176e+003;
3.4062500000e+000;3.9265385742e+003;3.9255129395e+003;3.9256411133e+003;3.9541025391e+003;3.9165385742e+003;3.9407692871e+003;3.9311538086e+003;3.9065385742e+003;3.9039743652e+003;3.8948718262e+003;3.9142307129e+003;3.9274357910e+003;3.9100000000e+003;3.9248718262e+003;
3.4140625000e+000;4.1107690430e+003;4.1088461914e+003;4.1033334961e+003;4.1265385742e+003;4.0892307129e+003;4.0912819824e+003;4.0934614258e+003;4.0819230957e+003;4.0735898438e+003;4.0851281738e+003;4.1035898438e+003;4.0985898438e+003;4.0991025391e+003;4.1057690430e+003;
3.4218750000e+000;4.0875642090e+003;4.0884614258e+003;4.0842307129e+003;4.1020512695e+003;4.0673076172e+003;4.0703845215e+003;4.0707692871e+003;4.0641025391e+003;4.0587180176e+003;4.0697436523e+003;4.0862819824e+003;4.0810256348e+003;4.0820512695e+003;4.0865385742e+003;
3.4296875000e+000;4.1083334961e+003;4.1126923828e+003;4.1048715820e+003;4.1169228516e+003;4.0808974609e+003;4.0896154785e+003;4.0967949219e+003;4.1100000000e+003;4.1126923828e+003;4.1103847656e+003;4.1201284180e+003;4.1116665039e+003;4.1074360352e+003;4.1157690430e+003;
