Time (s);AF3;F7;F3;FC5;T7;P7;O1;O2;P8;T8;FC6;F4;F8;AF4;Sampling Rate
0.0000000000e+000;3.9858974609e+003;3.8955129395e+003;3.9088461914e+003;3.9348718262e+003;3.8834614258e+003;3.8897436523e+003;3.8876923828e+003;3.8932050781e+003;3.9041025391e+003;3.8941025391e+003;3.9167949219e+003;3.9223076172e+003;3.9052563477e+003;3.9289743652e+003;128
7.8125000000e-003;3.9974357910e+003;3.9116667480e+003;3.9184614258e+003;3.9458974609e+003;3.8996154785e+003;3.9050000000e+003;3.9019230957e+003;3.9042307129e+003;3.9157692871e+003;3.9055129395e+003;3.9237180176e+003;3.9271794434e+003;3.9142307129e+003;3.9356411133e+003;
1.5625000000e-002;4.0130769043e+003;3.9308974609e+003;3.9332050781e+003;3.9619230957e+003;3.9203845215e+003;3.9252563477e+003;3.9215385742e+003;3.9226923828e+003;3.9337180176e+003;3.9234614258e+003;3.9361538086e+003;3.9407692871e+003;3.9293588867e+003;3.9488461914e+003;
2.3437500000e-002;3.9894870605e+003;3.9007692871e+003;3.9103845215e+003;3.9441025391e+003;3.9141025391e+003;3.9274357910e+003;3.9212819824e+003;3.9170512695e+003;3.9210256348e+003;3.9067949219e+003;3.9189743652e+003;3.9203845215e+003;3.9124357910e+003;3.9279487305e+003;
3.1250000000e-002;4.0120512695e+003;3.9405129395e+003;3.9465385742e+003;3.9801281738e+003;3.9560256348e+003;3.9669230957e+003;3.9633332520e+003;3.9611538086e+003;3.9469230957e+003;3.9428205566e+003;3.9503845215e+003;3.9538461914e+003;3.9382050781e+003;3.9550000000e+003;
3.9062500000e-002;4.0094870605e+003;3.9343588867e+003;3.9441025391e+003;3.9778205566e+003;3.9516667480e+003;3.9614101563e+003;3.9646154785e+003;3.9592307129e+003;3.9455129395e+003;3.9441025391e+003;3.9501281738e+003;3.9600000000e+003;3.9429487305e+003;3.9605129395e+003;
4.6875000000e-002;3.9966667480e+003;3.9194870605e+003;3.9311538086e+003;3.9655129395e+003;3.9341025391e+003;3.9465385742e+003;3.9494870605e+003;3.9447436523e+003;3.9303845215e+003;3.9319230957e+003;3.9364101563e+003;3.9498718262e+003;3.9283332520e+003;3.9475642090e+003;
5.4687500000e-002;4.0571794434e+003;3.9838461914e+003;3.9906411133e+003;4.0206411133e+003;3.9847436523e+003;3.9882050781e+003;3.9947436523e+003;3.9891025391e+003;3.9802563477e+003;3.9857692871e+003;3.9897436523e+003;4.0047436523e+003;3.9819230957e+003;3.9988461914e+003;
6.2500000000e-002;4.0693588867e+003;3.9970512695e+003;4.0048718262e+003;4.0306411133e+003;3.9961538086e+003;3.9948718262e+003;4.0021794434e+003;3.9987180176e+003;3.9952563477e+003;3.9996154785e+003;4.0025642090e+003;4.0160256348e+003;3.9948718262e+003;4.0114101563e+003;
7.0312500000e-002;4.0288461914e+003;3.9550000000e+003;3.9664101563e+003;3.9892307129e+003;3.9543588867e+003;3.9489743652e+003;3.9573076172e+003;3.9541025391e+003;3.9588461914e+003;3.9600000000e+003;3.9619230957e+003;3.9743588867e+003;3.9547436523e+003;3.9717949219e+003;
7.8125000000e-002;4.0305129395e+003;3.9576923828e+003;3.9666667480e+003;3.9892307129e+003;3.9557692871e+003;3.9467949219e+003;3.9548718262e+003;3.9528205566e+003;3.9598718262e+003;3.9612819824e+003;3.9624357910e+003;3.9748718262e+003;3.9570512695e+003;3.9728205566e+003;
8.5937500000e-002;4.0729487305e+003;4.0087180176e+003;4.0123076172e+003;4.0274357910e+003;3.9973076172e+003;3.9834614258e+003;3.9819230957e+003;3.9935898438e+003;4.0108974609e+003;4.0101281738e+003;4.0076923828e+003;4.0194870605e+003;4.0048718262e+003;4.0153845215e+003;
9.3750000000e-002;4.0639743652e+003;4.0010256348e+003;4.0051281738e+003;4.0197436523e+003;3.9896154785e+003;3.9765385742e+003;3.9728205566e+003;3.9839743652e+003;4.0056411133e+003;4.0017949219e+003;4.0008974609e+003;4.0085898438e+003;3.9955129395e+003;4.0055129395e+003;
1.0156250000e-001;4.0539743652e+003;3.9958974609e+003;3.9953845215e+003;4.0139743652e+003;3.9882050781e+003;3.9741025391e+003;3.9714101563e+003;3.9810256348e+003;4.0017949219e+003;3.9962819824e+003;3.9962819824e+003;3.9964101563e+003;3.9878205566e+003;3.9970512695e+003;
1.0937500000e-001;4.0334614258e+003;3.9784614258e+003;3.9752563477e+003;3.9961538086e+003;3.9728205566e+003;3.9626923828e+003;3.9601281738e+003;3.9692307129e+003;3.9844870605e+003;3.9788461914e+003;3.9773076172e+003;3.9792307129e+003;3.9707692871e+003;3.9788461914e+003;
1.1718750000e-001;4.0161538086e+003;3.9630769043e+003;3.9591025391e+003;3.9847436523e+003;3.9666667480e+003;3.9737180176e+003;3.9691025391e+003;3.9634614258e+003;3.9687180176e+003;3.9605129395e+003;3.9585898438e+003;3.9669230957e+003;3.9596154785e+003;3.9597436523e+003;
1.2500000000e-001;4.0633332520e+003;4.0102563477e+003;4.0057692871e+003;4.0306411133e+003;4.0148718262e+003;4.0208974609e+003;4.0171794434e+003;4.0100000000e+003;4.0153845215e+003;4.0106411133e+003;4.0067949219e+003;4.0117949219e+003;4.0055129395e+003;4.0055129395e+003;
1.3281250000e-001;4.0917949219e+003;4.0383332520e+003;4.0344870605e+003;4.0570512695e+003;4.0425642090e+003;4.0493588867e+003;4.0455129395e+003;4.0392307129e+003;4.0434614258e+003;4.0430769043e+003;4.0366667480e+003;4.0388461914e+003;4.0311538086e+003;4.0333332520e+003;
1.4062500000e-001;4.0521794434e+003;3.9921794434e+003;3.9998718262e+003;4.0153845215e+003;4.0066667480e+003;4.0252563477e+003;4.0223076172e+003;4.0103845215e+003;4.0060256348e+003;4.0044870605e+003;3.9979487305e+003;4.0034614258e+003;3.9905129395e+003;3.9938461914e+003;
1.4843750000e-001;4.0469230957e+003;3.9887180176e+003;3.9952563477e+003;4.0120512695e+003;4.0015385742e+003;4.0178205566e+003;4.0146154785e+003;4.0024357910e+003;3.9973076172e+003;3.9994870605e+003;3.9923076172e+003;3.9979487305e+003;3.9847436523e+003;3.9888461914e+003;
1.5625000000e-001;4.0982050781e+003;4.0469230957e+003;4.0393588867e+003;4.0630769043e+003;4.0493588867e+003;4.0523076172e+003;4.0487180176e+003;4.0355129395e+003;4.0341025391e+003;4.0453845215e+003;4.0417949219e+003;4.0464101563e+003;4.0374357910e+003;4.0426923828e+003;
1.6406250000e-001;4.0073076172e+003;3.9493588867e+003;3.9555129395e+003;3.9738461914e+003;3.9432050781e+003;3.9525642090e+003;3.9512819824e+003;3.9532050781e+003;3.9596154785e+003;3.9617949219e+003;3.9629487305e+003;3.9716667480e+003;3.9534614258e+003;3.9651281738e+003;
1.7187500000e-001;3.9823076172e+003;3.9203845215e+003;3.9317949219e+003;3.9456411133e+003;3.9160256348e+003;3.9239743652e+003;3.9267949219e+003;3.9274357910e+003;3.9344870605e+003;3.9329487305e+003;3.9362819824e+003;3.9444870605e+003;3.9273076172e+003;3.9396154785e+003;
1.7968750000e-001;4.0270512695e+003;3.9683332520e+003;3.9789743652e+003;3.9908974609e+003;3.9607692871e+003;3.9626923828e+003;3.9682050781e+003;3.9784614258e+003;3.9900000000e+003;3.9850000000e+003;3.9839743652e+003;3.9912819824e+003;3.9766667480e+003;3.9882050781e+003;
1.8750000000e-001;3.9841025391e+003;3.9219230957e+003;3.9382050781e+003;3.9525642090e+003;3.9121794434e+003;3.9194870605e+003;3.9248718262e+003;3.9400000000e+003;3.9514101563e+003;3.9373076172e+003;3.9382050781e+003;3.9466667480e+003;3.9258974609e+003;3.9414101563e+003;
1.9531250000e-001;3.9782050781e+003;3.9128205566e+003;3.9344870605e+003;3.9444870605e+003;3.9070512695e+003;3.9155129395e+003;3.9207692871e+003;3.9370512695e+003;3.9451281738e+003;3.9316667480e+003;3.9308974609e+003;3.9400000000e+003;3.9167949219e+003;3.9338461914e+003;
2.0312500000e-001;3.9593588867e+003;3.8908974609e+003;3.9171794434e+003;3.9253845215e+003;3.8889743652e+003;3.9016667480e+003;3.9058974609e+003;3.9220512695e+003;3.9251281738e+003;3.9130769043e+003;3.9110256348e+003;3.9216667480e+003;3.8955129395e+003;3.9139743652e+003;
2.1093750000e-001;3.9361538086e+003;3.8675642090e+003;3.8894870605e+003;3.9067949219e+003;3.8688461914e+003;3.8880769043e+003;3.8914101563e+003;3.9021794434e+003;3.8993588867e+003;3.8871794434e+003;3.8861538086e+003;3.8965385742e+003;3.8707692871e+003;3.8876923828e+003;
2.1875000000e-001;3.9485898438e+003;3.8823076172e+003;3.8989743652e+003;3.9208974609e+003;3.8856411133e+003;3.9033332520e+003;3.9058974609e+003;3.9162819824e+003;3.9151281738e+003;3.9016667480e+003;3.9003845215e+003;3.9069230957e+003;3.8862819824e+003;3.8993588867e+003;
2.2656250000e-001;3.9043588867e+003;3.8376923828e+003;3.8567949219e+003;3.8789743652e+003;3.8512819824e+003;3.8708974609e+003;3.8674357910e+003;3.8802563477e+003;3.8815385742e+003;3.8658974609e+003;3.8596154785e+003;3.8612819824e+003;3.8494870605e+003;3.8561538086e+003;
2.3437500000e-001;3.8430769043e+003;3.7741025391e+003;3.7960256348e+003;3.8180769043e+003;3.7917949219e+003;3.8166667480e+003;3.8111538086e+003;3.8192307129e+003;3.8185898438e+003;3.8028205566e+003;3.7958974609e+003;3.7967949219e+003;3.7876923828e+003;3.7929487305e+003;
2.4218750000e-001;3.7987180176e+003;3.7285898438e+003;3.7333332520e+003;3.7683332520e+003;3.7392307129e+003;3.7706411133e+003;3.7614101563e+003;3.7557692871e+003;3.7517949219e+003;3.7434614258e+003;3.7432050781e+003;3.7332050781e+003;3.7339743652e+003;3.7348718262e+003;
2.5000000000e-001;3.7860256348e+003;3.7121794434e+003;3.7156411133e+003;3.7544870605e+003;3.7216667480e+003;3.7546154785e+003;3.7429487305e+003;3.7382050781e+003;3.7361538086e+003;3.7270512695e+003;3.7275642090e+003;3.7179487305e+003;3.7174357910e+003;3.7197436523e+003;
2.5781250000e-001;3.7555129395e+003;3.6751281738e+003;3.6825642090e+003;3.7224357910e+003;3.6865385742e+003;3.7212819824e+003;3.7089743652e+003;3.7034614258e+003;3.7029487305e+003;3.6908974609e+003;3.6917949219e+003;3.6857692871e+003;3.6821794434e+003;3.6869230957e+003;
2.6562500000e-001;3.7324357910e+003;3.6456411133e+003;3.6578205566e+003;3.6958974609e+003;3.6591025391e+003;3.6943588867e+003;3.6839743652e+003;3.6760256348e+003;3.6752563477e+003;3.6612819824e+003;3.6629487305e+003;3.6611538086e+003;3.6550000000e+003;3.6611538086e+003;
2.7343750000e-001;3.6621794434e+003;3.5596154785e+003;3.5767949219e+003;3.6157692871e+003;3.5639743652e+003;3.6111538086e+003;3.6016667480e+003;3.6000000000e+003;3.5914101563e+003;3.5791025391e+003;3.5880769043e+003;3.5957692871e+003;3.5780769043e+003;3.5887180176e+003;
2.8125000000e-001;3.7407692871e+003;3.6252563477e+003;3.6516667480e+003;3.6816667480e+003;3.6334614258e+003;3.6642307129e+003;3.6692307129e+003;3.6735898438e+003;3.6708974609e+003;3.6553845215e+003;3.6614101563e+003;3.6738461914e+003;3.6524357910e+003;3.6641025391e+003;
2.8906250000e-001;3.7223076172e+003;3.6055129395e+003;3.6343588867e+003;3.6647436523e+003;3.6128205566e+003;3.6446154785e+003;3.6482050781e+003;3.6524357910e+003;3.6515385742e+003;3.6356411133e+003;3.6424357910e+003;3.6556411133e+003;3.6311538086e+003;3.6451281738e+003;
2.9687500000e-001;3.6835898438e+003;3.5635898438e+003;3.5921794434e+003;3.6293588867e+003;3.5712819824e+003;3.6021794434e+003;3.6010256348e+003;3.6041025391e+003;3.6050000000e+003;3.5858974609e+003;3.5934614258e+003;3.6089743652e+003;3.5830769043e+003;3.5969230957e+003;
3.0468750000e-001;3.6603845215e+003;3.5297436523e+003;3.5656411133e+003;3.6024357910e+003;3.5514101563e+003;3.5789743652e+003;3.5752563477e+003;3.5866667480e+003;3.5817949219e+003;3.5615385742e+003;3.5641025391e+003;3.5810256348e+003;3.5602563477e+003;3.5702563477e+003;
3.1250000000e-001;3.6788461914e+003;3.5482050781e+003;3.5800000000e+003;3.6194870605e+003;3.5701281738e+003;3.5946154785e+003;3.5914101563e+003;3.6006411133e+003;3.5953845215e+003;3.5755129395e+003;3.5805129395e+003;3.5948718262e+003;3.5748718262e+003;3.5852563477e+003;
3.2031250000e-001;3.7066667480e+003;3.5803845215e+003;3.6020512695e+003;3.6473076172e+003;3.5994870605e+003;3.6187180176e+003;3.6167949219e+003;3.6271794434e+003;3.6234614258e+003;3.6053845215e+003;3.6043588867e+003;3.6201281738e+003;3.5997436523e+003;3.6066667480e+003;
3.2812500000e-001;3.6861538086e+003;3.5611538086e+003;3.5807692871e+003;3.6276923828e+003;3.5798718262e+003;3.6007692871e+003;3.5988461914e+003;3.6083332520e+003;3.6061538086e+003;3.5876923828e+003;3.5819230957e+003;3.5996154785e+003;3.5811538086e+003;3.5838461914e+003;
3.3593750000e-001;3.7198718262e+003;3.5960256348e+003;3.6050000000e+003;3.6569230957e+003;3.6165385742e+003;3.6364101563e+003;3.6296154785e+003;3.6323076172e+003;3.6353845215e+003;3.6179487305e+003;3.6110256348e+003;3.6212819824e+003;3.6189743652e+003;3.6120512695e+003;
3.4375000000e-001;3.7378205566e+003;3.6144870605e+003;3.6212819824e+003;3.6755129395e+003;3.6353845215e+003;3.6550000000e+003;3.6456411133e+003;3.6485898438e+003;3.6508974609e+003;3.6357692871e+003;3.6284614258e+003;3.6396154785e+003;3.6338461914e+003;3.6297436523e+003;
3.5156250000e-001;3.7150000000e+003;3.5893588867e+003;3.6003845215e+003;3.6539743652e+003;3.6100000000e+003;3.6344870605e+003;3.6261538086e+003;3.6226923828e+003;3.6216667480e+003;3.6067949219e+003;3.5998718262e+003;3.6214101563e+003;3.6003845215e+003;3.6026923828e+003;
3.5937500000e-001;3.7194870605e+003;3.5908974609e+003;3.6043588867e+003;3.6537180176e+003;3.6103845215e+003;3.6352563477e+003;3.6311538086e+003;3.6223076172e+003;3.6221794434e+003;3.6057692871e+003;3.5996154785e+003;3.6251281738e+003;3.6011538086e+003;3.6037180176e+003;
3.6718750000e-001;3.7350000000e+003;3.6032050781e+003;3.6184614258e+003;3.6626923828e+003;3.6206411133e+003;3.6453845215e+003;3.6446154785e+003;3.6332050781e+003;3.6346154785e+003;3.6174357910e+003;3.6116667480e+003;3.6391025391e+003;3.6150000000e+003;3.6171794434e+003;
3.7500000000e-001;3.7346154785e+003;3.5994870605e+003;3.6175642090e+003;3.6582050781e+003;3.6147436523e+003;3.6420512695e+003;3.6415385742e+003;3.6301281738e+003;3.6317949219e+003;3.6148718262e+003;3.6096154785e+003;3.6379487305e+003;3.6129487305e+003;3.6164101563e+003;
3.8281250000e-001;3.7469230957e+003;3.6083332520e+003;3.6260256348e+003;3.6661538086e+003;3.6206411133e+003;3.6497436523e+003;3.6474357910e+003;3.6334614258e+003;3.6284614258e+003;3.6157692871e+003;3.6169230957e+003;3.6382050781e+003;3.6119230957e+003;3.6202563477e+003;
3.9062500000e-001;3.7161538086e+003;3.5771794434e+003;3.5903845215e+003;3.6315385742e+003;3.5907692871e+003;3.6135898438e+003;3.6161538086e+003;3.6032050781e+003;3.6033332520e+003;3.5885898438e+003;3.5887180176e+003;3.6097436523e+003;3.5912819824e+003;3.5925642090e+003;
3.9843750000e-001;3.7315385742e+003;3.5935898438e+003;3.6056411133e+003;3.6489743652e+003;3.6076923828e+003;3.6279487305e+003;3.6294870605e+003;3.6216667480e+003;3.6196154785e+003;3.6066667480e+003;3.6069230957e+003;3.6260256348e+003;3.6091025391e+003;3.6092307129e+003;
4.0625000000e-001;3.7405129395e+003;3.6070512695e+003;3.6214101563e+003;3.6603845215e+003;3.6169230957e+003;3.6320512695e+003;3.6364101563e+003;3.6417949219e+003;3.6352563477e+003;3.6247436523e+003;3.6189743652e+003;3.6394870605e+003;3.6201281738e+003;3.6206411133e+003;
4.1406250000e-001;3.8108974609e+003;3.6811538086e+003;3.6915385742e+003;3.7264101563e+003;3.6900000000e+003;3.6925642090e+003;3.6987180176e+003;3.7070512695e+003;3.7065385742e+003;3.6988461914e+003;3.6865385742e+003;3.7065385742e+003;3.6901281738e+003;3.6848718262e+003;
4.2187500000e-001;3.8108974609e+003;3.6812819824e+003;3.6911538086e+003;3.7274357910e+003;3.6873076172e+003;3.6933332520e+003;3.6938461914e+003;3.7079487305e+003;3.7071794434e+003;3.6989743652e+003;3.6853845215e+003;3.7064101563e+003;3.6900000000e+003;3.6826923828e+003;
4.2968750000e-001;3.8183332520e+003;3.6880769043e+003;3.6942307129e+003;3.7335898438e+003;3.6860256348e+003;3.6982050781e+003;3.6930769043e+003;3.7039743652e+003;3.7044870605e+003;3.6939743652e+003;3.6856411133e+003;3.7076923828e+003;3.6914101563e+003;3.6880769043e+003;
4.3750000000e-001;3.8176923828e+003;3.6870512695e+003;3.6960256348e+003;3.7314101563e+003;3.6850000000e+003;3.6978205566e+003;3.6933332520e+003;3.7020512695e+003;3.7030769043e+003;3.6950000000e+003;3.6869230957e+003;3.7098718262e+003;3.6898718262e+003;3.6912819824e+003;
4.4531250000e-001;3.7520512695e+003;3.6157692871e+003;3.6337180176e+003;3.6635898438e+003;3.6167949219e+003;3.6380769043e+003;3.6348718262e+003;3.6333332520e+003;3.6343588867e+003;3.6270512695e+003;3.6183332520e+003;3.6503845215e+003;3.6203845215e+003;3.6264101563e+003;
4.5312500000e-001;3.7401281738e+003;3.6006411133e+003;3.6193588867e+003;3.6485898438e+003;3.6024357910e+003;3.6258974609e+003;3.6241025391e+003;3.6161538086e+003;3.6182050781e+003;3.6093588867e+003;3.6008974609e+003;3.6374357910e+003;3.6058974609e+003;3.6107692871e+003;
4.6093750000e-001;3.7389743652e+003;3.5948718262e+003;3.6175642090e+003;3.6419230957e+003;3.5965385742e+003;3.6260256348e+003;3.6179487305e+003;3.6069230957e+003;3.6121794434e+003;3.6066667480e+003;3.5976923828e+003;3.6339743652e+003;3.6033332520e+003;3.6096154785e+003;
4.6875000000e-001;3.7129487305e+003;3.5682050781e+003;3.5919230957e+003;3.6160256348e+003;3.5702563477e+003;3.6023076172e+003;3.5926923828e+003;3.5764101563e+003;3.5825642090e+003;3.5783332520e+003;3.5703845215e+003;3.6058974609e+003;3.5744870605e+003;3.5824357910e+003;
4.7656250000e-001;3.7617949219e+003;3.6187180176e+003;3.6321794434e+003;3.6602563477e+003;3.6217949219e+003;3.6421794434e+003;3.6398718262e+003;3.6146154785e+003;3.6251281738e+003;3.6202563477e+003;3.6112819824e+003;3.6470512695e+003;3.6180769043e+003;3.6229487305e+003;
4.8437500000e-001;3.8043588867e+003;3.6616667480e+003;3.6710256348e+003;3.7011538086e+003;3.6656411133e+003;3.6779487305e+003;3.6801281738e+003;3.6588461914e+003;3.6697436523e+003;3.6642307129e+003;3.6528205566e+003;3.6892307129e+003;3.6607692871e+003;3.6637180176e+003;
4.9218750000e-001;3.7742307129e+003;3.6233332520e+003;3.6417949219e+003;3.6694870605e+003;3.6265385742e+003;3.6424357910e+003;3.6443588867e+003;3.6344870605e+003;3.6371794434e+003;3.6315385742e+003;3.6243588867e+003;3.6598718262e+003;3.6228205566e+003;3.6307692871e+003;
5.0000000000e-001;3.7969230957e+003;3.6469230957e+003;3.6648718262e+003;3.6892307129e+003;3.6473076172e+003;3.6614101563e+003;3.6635898438e+003;3.6553845215e+003;3.6560256348e+003;3.6535898438e+003;3.6479487305e+003;3.6823076172e+003;3.6437180176e+003;3.6528205566e+003;
5.0781250000e-001;3.8373076172e+003;3.6914101563e+003;3.7071794434e+003;3.7289743652e+003;3.6891025391e+003;3.6980769043e+003;3.7020512695e+003;3.6976923828e+003;3.6973076172e+003;3.6982050781e+003;3.6907692871e+003;3.7260256348e+003;3.6862819824e+003;3.6961538086e+003;
5.1562500000e-001;3.8641025391e+003;3.7233332520e+003;3.7383332520e+003;3.7589743652e+003;3.7201281738e+003;3.7242307129e+003;3.7308974609e+003;3.7307692871e+003;3.7300000000e+003;3.7316667480e+003;3.7208974609e+003;3.7585898438e+003;3.7182050781e+003;3.7288461914e+003;
5.2343750000e-001;3.9370512695e+003;3.8033332520e+003;3.8212819824e+003;3.8314101563e+003;3.8061538086e+003;3.7994870605e+003;3.8067949219e+003;3.8117949219e+003;3.8119230957e+003;3.8205129395e+003;3.8083332520e+003;3.8367949219e+003;3.8084614258e+003;3.8123076172e+003;
5.3125000000e-001;3.9291025391e+003;3.7943588867e+003;3.8126923828e+003;3.8224357910e+003;3.7969230957e+003;3.7926923828e+003;3.7956411133e+003;3.8034614258e+003;3.8021794434e+003;3.8153845215e+003;3.8010256348e+003;3.8301281738e+003;3.8001281738e+003;3.8056411133e+003;
5.3906250000e-001;3.8175642090e+003;3.6802563477e+003;3.6982050781e+003;3.7182050781e+003;3.6846154785e+003;3.6910256348e+003;3.6897436523e+003;3.6908974609e+003;3.6902563477e+003;3.6943588867e+003;3.6760256348e+003;3.7091025391e+003;3.6815385742e+003;3.6858974609e+003;
5.4687500000e-001;3.7689743652e+003;3.6335898438e+003;3.6544870605e+003;3.6806411133e+003;3.6442307129e+003;3.6550000000e+003;3.6538461914e+003;3.6462819824e+003;3.6510256348e+003;3.6529487305e+003;3.6350000000e+003;3.6612819824e+003;3.6402563477e+003;3.6379487305e+003;
5.5468750000e-001;3.7664101563e+003;3.6294870605e+003;3.6494870605e+003;3.6771794434e+003;3.6406411133e+003;3.6525642090e+003;3.6519230957e+003;3.6401281738e+003;3.6425642090e+003;3.6480769043e+003;3.6300000000e+003;3.6556411133e+003;3.6355129395e+003;3.6344870605e+003;
5.6250000000e-001;3.7926923828e+003;3.6550000000e+003;3.6692307129e+003;3.6932050781e+003;3.6620512695e+003;3.6732050781e+003;3.6714101563e+003;3.6569230957e+003;3.6638461914e+003;3.6735898438e+003;3.6497436523e+003;3.6775642090e+003;3.6556411133e+003;3.6556411133e+003;
5.7031250000e-001;3.7420512695e+003;3.6069230957e+003;3.6276923828e+003;3.6525642090e+003;3.6251281738e+003;3.6392307129e+003;3.6355129395e+003;3.6148718262e+003;3.6269230957e+003;3.6284614258e+003;3.6084614258e+003;3.6330769043e+003;3.6182050781e+003;3.6101281738e+003;
5.7812500000e-001;3.7548718262e+003;3.6206411133e+003;3.6407692871e+003;3.6652563477e+003;3.6405129395e+003;3.6512819824e+003;3.6500000000e+003;3.6328205566e+003;3.6419230957e+003;3.6470512695e+003;3.6242307129e+003;3.6478205566e+003;3.6335898438e+003;3.6265385742e+003;
5.8593750000e-001;3.7451281738e+003;3.6108974609e+003;3.6301281738e+003;3.6544870605e+003;3.6294870605e+003;3.6398718262e+003;3.6401281738e+003;3.6276923828e+003;3.6332050781e+003;3.6419230957e+003;3.6162819824e+003;3.6412819824e+003;3.6234614258e+003;3.6202563477e+003;
5.9375000000e-001;3.6778205566e+003;3.5416667480e+003;3.5598718262e+003;3.5857692871e+003;3.5561538086e+003;3.5706411133e+003;3.5705129395e+003;3.5578205566e+003;3.5610256348e+003;3.5683332520e+003;3.5488461914e+003;3.5770512695e+003;3.5519230957e+003;3.5553845215e+003;
6.0156250000e-001;3.7680769043e+003;3.6285898438e+003;3.6478205566e+003;3.6679487305e+003;3.6403845215e+003;3.6437180176e+003;3.6469230957e+003;3.6343588867e+003;3.6425642090e+003;3.6488461914e+003;3.6332050781e+003;3.6635898438e+003;3.6396154785e+003;3.6424357910e+003;
6.0937500000e-001;3.7885898438e+003;3.6474357910e+003;3.6688461914e+003;3.6871794434e+003;3.6579487305e+003;3.6606411133e+003;3.6656411133e+003;3.6548718262e+003;3.6634614258e+003;3.6716667480e+003;3.6520512695e+003;3.6853845215e+003;3.6582050781e+003;3.6608974609e+003;
6.1718750000e-001;3.7839743652e+003;3.6458974609e+003;3.6639743652e+003;3.6839743652e+003;3.6567949219e+003;3.6574357910e+003;3.6689743652e+003;3.6657692871e+003;3.6723076172e+003;3.6833332520e+003;3.6582050781e+003;3.6897436523e+003;3.6655129395e+003;3.6610256348e+003;
6.2500000000e-001;3.7525642090e+003;3.6147436523e+003;3.6326923828e+003;3.6529487305e+003;3.6274357910e+003;3.6310256348e+003;3.6412819824e+003;3.6411538086e+003;3.6465385742e+003;3.6573076172e+003;3.6315385742e+003;3.6632050781e+003;3.6392307129e+003;3.6334614258e+003;
6.3281250000e-001;3.7052563477e+003;3.5655129395e+003;3.5843588867e+003;3.6051281738e+003;3.5798718262e+003;3.5893588867e+003;3.5962819824e+003;3.5951281738e+003;3.5997436523e+003;3.6085898438e+003;3.5844870605e+003;3.6178205566e+003;3.5912819824e+003;3.5864101563e+003;
6.4062500000e-001;3.6726923828e+003;3.5305129395e+003;3.5487180176e+003;3.5711538086e+003;3.5451281738e+003;3.5593588867e+003;3.5628205566e+003;3.5575642090e+003;3.5629487305e+003;3.5683332520e+003;3.5478205566e+003;3.5817949219e+003;3.5532050781e+003;3.5501281738e+003;
6.4843750000e-001;3.6894870605e+003;3.5484614258e+003;3.5593588867e+003;3.5892307129e+003;3.5597436523e+003;3.5714101563e+003;3.5660256348e+003;3.5625642090e+003;3.5793588867e+003;3.5802563477e+003;3.5584614258e+003;3.5866667480e+003;3.5684614258e+003;3.5629487305e+003;
6.5625000000e-001;3.6652563477e+003;3.5243588867e+003;3.5364101563e+003;3.5653845215e+003;3.5375642090e+003;3.5498718262e+003;3.5434614258e+003;3.5367949219e+003;3.5553845215e+003;3.5567949219e+003;3.5335898438e+003;3.5623076172e+003;3.5461538086e+003;3.5387180176e+003;
6.6406250000e-001;3.6965385742e+003;3.5611538086e+003;3.5657692871e+003;3.5914101563e+003;3.5702563477e+003;3.5819230957e+003;3.5733332520e+003;3.5667949219e+003;3.5866667480e+003;3.5942307129e+003;3.5685898438e+003;3.5925642090e+003;3.5825642090e+003;3.5696154785e+003;
6.7187500000e-001;3.6720512695e+003;3.5350000000e+003;3.5444870605e+003;3.5671794434e+003;3.5410256348e+003;3.5579487305e+003;3.5493588867e+003;3.5369230957e+003;3.5535898438e+003;3.5637180176e+003;3.5385898438e+003;3.5639743652e+003;3.5501281738e+003;3.5473076172e+003;
6.7968750000e-001;3.7062819824e+003;3.5711538086e+003;3.5780769043e+003;3.6008974609e+003;3.5783332520e+003;3.5903845215e+003;3.5844870605e+003;3.5711538086e+003;3.5879487305e+003;3.5982050781e+003;3.5707692871e+003;3.5973076172e+003;3.5833332520e+003;3.5802563477e+003;
6.8750000000e-001;3.6971794434e+003;3.5606411133e+003;3.5698718262e+003;3.5951281738e+003;3.5692307129e+003;3.5841025391e+003;3.5819230957e+003;3.5679487305e+003;3.5800000000e+003;3.5888461914e+003;3.5571794434e+003;3.5871794434e+003;3.5698718262e+003;3.5615385742e+003;
6.9531250000e-001;3.7684614258e+003;3.6319230957e+003;3.6376923828e+003;3.6583332520e+003;3.6343588867e+003;3.6355129395e+003;3.6450000000e+003;3.6303845215e+003;3.6376923828e+003;3.6553845215e+003;3.6267949219e+003;3.6600000000e+003;3.6392307129e+003;3.6314101563e+003;
7.0312500000e-001;3.7830769043e+003;3.6482050781e+003;3.6544870605e+003;3.6719230957e+003;3.6494870605e+003;3.6483332520e+003;3.6564101563e+003;3.6466667480e+003;3.6535898438e+003;3.6711538086e+003;3.6439743652e+003;3.6780769043e+003;3.6551281738e+003;3.6507692871e+003;
7.1093750000e-001;3.7851281738e+003;3.6497436523e+003;3.6578205566e+003;3.6724357910e+003;3.6502563477e+003;3.6492307129e+003;3.6557692871e+003;3.6478205566e+003;3.6555129395e+003;3.6702563477e+003;3.6457692871e+003;3.6788461914e+003;3.6558974609e+003;3.6543588867e+003;
7.1875000000e-001;3.8294870605e+003;3.6932050781e+003;3.7021794434e+003;3.7097436523e+003;3.6911538086e+003;3.6853845215e+003;3.6956411133e+003;3.6879487305e+003;3.6993588867e+003;3.7111538086e+003;3.6888461914e+003;3.7180769043e+003;3.6976923828e+003;3.6965385742e+003;
7.2656250000e-001;3.8297436523e+003;3.7033332520e+003;3.7161538086e+003;3.7147436523e+003;3.7011538086e+003;3.6964101563e+003;3.7110256348e+003;3.7048718262e+003;3.7158974609e+003;3.7267949219e+003;3.7083332520e+003;3.7438461914e+003;3.7098718262e+003;3.7096154785e+003;
7.3437500000e-001;3.8361538086e+003;3.7123076172e+003;3.7243588867e+003;3.7223076172e+003;3.7107692871e+003;3.7067949219e+003;3.7215385742e+003;3.7126923828e+003;3.7239743652e+003;3.7319230957e+003;3.7174357910e+003;3.7503845215e+003;3.7178205566e+003;3.7162819824e+003;
7.4218750000e-001;3.8706411133e+003;3.7488461914e+003;3.7584614258e+003;3.7556411133e+003;3.7471794434e+003;3.7411538086e+003;3.7548718262e+003;3.7466667480e+003;3.7593588867e+003;3.7658974609e+003;3.7520512695e+003;3.7796154785e+003;3.7526923828e+003;3.7488461914e+003;
7.5000000000e-001;3.9107692871e+003;3.7944870605e+003;3.7996154785e+003;3.7984614258e+003;3.7908974609e+003;3.7810256348e+003;3.7888461914e+003;3.7907692871e+003;3.8057692871e+003;3.8155129395e+003;3.7932050781e+003;3.8142307129e+003;3.7962819824e+003;3.7897436523e+003;
7.5781250000e-001;3.8939743652e+003;3.7816667480e+003;3.7855129395e+003;3.7869230957e+003;3.7785898438e+003;3.7688461914e+003;3.7742307129e+003;3.7774357910e+003;3.7934614258e+003;3.8051281738e+003;3.7789743652e+003;3.8007692871e+003;3.7841025391e+003;3.7767949219e+003;
7.6562500000e-001;3.8834614258e+003;3.7756411133e+003;3.7782050781e+003;3.7806411133e+003;3.7743588867e+003;3.7637180176e+003;3.7687180176e+003;3.7692307129e+003;3.7865385742e+003;3.7996154785e+003;3.7723076172e+003;3.7946154785e+003;3.7789743652e+003;3.7707692871e+003;
7.7343750000e-001;3.8646154785e+003;3.7608974609e+003;3.7656411133e+003;3.7606411133e+003;3.7629487305e+003;3.7556411133e+003;3.7626923828e+003;3.7517949219e+003;3.7678205566e+003;3.7821794434e+003;3.7544870605e+003;3.7770512695e+003;3.7603845215e+003;3.7561538086e+003;
7.8125000000e-001;3.8808974609e+003;3.7834614258e+003;3.7792307129e+003;3.7774357910e+003;3.7843588867e+003;3.7730769043e+003;3.7800000000e+003;3.7694870605e+003;3.7837180176e+003;3.8005129395e+003;3.7706411133e+003;3.7916667480e+003;3.7779487305e+003;3.7728205566e+003;
7.8906250000e-001;3.8483332520e+003;3.7597436523e+003;3.7524357910e+003;3.7534614258e+003;3.7633332520e+003;3.7523076172e+003;3.7558974609e+003;3.7434614258e+003;3.7584614258e+003;3.7760256348e+003;3.7464101563e+003;3.7698718262e+003;3.7516667480e+003;3.7455129395e+003;
7.9687500000e-001;3.8619230957e+003;3.7674357910e+003;3.7629487305e+003;3.7619230957e+003;3.7684614258e+003;3.7503845215e+003;3.7600000000e+003;3.7475642090e+003;3.7611538086e+003;3.7784614258e+003;3.7573076172e+003;3.7791025391e+003;3.7596154785e+003;3.7598718262e+003;
8.0468750000e-001;3.8607692871e+003;3.7665385742e+003;3.7611538086e+003;3.7602563477e+003;3.7655129395e+003;3.7460256348e+003;3.7574357910e+003;3.7505129395e+003;3.7616667480e+003;3.7808974609e+003;3.7584614258e+003;3.7819230957e+003;3.7576923828e+003;3.7625642090e+003;
8.1250000000e-001;3.8429487305e+003;3.7457692871e+003;3.7435898438e+003;3.7458974609e+003;3.7498718262e+003;3.7307692871e+003;3.7476923828e+003;3.7369230957e+003;3.7446154785e+003;3.7620512695e+003;3.7412819824e+003;3.7705129395e+003;3.7433332520e+003;3.7426923828e+003;
8.2031250000e-001;3.8724357910e+003;3.7784614258e+003;3.7865385742e+003;3.7848718262e+003;3.7839743652e+003;3.7711538086e+003;3.7910256348e+003;3.7875642090e+003;3.7937180176e+003;3.8117949219e+003;3.7837180176e+003;3.8103845215e+003;3.7814101563e+003;3.7812819824e+003;
8.2812500000e-001;3.8592307129e+003;3.7670512695e+003;3.7774357910e+003;3.7737180176e+003;3.7747436523e+003;3.7657692871e+003;3.7874357910e+003;3.7841025391e+003;3.7892307129e+003;3.8042307129e+003;3.7733332520e+003;3.8012819824e+003;3.7688461914e+003;3.7701281738e+003;
8.3593750000e-001;3.8723076172e+003;3.7814101563e+003;3.7919230957e+003;3.7853845215e+003;3.7917949219e+003;3.7838461914e+003;3.8071794434e+003;3.8034614258e+003;3.8089743652e+003;3.8212819824e+003;3.7880769043e+003;3.8165385742e+003;3.7835898438e+003;3.7833332520e+003;
8.4375000000e-001;3.9247436523e+003;3.8311538086e+003;3.8433332520e+003;3.8311538086e+003;3.8442307129e+003;3.8379487305e+003;3.8587180176e+003;3.8576923828e+003;3.8673076172e+003;3.8807692871e+003;3.8424357910e+003;3.8706411133e+003;3.8415385742e+003;3.8352563477e+003;
8.5156250000e-001;3.9235898438e+003;3.8273076172e+003;3.8414101563e+003;3.8285898438e+003;3.8402563477e+003;3.8357692871e+003;3.8542307129e+003;3.8526923828e+003;3.8644870605e+003;3.8801281738e+003;3.8405129395e+003;3.8683332520e+003;3.8407692871e+003;3.8338461914e+003;
8.5937500000e-001;3.9179487305e+003;3.8255129395e+003;3.8351281738e+003;3.8224357910e+003;3.8347436523e+003;3.8262819824e+003;3.8453845215e+003;3.8408974609e+003;3.8548718262e+003;3.8758974609e+003;3.8364101563e+003;3.8602563477e+003;3.8350000000e+003;3.8282050781e+003;
8.6718750000e-001;3.9185898438e+003;3.8329487305e+003;3.8378205566e+003;3.8248718262e+003;3.8394870605e+003;3.8280769043e+003;3.8474357910e+003;3.8451281738e+003;3.8592307129e+003;3.8823076172e+003;3.8417949219e+003;3.8644870605e+003;3.8402563477e+003;3.8316667480e+003;
8.7500000000e-001;3.8388461914e+003;3.7573076172e+003;3.7602563477e+003;3.7538461914e+003;3.7632050781e+003;3.7579487305e+003;3.7721794434e+003;3.7652563477e+003;3.7791025391e+003;3.8016667480e+003;3.7596154785e+003;3.7900000000e+003;3.7675642090e+003;3.7529487305e+003;
8.8281250000e-001;3.8523076172e+003;3.7670512695e+003;3.7693588867e+003;3.7646154785e+003;3.7734614258e+003;3.7667949219e+003;3.7815385742e+003;3.7708974609e+003;3.7857692871e+003;3.8096154785e+003;3.7682050781e+003;3.7964101563e+003;3.7779487305e+003;3.7625642090e+003;
8.9062500000e-001;3.8847436523e+003;3.7971794434e+003;3.7992307129e+003;3.7937180176e+003;3.8038461914e+003;3.7941025391e+003;3.8092307129e+003;3.7998718262e+003;3.8158974609e+003;3.8417949219e+003;3.8011538086e+003;3.8233332520e+003;3.8097436523e+003;3.7937180176e+003;
8.9843750000e-001;3.8994870605e+003;3.8126923828e+003;3.8151281738e+003;3.8084614258e+003;3.8192307129e+003;3.8085898438e+003;3.8223076172e+003;3.8174357910e+003;3.8333332520e+003;3.8605129395e+003;3.8215385742e+003;3.8374357910e+003;3.8273076172e+003;3.8111538086e+003;
9.0625000000e-001;3.8966667480e+003;3.8244870605e+003;3.8217949219e+003;3.8156411133e+003;3.8261538086e+003;3.8073076172e+003;3.8247436523e+003;3.8155129395e+003;3.8232050781e+003;3.8551281738e+003;3.8255129395e+003;3.8416667480e+003;3.8279487305e+003;3.8160256348e+003;
9.1406250000e-001;3.9170512695e+003;3.8441025391e+003;3.8442307129e+003;3.8424357910e+003;3.8475642090e+003;3.8246154785e+003;3.8414101563e+003;3.8365385742e+003;3.8412819824e+003;3.8764101563e+003;3.8467949219e+003;3.8650000000e+003;3.8487180176e+003;3.8361538086e+003;
9.2187500000e-001;3.9733332520e+003;3.9069230957e+003;3.9006411133e+003;3.8989743652e+003;3.9083332520e+003;3.8806411133e+003;3.8988461914e+003;3.8955129395e+003;3.8993588867e+003;3.9361538086e+003;3.9058974609e+003;3.9233332520e+003;3.9091025391e+003;3.8946154785e+003;
9.2968750000e-001;4.0037180176e+003;3.9476923828e+003;3.9362819824e+003;3.9289743652e+003;3.9389743652e+003;3.9088461914e+003;3.9320512695e+003;3.9344870605e+003;3.9366667480e+003;3.9770512695e+003;3.9410256348e+003;3.9603845215e+003;3.9416667480e+003;3.9321794434e+003;
9.3750000000e-001;3.9435898438e+003;3.8848718262e+003;3.8820512695e+003;3.8782050781e+003;3.8801281738e+003;3.8593588867e+003;3.8802563477e+003;3.8926923828e+003;3.8987180176e+003;3.9308974609e+003;3.8951281738e+003;3.9074357910e+003;3.8883332520e+003;3.8773076172e+003;
9.4531250000e-001;3.9285898438e+003;3.8691025391e+003;3.8706411133e+003;3.8634614258e+003;3.8656411133e+003;3.8497436523e+003;3.8691025391e+003;3.8819230957e+003;3.8882050781e+003;3.9193588867e+003;3.8825642090e+003;3.8978205566e+003;3.8767949219e+003;3.8656411133e+003;
9.5312500000e-001;3.8853845215e+003;3.8267949219e+003;3.8323076172e+003;3.8192307129e+003;3.8256411133e+003;3.8128205566e+003;3.8334614258e+003;3.8376923828e+003;3.8442307129e+003;3.8720512695e+003;3.8364101563e+003;3.8542307129e+003;3.8343588867e+003;3.8232050781e+003;
9.6093750000e-001;3.8842307129e+003;3.8292307129e+003;3.8315385742e+003;3.8208974609e+003;3.8306411133e+003;3.8144870605e+003;3.8351281738e+003;3.8357692871e+003;3.8450000000e+003;3.8714101563e+003;3.8346154785e+003;3.8512819824e+003;3.8339743652e+003;3.8214101563e+003;
9.6875000000e-001;3.8425642090e+003;3.7983332520e+003;3.7875642090e+003;3.7966667480e+003;3.8011538086e+003;3.7896154785e+003;3.8023076172e+003;3.7929487305e+003;3.8115385742e+003;3.8350000000e+003;3.7955129395e+003;3.8110256348e+003;3.7923076172e+003;3.7823076172e+003;
9.7656250000e-001;3.8464101563e+003;3.8028205566e+003;3.7893588867e+003;3.7988461914e+003;3.8043588867e+003;3.7917949219e+003;3.8052563477e+003;3.7920512695e+003;3.8101281738e+003;3.8350000000e+003;3.7976923828e+003;3.8126923828e+003;3.7950000000e+003;3.7866667480e+003;
9.8437500000e-001;3.8975642090e+003;3.8528205566e+003;3.8378205566e+003;3.8392307129e+003;3.8534614258e+003;3.8323076172e+003;3.8470512695e+003;3.8393588867e+003;3.8529487305e+003;3.8861538086e+003;3.8458974609e+003;3.8615385742e+003;3.8473076172e+003;3.8398718262e+003;
9.9218750000e-001;3.8966667480e+003;3.8512819824e+003;3.8370512695e+003;3.8374357910e+003;3.8524357910e+003;3.8314101563e+003;3.8447436523e+003;3.8400000000e+003;3.8525642090e+003;3.8875642090e+003;3.8441025391e+003;3.8612819824e+003;3.8475642090e+003;3.8389743652e+003;
1.0000000000e+000;3.8996154785e+003;3.8574357910e+003;3.8369230957e+003;3.8465385742e+003;3.8576923828e+003;3.8346154785e+003;3.8512819824e+003;3.8425642090e+003;3.8575642090e+003;3.8888461914e+003;3.8450000000e+003;3.8597436523e+003;3.8491025391e+003;3.8357692871e+003;
1.0078125000e+000;3.9166667480e+003;3.8753845215e+003;3.8552563477e+003;3.8633332520e+003;3.8741025391e+003;3.8482050781e+003;3.8648718262e+003;3.8601281738e+003;3.8744870605e+003;3.9070512695e+003;3.8630769043e+003;3.8780769043e+003;3.8661538086e+003;3.8546154785e+003;
1.0156250000e+000;3.9138461914e+003;3.8708974609e+003;3.8552563477e+003;3.8596154785e+003;3.8685898438e+003;3.8433332520e+003;3.8578205566e+003;3.8574357910e+003;3.8698718262e+003;3.9034614258e+003;3.8600000000e+003;3.8782050781e+003;3.8625642090e+003;3.8542307129e+003;
1.0234375000e+000;3.9110256348e+003;3.8658974609e+003;3.8544870605e+003;3.8510256348e+003;3.8637180176e+003;3.8387180176e+003;3.8582050781e+003;3.8589743652e+003;3.8678205566e+003;3.9039743652e+003;3.8651281738e+003;3.8858974609e+003;3.8639743652e+003;3.8543588867e+003;
1.0312500000e+000;3.8821794434e+003;3.8367949219e+003;3.8253845215e+003;3.8247436523e+003;3.8380769043e+003;3.8174357910e+003;3.8365385742e+003;3.8351281738e+003;3.8421794434e+003;3.8765385742e+003;3.8382050781e+003;3.8601281738e+003;3.8375642090e+003;3.8265385742e+003;
1.0390625000e+000;3.9635898438e+003;3.9171794434e+003;3.9038461914e+003;3.9007692871e+003;3.9225642090e+003;3.8944870605e+003;3.9173076172e+003;3.9161538086e+003;3.9234614258e+003;3.9532050781e+003;3.9174357910e+003;3.9412819824e+003;3.9212819824e+003;3.9037180176e+003;
1.0468750000e+000;3.9550000000e+003;3.9073076172e+003;3.8980769043e+003;3.8938461914e+003;3.9125642090e+003;3.8823076172e+003;3.9094870605e+003;3.9057692871e+003;3.9151281738e+003;3.9458974609e+003;3.9080769043e+003;3.9287180176e+003;3.9082050781e+003;3.8908974609e+003;
1.0546875000e+000;3.9776923828e+003;3.9279487305e+003;3.9171794434e+003;3.9128205566e+003;3.9341025391e+003;3.9029487305e+003;3.9302563477e+003;3.9224357910e+003;3.9348718262e+003;3.9647436523e+003;3.9284614258e+003;3.9462819824e+003;3.9296154785e+003;3.9106411133e+003;
1.0625000000e+000;4.0171794434e+003;3.9639743652e+003;3.9497436523e+003;3.9446154785e+003;3.9705129395e+003;3.9378205566e+003;3.9628205566e+003;3.9582050781e+003;3.9696154785e+003;4.0006411133e+003;3.9676923828e+003;3.9873076172e+003;3.9675642090e+003;3.9479487305e+003;
1.0703125000e+000;4.0117949219e+003;3.9620512695e+003;3.9435898438e+003;3.9417949219e+003;3.9674357910e+003;3.9337180176e+003;3.9591025391e+003;3.9521794434e+003;3.9629487305e+003;3.9950000000e+003;3.9630769043e+003;3.9833332520e+003;3.9621794434e+003;3.9424357910e+003;
1.0781250000e+000;4.0601281738e+003;4.0215385742e+003;3.9948718262e+003;3.9944870605e+003;4.0219230957e+003;3.9832050781e+003;4.0082050781e+003;3.9997436523e+003;4.0161538086e+003;4.0487180176e+003;4.0156411133e+003;4.0339743652e+003;4.0169230957e+003;3.9956411133e+003;
1.0859375000e+000;4.0732050781e+003;4.0378205566e+003;4.0123076172e+003;4.0094870605e+003;4.0355129395e+003;3.9983332520e+003;4.0216667480e+003;4.0144870605e+003;4.0333332520e+003;4.0647436523e+003;4.0306411133e+003;4.0497436523e+003;4.0335898438e+003;4.0133332520e+003;
1.0937500000e+000;4.0769230957e+003;4.0411538086e+003;4.0169230957e+003;4.0153845215e+003;4.0402563477e+003;4.0037180176e+003;4.0292307129e+003;4.0143588867e+003;4.0328205566e+003;4.0669230957e+003;4.0334614258e+003;4.0523076172e+003;4.0365385742e+003;4.0173076172e+003;
1.1015625000e+000;4.0991025391e+003;4.0651281738e+003;4.0364101563e+003;4.0370512695e+003;4.0652563477e+003;4.0246154785e+003;4.0512819824e+003;4.0375642090e+003;4.0574357910e+003;4.0939743652e+003;4.0583332520e+003;4.0747436523e+003;4.0601281738e+003;4.0375642090e+003;
1.1093750000e+000;4.0824357910e+003;4.0561538086e+003;4.0246154785e+003;4.0253845215e+003;4.0538461914e+003;4.0150000000e+003;4.0393588867e+003;4.0283332520e+003;4.0516667480e+003;4.0856411133e+003;4.0461538086e+003;4.0639743652e+003;4.0494870605e+003;4.0208974609e+003;
1.1171875000e+000;4.0696154785e+003;4.0484614258e+003;4.0167949219e+003;4.0158974609e+003;4.0437180176e+003;4.0070512695e+003;4.0310256348e+003;4.0169230957e+003;4.0398718262e+003;4.0716667480e+003;4.0328205566e+003;4.0517949219e+003;4.0385898438e+003;4.0093588867e+003;
1.1250000000e+000;4.1143588867e+003;4.1039741211e+003;4.0714101563e+003;4.0702563477e+003;4.1023076172e+003;4.0606411133e+003;4.0850000000e+003;4.0735898438e+003;4.0893588867e+003;4.1253847656e+003;4.0873076172e+003;4.0982050781e+003;4.0879487305e+003;4.0653845215e+003;
1.1328125000e+000;4.0943588867e+003;4.0825642090e+003;4.0533332520e+003;4.0525642090e+003;4.0837180176e+003;4.0425642090e+003;4.0667949219e+003;4.0573076172e+003;4.0733332520e+003;4.1070512695e+003;4.0694870605e+003;4.0801281738e+003;4.0685898438e+003;4.0466667480e+003;
1.1406250000e+000;4.0741025391e+003;4.0606411133e+003;4.0344870605e+003;4.0315385742e+003;4.0617949219e+003;4.0214101563e+003;4.0474357910e+003;4.0370512695e+003;4.0546154785e+003;4.0839743652e+003;4.0469230957e+003;4.0606411133e+003;4.0488461914e+003;4.0251281738e+003;
1.1484375000e+000;4.0542307129e+003;4.0393588867e+003;4.0252563477e+003;4.0162819824e+003;4.0341025391e+003;4.0019230957e+003;4.0310256348e+003;4.0284614258e+003;4.0392307129e+003;4.0651281738e+003;4.0264101563e+003;4.0523076172e+003;4.0296154785e+003;4.0135898438e+003;
1.1562500000e+000;4.0603845215e+003;4.0450000000e+003;4.0305129395e+003;4.0230769043e+003;4.0407692871e+003;4.0055129395e+003;4.0361538086e+003;4.0312819824e+003;4.0434614258e+003;4.0671794434e+003;4.0334614258e+003;4.0551281738e+003;4.0343588867e+003;4.0188461914e+003;
1.1640625000e+000;4.1005126953e+003;4.0920512695e+003;4.0793588867e+003;4.0584614258e+003;4.0834614258e+003;4.0480769043e+003;4.0797436523e+003;4.0761538086e+003;4.0921794434e+003;4.1185898438e+003;4.0816667480e+003;4.1041025391e+003;4.0888461914e+003;4.0682050781e+003;
1.1718750000e+000;4.1144873047e+003;4.1114101563e+003;4.0957692871e+003;4.0805129395e+003;4.1047436523e+003;4.0705129395e+003;4.0964101563e+003;4.0935898438e+003;4.1076923828e+003;4.1361538086e+003;4.1017949219e+003;4.1251284180e+003;4.1070512695e+003;4.0880769043e+003;
1.1796875000e+000;4.1279487305e+003;4.1274360352e+003;4.1089741211e+003;4.0969228516e+003;4.1194873047e+003;4.0829487305e+003;4.1082050781e+003;4.1062822266e+003;4.1225639648e+003;4.1514101563e+003;4.1191025391e+003;4.1417949219e+003;4.1211538086e+003;4.1038461914e+003;
1.1875000000e+000;4.0639743652e+003;4.0667949219e+003;4.0480769043e+003;4.0398718262e+003;4.0611538086e+003;4.0326923828e+003;4.0556411133e+003;4.0437180176e+003;4.0646154785e+003;4.0907692871e+003;4.0580769043e+003;4.0816667480e+003;4.0561538086e+003;4.0424357910e+003;
1.1953125000e+000;4.0615385742e+003;4.0644870605e+003;4.0467949219e+003;4.0398718262e+003;4.0620512695e+003;4.0352563477e+003;4.0566667480e+003;4.0455129395e+003;4.0665385742e+003;4.0915385742e+003;4.0561538086e+003;4.0789743652e+003;4.0546154785e+003;4.0402563477e+003;
1.2031250000e+000;4.0460256348e+003;4.0489743652e+003;4.0351281738e+003;4.0319230957e+003;4.0476923828e+003;4.0221794434e+003;4.0428205566e+003;4.0358974609e+003;4.0565385742e+003;4.0787180176e+003;4.0417949219e+003;4.0660256348e+003;4.0389743652e+003;4.0256411133e+003;
1.2109375000e+000;4.0423076172e+003;4.0457692871e+003;4.0319230957e+003;4.0293588867e+003;4.0425642090e+003;4.0153845215e+003;4.0385898438e+003;4.0288461914e+003;4.0488461914e+003;4.0706411133e+003;4.0357692871e+003;4.0612819824e+003;4.0323076172e+003;4.0198718262e+003;
1.2187500000e+000;4.1234614258e+003;4.1321796875e+003;4.1143588867e+003;4.1015385742e+003;4.1275639648e+003;4.0900000000e+003;4.1153847656e+003;4.1055126953e+003;4.1208974609e+003;4.1517949219e+003;4.1115385742e+003;4.1362822266e+003;4.1111538086e+003;4.0978203125e+003;
1.2265625000e+000;4.1088461914e+003;4.1174360352e+003;4.1035898438e+003;4.0891025391e+003;4.1143588867e+003;4.0784614258e+003;4.1017949219e+003;4.0947436523e+003;4.1075639648e+003;4.1394873047e+003;4.0976923828e+003;4.1235898438e+003;4.0975639648e+003;4.0862819824e+003;
1.2343750000e+000;4.0933332520e+003;4.1002563477e+003;4.0889743652e+003;4.0783332520e+003;4.0973076172e+003;4.0591025391e+003;4.0858974609e+003;4.0764101563e+003;4.0862819824e+003;4.1167949219e+003;4.0830769043e+003;4.1094873047e+003;4.0803845215e+003;4.0730769043e+003;
1.2421875000e+000;4.1312822266e+003;4.1405126953e+003;4.1248715820e+003;4.1150000000e+003;4.1342309570e+003;4.0906411133e+003;4.1198715820e+003;4.1114101563e+003;4.1216665039e+003;4.1535898438e+003;4.1225639648e+003;4.1482050781e+003;4.1194873047e+003;4.1117949219e+003;
1.2500000000e+000;4.1360258789e+003;4.1526923828e+003;4.1346152344e+003;4.1210258789e+003;4.1341025391e+003;4.0943588867e+003;4.1211538086e+003;4.1221796875e+003;4.1300000000e+003;4.1655126953e+003;4.1282050781e+003;4.1569228516e+003;4.1308974609e+003;4.1233334961e+003;
1.2578125000e+000;4.1202563477e+003;4.1355126953e+003;4.1203847656e+003;4.1061538086e+003;4.1156411133e+003;4.0778205566e+003;4.1074360352e+003;4.1066665039e+003;4.1124360352e+003;4.1461538086e+003;4.1121796875e+003;4.1384614258e+003;4.1137177734e+003;4.1085898438e+003;
1.2656250000e+000;4.1303847656e+003;4.1442309570e+003;4.1312822266e+003;4.1155126953e+003;4.1244873047e+003;4.0850000000e+003;4.1187177734e+003;4.1175639648e+003;4.1223076172e+003;4.1546152344e+003;4.1252563477e+003;4.1478203125e+003;4.1230771484e+003;4.1212822266e+003;
1.2734375000e+000;4.1471796875e+003;4.1597436523e+003;4.1487177734e+003;4.1307690430e+003;4.1417949219e+003;4.1005126953e+003;4.1355126953e+003;4.1370512695e+003;4.1423076172e+003;4.1739741211e+003;4.1469228516e+003;4.1680771484e+003;4.1405126953e+003;4.1424360352e+003;
1.2812500000e+000;4.1276923828e+003;4.1398715820e+003;4.1291025391e+003;4.1123076172e+003;4.1303847656e+003;4.0933332520e+003;4.1189741211e+003;4.1237177734e+003;4.1317949219e+003;4.1637177734e+003;4.1303847656e+003;4.1633334961e+003;4.1269228516e+003;4.1308974609e+003;
1.2890625000e+000;4.1426923828e+003;4.1578203125e+003;4.1441025391e+003;4.1293588867e+003;4.1466665039e+003;4.1080771484e+003;4.1341025391e+003;4.1384614258e+003;4.1462822266e+003;4.1797436523e+003;4.1460258789e+003;4.1780771484e+003;4.1450000000e+003;4.1461538086e+003;
1.2968750000e+000;4.1097436523e+003;4.1326923828e+003;4.1216665039e+003;4.1064101563e+003;4.1103847656e+003;4.0770512695e+003;4.1053847656e+003;4.1062822266e+003;4.1157690430e+003;4.1512822266e+003;4.1223076172e+003;4.1432050781e+003;4.1169228516e+003;4.1164101563e+003;
1.3046875000e+000;4.0896154785e+003;4.1112822266e+003;4.1023076172e+003;4.0857692871e+003;4.0923076172e+003;4.0593588867e+003;4.0855129395e+003;4.0828205566e+003;4.0952563477e+003;4.1284614258e+003;4.1007690430e+003;4.1219228516e+003;4.0961538086e+003;4.0961538086e+003;
1.3125000000e+000;4.1076923828e+003;4.1279487305e+003;4.1166665039e+003;4.1005126953e+003;4.1201284180e+003;4.0803845215e+003;4.1015385742e+003;4.0992309570e+003;4.1162822266e+003;4.1452563477e+003;4.1173076172e+003;4.1429487305e+003;4.1167949219e+003;4.1170512695e+003;
1.3203125000e+000;4.1679487305e+003;4.1942309570e+003;4.1753847656e+003;4.1656411133e+003;4.1844873047e+003;4.1473076172e+003;4.1735898438e+003;4.1591025391e+003;4.1696152344e+003;4.1975639648e+003;4.1765385742e+003;4.2015385742e+003;4.1750000000e+003;4.1714101563e+003;
1.3281250000e+000;4.2235898438e+003;4.2525639648e+003;4.2342309570e+003;4.2185898438e+003;4.2425639648e+003;4.2005126953e+003;4.2293588867e+003;4.2158974609e+003;4.2276923828e+003;4.2571796875e+003;4.2344873047e+003;4.2575639648e+003;4.2334614258e+003;4.2282050781e+003;
1.3359375000e+000;4.2685898438e+003;4.3032050781e+003;4.2891025391e+003;4.2638461914e+003;4.2966665039e+003;4.2479487305e+003;4.2783334961e+003;4.2687177734e+003;4.2828203125e+003;4.3134614258e+003;4.2873076172e+003;4.3080771484e+003;4.2860258789e+003;4.2796152344e+003;
1.3437500000e+000;4.2906411133e+003;4.3291025391e+003;4.3129487305e+003;4.2873076172e+003;4.3239741211e+003;4.2719228516e+003;4.3024360352e+003;4.2917949219e+003;4.3052563477e+003;4.3384614258e+003;4.3107690430e+003;4.3305126953e+003;4.3098715820e+003;4.3021796875e+003;
1.3515625000e+000;4.4180771484e+003;4.4707690430e+003;4.4439741211e+003;4.4175639648e+003;4.4628203125e+003;4.4006411133e+003;4.4343588867e+003;4.4261538086e+003;4.4326923828e+003;4.4793588867e+003;4.4429487305e+003;4.4612822266e+003;4.4432050781e+003;4.4353847656e+003;
1.3593750000e+000;4.3896152344e+003;4.4520512695e+003;4.4308974609e+003;4.3964101563e+003;4.4417949219e+003;4.3788461914e+003;4.4207690430e+003;4.4112822266e+003;4.4169228516e+003;4.4574360352e+003;4.4223076172e+003;4.4434614258e+003;4.4250000000e+003;4.4157690430e+003;
1.3671875000e+000;4.4039741211e+003;4.4714101563e+003;4.4471796875e+003;4.4115385742e+003;4.4574360352e+003;4.3920512695e+003;4.4341025391e+003;4.4305126953e+003;4.4358974609e+003;4.4797436523e+003;4.4420512695e+003;4.4619228516e+003;4.4444873047e+003;4.4321796875e+003;
1.3750000000e+000;4.4015385742e+003;4.4721796875e+003;4.4452563477e+003;4.4098715820e+003;4.4535898438e+003;4.3894873047e+003;4.4294873047e+003;4.4328203125e+003;4.4371796875e+003;4.4843588867e+003;4.4442309570e+003;4.4626923828e+003;4.4453847656e+003;4.4308974609e+003;
1.3828125000e+000;4.3347436523e+003;4.4037177734e+003;4.3773076172e+003;4.3424360352e+003;4.3819228516e+003;4.3269228516e+003;4.3637177734e+003;4.3651284180e+003;4.3714101563e+003;4.4137177734e+003;4.3764101563e+003;4.3920512695e+003;4.3773076172e+003;4.3602563477e+003;
1.3906250000e+000;4.3150000000e+003;4.3832050781e+003;4.3573076172e+003;4.3215385742e+003;4.3632050781e+003;4.3098715820e+003;4.3461538086e+003;4.3414101563e+003;4.3528203125e+003;4.3900000000e+003;4.3543588867e+003;4.3688461914e+003;4.3567949219e+003;4.3391025391e+003;
1.3984375000e+000;4.3094873047e+003;4.3794873047e+003;4.3532050781e+003;4.3170512695e+003;4.3616665039e+003;4.3080771484e+003;4.3425639648e+003;4.3351284180e+003;4.3516665039e+003;4.3866665039e+003;4.3502563477e+003;4.3650000000e+003;4.3534614258e+003;4.3366665039e+003;
1.4062500000e+000;4.3030771484e+003;4.3800000000e+003;4.3532050781e+003;4.3220512695e+003;4.3638461914e+003;4.3130771484e+003;4.3366665039e+003;4.3353847656e+003;4.3528203125e+003;4.3911538086e+003;4.3575639648e+003;4.3694873047e+003;4.3585898438e+003;4.3480771484e+003;
1.4140625000e+000;4.2892309570e+003;4.3617949219e+003;4.3410258789e+003;4.3116665039e+003;4.3530771484e+003;4.3101284180e+003;4.3366665039e+003;4.3310258789e+003;4.3391025391e+003;4.3785898438e+003;4.3434614258e+003;4.3628203125e+003;4.3416665039e+003;4.3315385742e+003;
1.4218750000e+000;4.3137177734e+003;4.3896152344e+003;4.3666665039e+003;4.3366665039e+003;4.3808974609e+003;4.3364101563e+003;4.3625639648e+003;4.3591025391e+003;4.3664101563e+003;4.4053847656e+003;4.3734614258e+003;4.3901284180e+003;4.3684614258e+003;4.3589741211e+003;
1.4296875000e+000;4.3110258789e+003;4.3869228516e+003;4.3675639648e+003;4.3328203125e+003;4.3785898438e+003;4.3362822266e+003;4.3617949219e+003;4.3634614258e+003;4.3692309570e+003;4.4043588867e+003;4.3739741211e+003;4.3906411133e+003;4.3660258789e+003;4.3625639648e+003;
1.4375000000e+000;4.3007690430e+003;4.3742309570e+003;4.3571796875e+003;4.3215385742e+003;4.3675639648e+003;4.3255126953e+003;4.3529487305e+003;4.3529487305e+003;4.3573076172e+003;4.3914101563e+003;4.3602563477e+003;4.3774360352e+003;4.3539741211e+003;4.3515385742e+003;
1.4453125000e+000;4.4047436523e+003;4.4906411133e+003;4.4603847656e+003;4.4284614258e+003;4.4814101563e+003;4.4252563477e+003;4.4569228516e+003;4.4607690430e+003;4.4655126953e+003;4.5071796875e+003;4.4687177734e+003;4.4801284180e+003;4.4669228516e+003;4.4547436523e+003;
1.4531250000e+000;4.4706411133e+003;4.5708974609e+003;4.5330771484e+003;4.4964101563e+003;4.5553847656e+003;4.4914101563e+003;4.5243588867e+003;4.5269228516e+003;4.5334614258e+003;4.5761538086e+003;4.5382050781e+003;4.5523076172e+003;4.5388461914e+003;4.5287177734e+003;
1.4609375000e+000;4.5110258789e+003;4.6106411133e+003;4.5741025391e+003;4.5330771484e+003;4.5973076172e+003;4.5252563477e+003;4.5617949219e+003;4.5670512695e+003;4.5744873047e+003;4.6184614258e+003;4.5798715820e+003;4.5917949219e+003;4.5803847656e+003;4.5716665039e+003;
1.4687500000e+000;4.4526923828e+003;4.5524360352e+003;4.5233334961e+003;4.4796152344e+003;4.5398715820e+003;4.4661538086e+003;4.5030771484e+003;4.5183334961e+003;4.5306411133e+003;4.5689741211e+003;4.5330771484e+003;4.5443588867e+003;4.5319228516e+003;4.5197436523e+003;
1.4765625000e+000;4.4301284180e+003;4.5323076172e+003;4.5015385742e+003;4.4582050781e+003;4.5147436523e+003;4.4451284180e+003;4.4800000000e+003;4.4933334961e+003;4.5067949219e+003;4.5428203125e+003;4.5110258789e+003;4.5229487305e+003;4.5112822266e+003;4.4973076172e+003;
1.4843750000e+000;4.4243588867e+003;4.5289741211e+003;4.4956411133e+003;4.4524360352e+003;4.5057690430e+003;4.4415385742e+003;4.4737177734e+003;4.4848715820e+003;4.4976923828e+003;4.5361538086e+003;4.5057690430e+003;4.5178203125e+003;4.5071796875e+003;4.4967949219e+003;
1.4921875000e+000;4.3887177734e+003;4.4914101563e+003;4.4601284180e+003;4.4191025391e+003;4.4714101563e+003;4.4116665039e+003;4.4437177734e+003;4.4521796875e+003;4.4639741211e+003;4.5017949219e+003;4.4701284180e+003;4.4826923828e+003;4.4706411133e+003;4.4642309570e+003;
1.5000000000e+000;4.3575639648e+003;4.4544873047e+003;4.4214101563e+003;4.3866665039e+003;4.4514101563e+003;4.3997436523e+003;4.4361538086e+003;4.4351284180e+003;4.4491025391e+003;4.4751284180e+003;4.4417949219e+003;4.4494873047e+003;4.4371796875e+003;4.4293588867e+003;
1.5078125000e+000;4.3870512695e+003;4.4853847656e+003;4.4521796875e+003;4.4152563477e+003;4.4839741211e+003;4.4339741211e+003;4.4698715820e+003;4.4734614258e+003;4.4889741211e+003;4.5148715820e+003;4.4779487305e+003;4.4846152344e+003;4.4707690430e+003;4.4615385742e+003;
1.5156250000e+000;4.3824360352e+003;4.4821796875e+003;4.4520512695e+003;4.4137177734e+003;4.4811538086e+003;4.4350000000e+003;4.4697436523e+003;4.4782050781e+003;4.4941025391e+003;4.5208974609e+003;4.4806411133e+003;4.4882050781e+003;4.4712822266e+003;4.4630771484e+003;
1.5234375000e+000;4.3439741211e+003;4.4442309570e+003;4.4176923828e+003;4.3801284180e+003;4.4426923828e+003;4.4007690430e+003;4.4358974609e+003;4.4461538086e+003;4.4605126953e+003;4.4874360352e+003;4.4462822266e+003;4.4551284180e+003;4.4358974609e+003;4.4298715820e+003;
1.5312500000e+000;4.2120512695e+003;4.3032050781e+003;4.2869228516e+003;4.2478203125e+003;4.2960258789e+003;4.2592309570e+003;4.2950000000e+003;4.3041025391e+003;4.3080771484e+003;4.3294873047e+003;4.2979487305e+003;4.3148715820e+003;4.2929487305e+003;4.2828203125e+003;
1.5390625000e+000;4.1678203125e+003;4.2547436523e+003;4.2442309570e+003;4.2037177734e+003;4.2474360352e+003;4.2151284180e+003;4.2452563477e+003;4.2528203125e+003;4.2558974609e+003;4.2758974609e+003;4.2484614258e+003;4.2665385742e+003;4.2450000000e+003;4.2350000000e+003;
1.5468750000e+000;4.1739741211e+003;4.2571796875e+003;4.2414101563e+003;4.2070512695e+003;4.2470512695e+003;4.2079487305e+003;4.2325639648e+003;4.2402563477e+003;4.2444873047e+003;4.2693588867e+003;4.2517949219e+003;4.2580771484e+003;4.2534614258e+003;4.2408974609e+003;
1.5546875000e+000;4.1492309570e+003;4.2312822266e+003;4.2111538086e+003;4.1764101563e+003;4.2176923828e+003;4.1785898438e+003;4.2066665039e+003;4.2051284180e+003;4.2103847656e+003;4.2396152344e+003;4.2185898438e+003;4.2367949219e+003;4.2250000000e+003;4.2142309570e+003;
1.5625000000e+000;4.1491025391e+003;4.2312822266e+003;4.2105126953e+003;4.1761538086e+003;4.2175639648e+003;4.1762822266e+003;4.2047436523e+003;4.2016665039e+003;4.2074360352e+003;4.2361538086e+003;4.2160258789e+003;4.2351284180e+003;4.2219228516e+003;4.2139741211e+003;
1.5703125000e+000;4.0758974609e+003;4.1443588867e+003;4.1339741211e+003;4.0980771484e+003;4.1260258789e+003;4.0897436523e+003;4.1130771484e+003;4.1180771484e+003;4.1250000000e+003;4.1511538086e+003;4.1371796875e+003;4.1510258789e+003;4.1391025391e+003;4.1356411133e+003;
1.5781250000e+000;4.0621794434e+003;4.1157690430e+003;4.1105126953e+003;4.0741025391e+003;4.0978203125e+003;4.0660256348e+003;4.0880769043e+003;4.0914101563e+003;4.1070512695e+003;4.1248715820e+003;4.1055126953e+003;4.1282050781e+003;4.1111538086e+003;4.1121796875e+003;
1.5859375000e+000;4.0402563477e+003;4.0910256348e+003;4.0862819824e+003;4.0538461914e+003;4.0746154785e+003;4.0476923828e+003;4.0683332520e+003;4.0735898438e+003;4.0884614258e+003;4.1029487305e+003;4.0835898438e+003;4.1069228516e+003;4.0874357910e+003;4.0905129395e+003;
1.5937500000e+000;3.9930769043e+003;4.0403845215e+003;4.0356411133e+003;4.0093588867e+003;4.0257692871e+003;4.0060256348e+003;4.0248718262e+003;4.0294870605e+003;4.0417949219e+003;4.0520512695e+003;4.0367949219e+003;4.0579487305e+003;4.0380769043e+003;4.0412819824e+003;
1.6015625000e+000;3.9537180176e+003;3.9961538086e+003;3.9858974609e+003;3.9688461914e+003;3.9842307129e+003;3.9705129395e+003;3.9874357910e+003;3.9875642090e+003;3.9983332520e+003;4.0023076172e+003;3.9943588867e+003;4.0083332520e+003;3.9943588867e+003;3.9925642090e+003;
1.6093750000e+000;3.9741025391e+003;4.0160256348e+003;4.0028205566e+003;3.9874357910e+003;4.0055129395e+003;3.9911538086e+003;4.0071794434e+003;4.0083332520e+003;4.0212819824e+003;4.0241025391e+003;4.0134614258e+003;4.0271794434e+003;4.0146154785e+003;4.0107692871e+003;
1.6171875000e+000;3.9650000000e+003;4.0050000000e+003;3.9925642090e+003;3.9816667480e+003;4.0003845215e+003;3.9906411133e+003;4.0056411133e+003;4.0069230957e+003;4.0225642090e+003;4.0221794434e+003;4.0056411133e+003;4.0217949219e+003;4.0064101563e+003;4.0020512695e+003;
1.6250000000e+000;3.9369230957e+003;3.9758974609e+003;3.9633332520e+003;3.9558974609e+003;3.9750000000e+003;3.9674357910e+003;3.9837180176e+003;3.9816667480e+003;3.9957692871e+003;3.9932050781e+003;3.9784614258e+003;3.9924357910e+003;3.9785898438e+003;3.9726923828e+003;
1.6328125000e+000;3.8734614258e+003;3.9124357910e+003;3.8957692871e+003;3.8923076172e+003;3.9134614258e+003;3.9067949219e+003;3.9230769043e+003;3.9214101563e+003;3.9302563477e+003;3.9269230957e+003;3.9133332520e+003;3.9223076172e+003;3.9161538086e+003;3.9070512695e+003;
1.6406250000e+000;3.8361538086e+003;3.8705129395e+003;3.8575642090e+003;3.8546154785e+003;3.8703845215e+003;3.8685898438e+003;3.8825642090e+003;3.8793588867e+003;3.8891025391e+003;3.8847436523e+003;3.8706411133e+003;3.8841025391e+003;3.8742307129e+003;3.8689743652e+003;
1.6484375000e+000;3.8102563477e+003;3.8371794434e+003;3.8285898438e+003;3.8261538086e+003;3.8364101563e+003;3.8382050781e+003;3.8510256348e+003;3.8433332520e+003;3.8555129395e+003;3.8498718262e+003;3.8379487305e+003;3.8553845215e+003;3.8414101563e+003;3.8396154785e+003;
1.6562500000e+000;3.7546154785e+003;3.7582050781e+003;3.7550000000e+003;3.7553845215e+003;3.7546154785e+003;3.7558974609e+003;3.7693588867e+003;3.7588461914e+003;3.7666667480e+003;3.7712819824e+003;3.7632050781e+003;3.7825642090e+003;3.7648718262e+003;3.7638461914e+003;
1.6640625000e+000;3.7834614258e+003;3.7855129395e+003;3.7796154785e+003;3.7798718262e+003;3.7806411133e+003;3.7757692871e+003;3.7919230957e+003;3.7802563477e+003;3.7861538086e+003;3.7942307129e+003;3.7864101563e+003;3.8067949219e+003;3.7911538086e+003;3.7912819824e+003;
1.6718750000e+000;3.8125642090e+003;3.8043588867e+003;3.8029487305e+003;3.8041025391e+003;3.7996154785e+003;3.7880769043e+003;3.8044870605e+003;3.8060256348e+003;3.8087180176e+003;3.8216667480e+003;3.8198718262e+003;3.8382050781e+003;3.8234614258e+003;3.8243588867e+003;
1.6796875000e+000;3.7897436523e+003;3.7744870605e+003;3.7726923828e+003;3.7765385742e+003;3.7710256348e+003;3.7617949219e+003;3.7870512695e+003;3.7852563477e+003;3.7955129395e+003;3.7965385742e+003;3.7914101563e+003;3.8066667480e+003;3.7961538086e+003;3.7958974609e+003;
1.6875000000e+000;3.7984614258e+003;3.7828205566e+003;3.7807692871e+003;3.7837180176e+003;3.7801281738e+003;3.7717949219e+003;3.7960256348e+003;3.7955129395e+003;3.8105129395e+003;3.8087180176e+003;3.7994870605e+003;3.8175642090e+003;3.8029487305e+003;3.8047436523e+003;
1.6953125000e+000;3.7574357910e+003;3.7333332520e+003;3.7284614258e+003;3.7371794434e+003;3.7407692871e+003;3.7374357910e+003;3.7483332520e+003;3.7437180176e+003;3.7651281738e+003;3.7557692871e+003;3.7474357910e+003;3.7634614258e+003;3.7496154785e+003;3.7473076172e+003;
1.7031250000e+000;3.7771794434e+003;3.7485898438e+003;3.7416667480e+003;3.7493588867e+003;3.7589743652e+003;3.7592307129e+003;3.7603845215e+003;3.7569230957e+003;3.7773076172e+003;3.7696154785e+003;3.7602563477e+003;3.7683332520e+003;3.7619230957e+003;3.7585898438e+003;
1.7109375000e+000;3.7505129395e+003;3.7203845215e+003;3.7147436523e+003;3.7237180176e+003;3.7321794434e+003;3.7348718262e+003;3.7357692871e+003;3.7265385742e+003;3.7471794434e+003;3.7384614258e+003;3.7300000000e+003;3.7423076172e+003;3.7310256348e+003;3.7292307129e+003;
1.7187500000e+000;3.7401281738e+003;3.7088461914e+003;3.7017949219e+003;3.7129487305e+003;3.7212819824e+003;3.7232050781e+003;3.7260256348e+003;3.7097436523e+003;3.7311538086e+003;3.7215385742e+003;3.7146154785e+003;3.7301281738e+003;3.7170512695e+003;3.7134614258e+003;
1.7265625000e+000;3.7596154785e+003;3.7253845215e+003;3.7165385742e+003;3.7279487305e+003;3.7335898438e+003;3.7332050781e+003;3.7387180176e+003;3.7192307129e+003;3.7394870605e+003;3.7316667480e+003;3.7260256348e+003;3.7420512695e+003;3.7334614258e+003;3.7243588867e+003;
1.7343750000e+000;3.7489743652e+003;3.7116667480e+003;3.7070512695e+003;3.7158974609e+003;3.7176923828e+003;3.7198718262e+003;3.7237180176e+003;3.7061538086e+003;3.7241025391e+003;3.7179487305e+003;3.7125642090e+003;3.7289743652e+003;3.7208974609e+003;3.7134614258e+003;
1.7421875000e+000;3.7230769043e+003;3.6805129395e+003;3.6803845215e+003;3.6888461914e+003;3.6883332520e+003;3.6926923828e+003;3.6930769043e+003;3.6747436523e+003;3.6882050781e+003;3.6853845215e+003;3.6828205566e+003;3.7012819824e+003;3.6893588867e+003;3.6891025391e+003;
1.7500000000e+000;3.7292307129e+003;3.6851281738e+003;3.6816667480e+003;3.6946154785e+003;3.6962819824e+003;3.6979487305e+003;3.6985898438e+003;3.6785898438e+003;3.6917949219e+003;3.6905129395e+003;3.6894870605e+003;3.7076923828e+003;3.6942307129e+003;3.6952563477e+003;
1.7578125000e+000;3.6730769043e+003;3.6225642090e+003;3.6156411133e+003;3.6410256348e+003;3.6369230957e+003;3.6389743652e+003;3.6467949219e+003;3.6176923828e+003;3.6287180176e+003;3.6300000000e+003;3.6292307129e+003;3.6456411133e+003;3.6360256348e+003;3.6314101563e+003;
1.7656250000e+000;3.6741025391e+003;3.6223076172e+003;3.6160256348e+003;3.6394870605e+003;3.6337180176e+003;3.6341025391e+003;3.6451281738e+003;3.6144870605e+003;3.6221794434e+003;3.6269230957e+003;3.6251281738e+003;3.6419230957e+003;3.6355129395e+003;3.6293588867e+003;
1.7734375000e+000;3.7002563477e+003;3.6478205566e+003;3.6414101563e+003;3.6610256348e+003;3.6560256348e+003;3.6520512695e+003;3.6647436523e+003;3.6367949219e+003;3.6420512695e+003;3.6516667480e+003;3.6487180176e+003;3.6661538086e+003;3.6608974609e+003;3.6547436523e+003;
1.7812500000e+000;3.6230769043e+003;3.5574357910e+003;3.5505129395e+003;3.5728205566e+003;3.5574357910e+003;3.5547436523e+003;3.5705129395e+003;3.5573076172e+003;3.5721794434e+003;3.5661538086e+003;3.5623076172e+003;3.5841025391e+003;3.5661538086e+003;3.5643588867e+003;
1.7890625000e+000;3.6291025391e+003;3.5616667480e+003;3.5544870605e+003;3.5755129395e+003;3.5602563477e+003;3.5584614258e+003;3.5751281738e+003;3.5674357910e+003;3.5848718262e+003;3.5741025391e+003;3.5669230957e+003;3.5900000000e+003;3.5703845215e+003;3.5700000000e+003;
1.7968750000e+000;3.6017949219e+003;3.5189743652e+003;3.5232050781e+003;3.5451281738e+003;3.5298718262e+003;3.5396154785e+003;3.5470512695e+003;3.5387180176e+003;3.5583332520e+003;3.5419230957e+003;3.5358974609e+003;3.5546154785e+003;3.5400000000e+003;3.5416667480e+003;
1.8046875000e+000;3.6693588867e+003;3.5930769043e+003;3.5919230957e+003;3.6157692871e+003;3.5993588867e+003;3.6067949219e+003;3.6183332520e+003;3.6028205566e+003;3.6230769043e+003;3.6105129395e+003;3.6043588867e+003;3.6219230957e+003;3.6078205566e+003;3.6047436523e+003;
1.8125000000e+000;3.6741025391e+003;3.5973076172e+003;3.5960256348e+003;3.6176923828e+003;3.6021794434e+003;3.6106411133e+003;3.6224357910e+003;3.6044870605e+003;3.6247436523e+003;3.6117949219e+003;3.6053845215e+003;3.6252563477e+003;3.6089743652e+003;3.6082050781e+003;
1.8203125000e+000;3.7646154785e+003;3.6797436523e+003;3.6766667480e+003;3.6956411133e+003;3.6923076172e+003;3.6955129395e+003;3.7026923828e+003;3.6834614258e+003;3.7103845215e+003;3.7033332520e+003;3.6879487305e+003;3.7058974609e+003;3.6966667480e+003;3.6934614258e+003;
1.8281250000e+000;3.7541025391e+003;3.6696154785e+003;3.6675642090e+003;3.6873076172e+003;3.6838461914e+003;3.6887180176e+003;3.6938461914e+003;3.6764101563e+003;3.7035898438e+003;3.6994870605e+003;3.6775642090e+003;3.6975642090e+003;3.6880769043e+003;3.6828205566e+003;
1.8359375000e+000;3.6807692871e+003;3.5961538086e+003;3.5955129395e+003;3.6180769043e+003;3.6106411133e+003;3.6207692871e+003;3.6251281738e+003;3.6014101563e+003;3.6228205566e+003;3.6174357910e+003;3.5966667480e+003;3.6206411133e+003;3.6053845215e+003;3.6017949219e+003;
1.8437500000e+000;3.6779487305e+003;3.5919230957e+003;3.5902563477e+003;3.6121794434e+003;3.6055129395e+003;3.6138461914e+003;3.6189743652e+003;3.5932050781e+003;3.6096154785e+003;3.6048718262e+003;3.5888461914e+003;3.6125642090e+003;3.5948718262e+003;3.5934614258e+003;
1.8515625000e+000;3.6566667480e+003;3.5633332520e+003;3.5647436523e+003;3.5823076172e+003;3.5728205566e+003;3.5839743652e+003;3.5887180176e+003;3.5662819824e+003;3.5671794434e+003;3.5741025391e+003;3.5614101563e+003;3.5917949219e+003;3.5698718262e+003;3.5721794434e+003;
1.8593750000e+000;3.6443588867e+003;3.5491025391e+003;3.5528205566e+003;3.5687180176e+003;3.5580769043e+003;3.5697436523e+003;3.5762819824e+003;3.5500000000e+003;3.5500000000e+003;3.5576923828e+003;3.5479487305e+003;3.5800000000e+003;3.5592307129e+003;3.5612819824e+003;
1.8671875000e+000;3.6866667480e+003;3.5892307129e+003;3.5978205566e+003;3.6073076172e+003;3.5958974609e+003;3.5966667480e+003;3.6083332520e+003;3.5803845215e+003;3.5844870605e+003;3.5939743652e+003;3.5901281738e+003;3.6221794434e+003;3.5998718262e+003;3.6032050781e+003;
1.8750000000e+000;3.6850000000e+003;3.5862819824e+003;3.5983332520e+003;3.6061538086e+003;3.5892307129e+003;3.5873076172e+003;3.6000000000e+003;3.5746154785e+003;3.5801281738e+003;3.5921794434e+003;3.5892307129e+003;3.6239743652e+003;3.5952563477e+003;3.6007692871e+003;
1.8828125000e+000;3.6019230957e+003;3.4950000000e+003;3.5120512695e+003;3.5215385742e+003;3.4892307129e+003;3.4916667480e+003;3.5083332520e+003;3.4816667480e+003;3.4889743652e+003;3.5034614258e+003;3.5056411133e+003;3.5457692871e+003;3.5087180176e+003;3.5180769043e+003;
1.8906250000e+000;3.6094870605e+003;3.5002563477e+003;3.5184614258e+003;3.5258974609e+003;3.4957692871e+003;3.4961538086e+003;3.5130769043e+003;3.4905129395e+003;3.5015385742e+003;3.5130769043e+003;3.5160256348e+003;3.5519230957e+003;3.5197436523e+003;3.5297436523e+003;
1.8984375000e+000;3.6078205566e+003;3.4966667480e+003;3.5178205566e+003;3.5241025391e+003;3.4950000000e+003;3.4935898438e+003;3.5087180176e+003;3.4924357910e+003;3.5088461914e+003;3.5155129395e+003;3.5183332520e+003;3.5503845215e+003;3.5216667480e+003;3.5324357910e+003;
1.9062500000e+000;3.5806411133e+003;3.4653845215e+003;3.4789743652e+003;3.4964101563e+003;3.4644870605e+003;3.4697436523e+003;3.4811538086e+003;3.4661538086e+003;3.4900000000e+003;3.4938461914e+003;3.4819230957e+003;3.5173076172e+003;3.4903845215e+003;3.4915385742e+003;
1.9140625000e+000;3.5673076172e+003;3.4507692871e+003;3.4646154785e+003;3.4815385742e+003;3.4532050781e+003;3.4641025391e+003;3.4735898438e+003;3.4601281738e+003;3.4797436523e+003;3.4797436523e+003;3.4667949219e+003;3.4996154785e+003;3.4742307129e+003;3.4757692871e+003;
1.9218750000e+000;3.6066667480e+003;3.4880769043e+003;3.5000000000e+003;3.5225642090e+003;3.5035898438e+003;3.5139743652e+003;3.5248718262e+003;3.5133332520e+003;3.5282050781e+003;3.5176923828e+003;3.5030769043e+003;3.5216667480e+003;3.5092307129e+003;3.5053845215e+003;
1.9296875000e+000;3.6011538086e+003;3.4792307129e+003;3.4946154785e+003;3.5146154785e+003;3.4971794434e+003;3.5155129395e+003;3.5276923828e+003;3.5101281738e+003;3.5234614258e+003;3.5169230957e+003;3.4921794434e+003;3.5194870605e+003;3.4983332520e+003;3.4907692871e+003;
1.9375000000e+000;3.6019230957e+003;3.4800000000e+003;3.4930769043e+003;3.5112819824e+003;3.4984614258e+003;3.5167949219e+003;3.5288461914e+003;3.5089743652e+003;3.5192307129e+003;3.5144870605e+003;3.4903845215e+003;3.5185898438e+003;3.4974357910e+003;3.4906411133e+003;
1.9453125000e+000;3.5711538086e+003;3.4500000000e+003;3.4589743652e+003;3.4791025391e+003;3.4653845215e+003;3.4876923828e+003;3.4950000000e+003;3.4744870605e+003;3.4752563477e+003;3.4816667480e+003;3.4657692871e+003;3.4906411133e+003;3.4738461914e+003;3.4733332520e+003;
1.9531250000e+000;3.5452563477e+003;3.4216667480e+003;3.4342307129e+003;3.4546154785e+003;3.4360256348e+003;3.4602563477e+003;3.4684614258e+003;3.4415385742e+003;3.4400000000e+003;3.4503845215e+003;3.4394870605e+003;3.4658974609e+003;3.4469230957e+003;3.4476923828e+003;
1.9609375000e+000;3.5766667480e+003;3.4462819824e+003;3.4658974609e+003;3.4812819824e+003;3.4615385742e+003;3.4761538086e+003;3.4894870605e+003;3.4550000000e+003;3.4476923828e+003;3.4678205566e+003;3.4646154785e+003;3.4958974609e+003;3.4697436523e+003;3.4716667480e+003;
1.9687500000e+000;3.5951281738e+003;3.4605129395e+003;3.4839743652e+003;3.4951281738e+003;3.4761538086e+003;3.4853845215e+003;3.4988461914e+003;3.4656411133e+003;3.4567949219e+003;3.4800000000e+003;3.4789743652e+003;3.5133332520e+003;3.4824357910e+003;3.4878205566e+003;
1.9765625000e+000;3.5708974609e+003;3.4303845215e+003;3.4533332520e+003;3.4605129395e+003;3.4367949219e+003;3.4428205566e+003;3.4538461914e+003;3.4205129395e+003;3.4212819824e+003;3.4397436523e+003;3.4462819824e+003;3.4856411133e+003;3.4516667480e+003;3.4601281738e+003;
1.9843750000e+000;3.5996154785e+003;3.4503845215e+003;3.4734614258e+003;3.4832050781e+003;3.4533332520e+003;3.4475642090e+003;3.4648718262e+003;3.4501281738e+003;3.4605129395e+003;3.4776923828e+003;3.4770512695e+003;3.5165385742e+003;3.4841025391e+003;3.4897436523e+003;
1.9921875000e+000;3.5976923828e+003;3.4437180176e+003;3.4674357910e+003;3.4779487305e+003;3.4446154785e+003;3.4394870605e+003;3.4569230957e+003;3.4453845215e+003;3.4597436523e+003;3.4730769043e+003;3.4723076172e+003;3.5100000000e+003;3.4776923828e+003;3.4858974609e+003;
2.0000000000e+000;3.6216667480e+003;3.4671794434e+003;3.4876923828e+003;3.4984614258e+003;3.4650000000e+003;3.4601281738e+003;3.4765385742e+003;3.4667949219e+003;3.4869230957e+003;3.4962819824e+003;3.4948718262e+003;3.5287180176e+003;3.4996154785e+003;3.5070512695e+003;
2.0078125000e+000;3.6911538086e+003;3.5473076172e+003;3.5574357910e+003;3.5697436523e+003;3.5429487305e+003;3.5371794434e+003;3.5498718262e+003;3.5493588867e+003;3.5780769043e+003;3.5860256348e+003;3.5714101563e+003;3.5994870605e+003;3.5794870605e+003;3.5746154785e+003;
2.0156250000e+000;3.6808974609e+003;3.5415385742e+003;3.5496154785e+003;3.5655129395e+003;3.5401281738e+003;3.5373076172e+003;3.5484614258e+003;3.5516667480e+003;3.5793588867e+003;3.5878205566e+003;3.5642307129e+003;3.5925642090e+003;3.5750000000e+003;3.5647436523e+003;
2.0234375000e+000;3.6543588867e+003;3.5169230957e+003;3.5238461914e+003;3.5439743652e+003;3.5197436523e+003;3.5203845215e+003;3.5316667480e+003;3.5337180176e+003;3.5579487305e+003;3.5658974609e+003;3.5365385742e+003;3.5655129395e+003;3.5491025391e+003;3.5367949219e+003;
2.0312500000e+000;3.6547436523e+003;3.5312819824e+003;3.5283332520e+003;3.5491025391e+003;3.5382050781e+003;3.5496154785e+003;3.5619230957e+003;3.5528205566e+003;3.5725642090e+003;3.5700000000e+003;3.5415385742e+003;3.5678205566e+003;3.5494870605e+003;3.5406411133e+003;
2.0390625000e+000;3.6401281738e+003;3.5162819824e+003;3.5125642090e+003;3.5380769043e+003;3.5273076172e+003;3.5370512695e+003;3.5514101563e+003;3.5401281738e+003;3.5576923828e+003;3.5544870605e+003;3.5267949219e+003;3.5516667480e+003;3.5391025391e+003;3.5265385742e+003;
2.0468750000e+000;3.6387180176e+003;3.5130769043e+003;3.5102563477e+003;3.5397436523e+003;3.5278205566e+003;3.5342307129e+003;3.5475642090e+003;3.5326923828e+003;3.5474357910e+003;3.5529487305e+003;3.5178205566e+003;3.5442307129e+003;3.5300000000e+003;3.5252563477e+003;
2.0546875000e+000;3.5780769043e+003;3.4487180176e+003;3.4489743652e+003;3.4780769043e+003;3.4624357910e+003;3.4779487305e+003;3.4866667480e+003;3.4503845215e+003;3.4616667480e+003;3.4724357910e+003;3.4458974609e+003;3.4694870605e+003;3.4566667480e+003;3.4551281738e+003;
2.0625000000e+000;3.5953845215e+003;3.4684614258e+003;3.4658974609e+003;3.4941025391e+003;3.4779487305e+003;3.4907692871e+003;3.5000000000e+003;3.4621794434e+003;3.4732050781e+003;3.4869230957e+003;3.4641025391e+003;3.4852563477e+003;3.4771794434e+003;3.4739743652e+003;
2.0703125000e+000;3.5939743652e+003;3.4719230957e+003;3.4669230957e+003;3.4948718262e+003;3.4726923828e+003;3.4793588867e+003;3.4907692871e+003;3.4443588867e+003;3.4494870605e+003;3.4782050781e+003;3.4661538086e+003;3.4979487305e+003;3.4753845215e+003;3.4800000000e+003;
2.0781250000e+000;3.6173076172e+003;3.4937180176e+003;3.4888461914e+003;3.5171794434e+003;3.4952563477e+003;3.4970512695e+003;3.5098718262e+003;3.4616667480e+003;3.4646154785e+003;3.4987180176e+003;3.4889743652e+003;3.5215385742e+003;3.4962819824e+003;3.5014101563e+003;
2.0859375000e+000;3.6429487305e+003;3.5178205566e+003;3.5150000000e+003;3.5408974609e+003;3.5153845215e+003;3.5165385742e+003;3.5288461914e+003;3.4889743652e+003;3.4955129395e+003;3.5298718262e+003;3.5182050781e+003;3.5467949219e+003;3.5250000000e+003;3.5264101563e+003;
2.0937500000e+000;3.6261538086e+003;3.5005129395e+003;3.5000000000e+003;3.5234614258e+003;3.4950000000e+003;3.4993588867e+003;3.5117949219e+003;3.4776923828e+003;3.4891025391e+003;3.5171794434e+003;3.5037180176e+003;3.5311538086e+003;3.5107692871e+003;3.5106411133e+003;
2.1015625000e+000;3.6379487305e+003;3.5080769043e+003;3.5123076172e+003;3.5282050781e+003;3.5029487305e+003;3.4989743652e+003;3.5193588867e+003;3.5171794434e+003;3.5360256348e+003;3.5465385742e+003;3.5257692871e+003;3.5489743652e+003;3.5292307129e+003;3.5294870605e+003;
2.1093750000e+000;3.6220512695e+003;3.4906411133e+003;3.4964101563e+003;3.5139743652e+003;3.4864101563e+003;3.4834614258e+003;3.5029487305e+003;3.5129487305e+003;3.5320512695e+003;3.5373076172e+003;3.5139743652e+003;3.5365385742e+003;3.5150000000e+003;3.5164101563e+003;
2.1171875000e+000;3.5583332520e+003;3.4269230957e+003;3.4302563477e+003;3.4567949219e+003;3.4230769043e+003;3.4315385742e+003;3.4453845215e+003;3.4576923828e+003;3.4808974609e+003;3.4748718262e+003;3.4512819824e+003;3.4725642090e+003;3.4497436523e+003;3.4505129395e+003;
2.1250000000e+000;3.5575642090e+003;3.4288461914e+003;3.4271794434e+003;3.4562819824e+003;3.4261538086e+003;3.4369230957e+003;3.4491025391e+003;3.4553845215e+003;3.4816667480e+003;3.4739743652e+003;3.4503845215e+003;3.4693588867e+003;3.4492307129e+003;3.4471794434e+003;
2.1328125000e+000;3.5314101563e+003;3.4065385742e+003;3.4000000000e+003;3.4323076172e+003;3.4170512695e+003;3.4294870605e+003;3.4356411133e+003;3.4285898438e+003;3.4530769043e+003;3.4470512695e+003;3.4178205566e+003;3.4406411133e+003;3.4215385742e+003;3.4188461914e+003;
2.1406250000e+000;3.5214101563e+003;3.3956411133e+003;3.3893588867e+003;3.4241025391e+003;3.4088461914e+003;3.4221794434e+003;3.4279487305e+003;3.4164101563e+003;3.4391025391e+003;3.4316667480e+003;3.4012819824e+003;3.4275642090e+003;3.4058974609e+003;3.4057692871e+003;
2.1484375000e+000;3.5432050781e+003;3.4165385742e+003;3.4094870605e+003;3.4451281738e+003;3.4301281738e+003;3.4432050781e+003;3.4501281738e+003;3.4360256348e+003;3.4592307129e+003;3.4508974609e+003;3.4187180176e+003;3.4458974609e+003;3.4228205566e+003;3.4241025391e+003;
2.1562500000e+000;3.5758974609e+003;3.4482050781e+003;3.4410256348e+003;3.4753845215e+003;3.4617949219e+003;3.4756411133e+003;3.4830769043e+003;3.4689743652e+003;3.4946154785e+003;3.4864101563e+003;3.4511538086e+003;3.4771794434e+003;3.4534614258e+003;3.4546154785e+003;
2.1640625000e+000;3.5471794434e+003;3.4152563477e+003;3.4138461914e+003;3.4487180176e+003;3.4392307129e+003;3.4619230957e+003;3.4626923828e+003;3.4317949219e+003;3.4593588867e+003;3.4547436523e+003;3.4216667480e+003;3.4485898438e+003;3.4301281738e+003;3.4260256348e+003;
2.1718750000e+000;3.6128205566e+003;3.4791025391e+003;3.4802563477e+003;3.5060256348e+003;3.4816667480e+003;3.4869230957e+003;3.4971794434e+003;3.4521794434e+003;3.4741025391e+003;3.4907692871e+003;3.4693588867e+003;3.5107692871e+003;3.4815385742e+003;3.4867949219e+003;
2.1796875000e+000;3.6288461914e+003;3.4935898438e+003;3.4952563477e+003;3.5179487305e+003;3.4944870605e+003;3.4953845215e+003;3.5076923828e+003;3.4596154785e+003;3.4769230957e+003;3.4998718262e+003;3.4835898438e+003;3.5246154785e+003;3.4965385742e+003;3.5012819824e+003;
2.1875000000e+000;3.6516667480e+003;3.5170512695e+003;3.5197436523e+003;3.5373076172e+003;3.5155129395e+003;3.5083332520e+003;3.5244870605e+003;3.4782050781e+003;3.4842307129e+003;3.5182050781e+003;3.5108974609e+003;3.5521794434e+003;3.5233332520e+003;3.5294870605e+003;
2.1953125000e+000;3.7147436523e+003;3.5796154785e+003;3.5828205566e+003;3.5943588867e+003;3.5682050781e+003;3.5508974609e+003;3.5789743652e+003;3.5453845215e+003;3.5538461914e+003;3.5835898438e+003;3.5761538086e+003;3.6242307129e+003;3.5867949219e+003;3.5942307129e+003;
2.2031250000e+000;3.7206411133e+003;3.5855129395e+003;3.5903845215e+003;3.5989743652e+003;3.5735898438e+003;3.5542307129e+003;3.5832050781e+003;3.5641025391e+003;3.5744870605e+003;3.5992307129e+003;3.5873076172e+003;3.6352563477e+003;3.5962819824e+003;3.6001281738e+003;
2.2109375000e+000;3.6251281738e+003;3.4916667480e+003;3.4987180176e+003;3.5101281738e+003;3.4811538086e+003;3.4657692871e+003;3.4939743652e+003;3.4925642090e+003;3.5057692871e+003;3.5158974609e+003;3.4994870605e+003;3.5444870605e+003;3.5079487305e+003;3.5080769043e+003;
2.2187500000e+000;3.5952563477e+003;3.4644870605e+003;3.4676923828e+003;3.4852563477e+003;3.4553845215e+003;3.4420512695e+003;3.4697436523e+003;3.4682050781e+003;3.4856411133e+003;3.4903845215e+003;3.4711538086e+003;3.5117949219e+003;3.4819230957e+003;3.4814101563e+003;
2.2265625000e+000;3.5737180176e+003;3.4452563477e+003;3.4417949219e+003;3.4733332520e+003;3.4401281738e+003;3.4414101563e+003;3.4605129395e+003;3.4585898438e+003;3.4900000000e+003;3.4928205566e+003;3.4548718262e+003;3.4855129395e+003;3.4641025391e+003;3.4620512695e+003;
2.2343750000e+000;3.5516667480e+003;3.4215385742e+003;3.4183332520e+003;3.4498718262e+003;3.4164101563e+003;3.4237180176e+003;3.4407692871e+003;3.4365385742e+003;3.4680769043e+003;3.4693588867e+003;3.4298718262e+003;3.4610256348e+003;3.4374357910e+003;3.4350000000e+003;
2.2421875000e+000;3.6042307129e+003;3.4779487305e+003;3.4671794434e+003;3.4973076172e+003;3.4721794434e+003;3.4774357910e+003;3.4947436523e+003;3.4856411133e+003;3.5152563477e+003;3.5155129395e+003;3.4785898438e+003;3.5103845215e+003;3.4861538086e+003;3.4837180176e+003;
2.2500000000e+000;3.6497436523e+003;3.5284614258e+003;3.5142307129e+003;3.5448718262e+003;3.5238461914e+003;3.5261538086e+003;3.5421794434e+003;3.5335898438e+003;3.5634614258e+003;3.5667949219e+003;3.5291025391e+003;3.5602563477e+003;3.5365385742e+003;3.5341025391e+003;
2.2578125000e+000;3.6611538086e+003;3.5470512695e+003;3.5329487305e+003;3.5662819824e+003;3.5466667480e+003;3.5491025391e+003;3.5573076172e+003;3.5448718262e+003;3.5825642090e+003;3.5910256348e+003;3.5500000000e+003;3.5750000000e+003;3.5571794434e+003;3.5491025391e+003;
2.2656250000e+000;3.6723076172e+003;3.5567949219e+003;3.5416667480e+003;3.5739743652e+003;3.5551281738e+003;3.5544870605e+003;3.5620512695e+003;3.5479487305e+003;3.5888461914e+003;3.5976923828e+003;3.5566667480e+003;3.5808974609e+003;3.5643588867e+003;3.5552563477e+003;
2.2734375000e+000;3.6782050781e+003;3.5598718262e+003;3.5444870605e+003;3.5757692871e+003;3.5562819824e+003;3.5533332520e+003;3.5606411133e+003;3.5452563477e+003;3.5875642090e+003;3.5983332520e+003;3.5571794434e+003;3.5835898438e+003;3.5652563477e+003;3.5574357910e+003;
2.2812500000e+000;3.6661538086e+003;3.5443588867e+003;3.5311538086e+003;3.5617949219e+003;3.5393588867e+003;3.5370512695e+003;3.5448718262e+003;3.5253845215e+003;3.5662819824e+003;3.5798718262e+003;3.5407692871e+003;3.5702563477e+003;3.5488461914e+003;3.5433332520e+003;
2.2890625000e+000;3.7553845215e+003;3.6365385742e+003;3.6283332520e+003;3.6471794434e+003;3.6297436523e+003;3.6183332520e+003;3.6361538086e+003;3.5997436523e+003;3.6212819824e+003;3.6587180176e+003;3.6333332520e+003;3.6641025391e+003;3.6417949219e+003;3.6341025391e+003;
2.2968750000e+000;3.7633332520e+003;3.6461538086e+003;3.6405129395e+003;3.6564101563e+003;3.6400000000e+003;3.6261538086e+003;3.6455129395e+003;3.6108974609e+003;3.6267949219e+003;3.6715385742e+003;3.6439743652e+003;3.6791025391e+003;3.6523076172e+003;3.6470512695e+003;
2.3046875000e+000;3.7647436523e+003;3.6485898438e+003;3.6489743652e+003;3.6619230957e+003;3.6479487305e+003;3.6269230957e+003;3.6556411133e+003;3.6203845215e+003;3.6192307129e+003;3.6688461914e+003;3.6466667480e+003;3.6847436523e+003;3.6553845215e+003;3.6537180176e+003;
2.3125000000e+000;3.7694870605e+003;3.6644870605e+003;3.6597436523e+003;3.6707692871e+003;3.6626923828e+003;3.6434614258e+003;3.6657692871e+003;3.6505129395e+003;3.6564101563e+003;3.6934614258e+003;3.6656411133e+003;3.7023076172e+003;3.6720512695e+003;3.6675642090e+003;
2.3203125000e+000;3.7616667480e+003;3.6588461914e+003;3.6521794434e+003;3.6642307129e+003;3.6585898438e+003;3.6379487305e+003;3.6607692871e+003;3.6502563477e+003;3.6620512695e+003;3.6933332520e+003;3.6615385742e+003;3.6965385742e+003;3.6674357910e+003;3.6610256348e+003;
2.3281250000e+000;3.7714101563e+003;3.6675642090e+003;3.6634614258e+003;3.6751281738e+003;3.6733332520e+003;3.6462819824e+003;3.6712819824e+003;3.6783332520e+003;3.7025642090e+003;3.7228205566e+003;3.6801281738e+003;3.7084614258e+003;3.6844870605e+003;3.6729487305e+003;
2.3359375000e+000;3.7317949219e+003;3.6317949219e+003;3.6262819824e+003;3.6438461914e+003;3.6442307129e+003;3.6214101563e+003;3.6394870605e+003;3.6319230957e+003;3.6657692871e+003;3.6903845215e+003;3.6420512695e+003;3.6683332520e+003;3.6485898438e+003;3.6332050781e+003;
2.3437500000e+000;3.7462819824e+003;3.6496154785e+003;3.6403845215e+003;3.6597436523e+003;3.6626923828e+003;3.6396154785e+003;3.6555129395e+003;3.6451281738e+003;3.6816667480e+003;3.7107692871e+003;3.6585898438e+003;3.6811538086e+003;3.6651281738e+003;3.6485898438e+003;
2.3515625000e+000;3.7362819824e+003;3.6458974609e+003;3.6316667480e+003;3.6582050781e+003;3.6597436523e+003;3.6417949219e+003;3.6503845215e+003;3.6362819824e+003;3.6735898438e+003;3.7006411133e+003;3.6471794434e+003;3.6679487305e+003;3.6528205566e+003;3.6335898438e+003;
2.3593750000e+000;3.7675642090e+003;3.6824357910e+003;3.6635898438e+003;3.6908974609e+003;3.6965385742e+003;3.6741025391e+003;3.6814101563e+003;3.6664101563e+003;3.7057692871e+003;3.7315385742e+003;3.6780769043e+003;3.7023076172e+003;3.6860256348e+003;3.6646154785e+003;
2.3671875000e+000;3.8212819824e+003;3.7464101563e+003;3.7234614258e+003;3.7464101563e+003;3.7583332520e+003;3.7325642090e+003;3.7389743652e+003;3.7223076172e+003;3.7619230957e+003;3.7910256348e+003;3.7351281738e+003;3.7680769043e+003;3.7482050781e+003;3.7256411133e+003;
2.3750000000e+000;3.8162819824e+003;3.7414101563e+003;3.7203845215e+003;3.7410256348e+003;3.7525642090e+003;3.7302563477e+003;3.7385898438e+003;3.7173076172e+003;3.7515385742e+003;3.7830769043e+003;3.7288461914e+003;3.7635898438e+003;3.7430769043e+003;3.7217949219e+003;
2.3828125000e+000;3.8171794434e+003;3.7402563477e+003;3.7206411133e+003;3.7396154785e+003;3.7511538086e+003;3.7303845215e+003;3.7433332520e+003;3.7161538086e+003;3.7432050781e+003;3.7771794434e+003;3.7266667480e+003;3.7596154785e+003;3.7403845215e+003;3.7206411133e+003;
2.3906250000e+000;3.8762819824e+003;3.7994870605e+003;3.7780769043e+003;3.7937180176e+003;3.8097436523e+003;3.7812819824e+003;3.8035898438e+003;3.7758974609e+003;3.7932050781e+003;3.8305129395e+003;3.7850000000e+003;3.8132050781e+003;3.7943588867e+003;3.7764101563e+003;
2.3984375000e+000;3.8998718262e+003;3.8257692871e+003;3.8033332520e+003;3.8182050781e+003;3.8347436523e+003;3.8039743652e+003;3.8278205566e+003;3.8029487305e+003;3.8185898438e+003;3.8557692871e+003;3.8114101563e+003;3.8412819824e+003;3.8189743652e+003;3.8019230957e+003;
2.4062500000e+000;3.9150000000e+003;3.8433332520e+003;3.8202563477e+003;3.8352563477e+003;3.8511538086e+003;3.8206411133e+003;3.8452563477e+003;3.8200000000e+003;3.8344870605e+003;3.8711538086e+003;3.8289743652e+003;3.8621794434e+003;3.8365385742e+003;3.8194870605e+003;
2.4140625000e+000;4.0584614258e+003;4.0141025391e+003;3.9880769043e+003;3.9842307129e+003;4.0173076172e+003;3.9687180176e+003;4.0012819824e+003;3.9835898438e+003;3.9853845215e+003;4.0441025391e+003;4.0078205566e+003;4.0347436523e+003;4.0085898438e+003;3.9902563477e+003;
2.4218750000e+000;4.0550000000e+003;4.0169230957e+003;3.9879487305e+003;3.9848718262e+003;4.0189743652e+003;3.9687180176e+003;3.9998718262e+003;3.9824357910e+003;3.9874357910e+003;4.0437180176e+003;4.0082050781e+003;4.0346154785e+003;4.0074357910e+003;3.9902563477e+003;
2.4296875000e+000;4.1451284180e+003;4.1196152344e+003;4.0832050781e+003;4.0794870605e+003;4.1184614258e+003;4.0637180176e+003;4.0910256348e+003;4.0917949219e+003;4.1067949219e+003;4.1646152344e+003;4.1123076172e+003;4.1342309570e+003;4.1185898438e+003;4.0937180176e+003;
2.4375000000e+000;4.0643588867e+003;4.0471794434e+003;4.0137180176e+003;4.0092307129e+003;4.0487180176e+003;4.0017949219e+003;4.0292307129e+003;4.0293588867e+003;4.0541025391e+003;4.1032050781e+003;4.0471794434e+003;4.0608974609e+003;4.0529487305e+003;4.0232050781e+003;
2.4453125000e+000;4.0835898438e+003;4.0710256348e+003;4.0361538086e+003;4.0312819824e+003;4.0739743652e+003;4.0237180176e+003;4.0512819824e+003;4.0493588867e+003;4.0798718262e+003;4.1250000000e+003;4.0683332520e+003;4.0830769043e+003;4.0755129395e+003;4.0450000000e+003;
2.4531250000e+000;4.0857692871e+003;4.0837180176e+003;4.0487180176e+003;4.0443588867e+003;4.0900000000e+003;4.0388461914e+003;4.0564101563e+003;4.0580769043e+003;4.0917949219e+003;4.1355126953e+003;4.0734614258e+003;4.0914101563e+003;4.0801281738e+003;4.0528205566e+003;
2.4609375000e+000;4.0741025391e+003;4.0782050781e+003;4.0352563477e+003;4.0350000000e+003;4.0850000000e+003;4.0392307129e+003;4.0558974609e+003;4.0514101563e+003;4.0869230957e+003;4.1289741211e+003;4.0678205566e+003;4.0856411133e+003;4.0705129395e+003;4.0457692871e+003;
2.4687500000e+000;4.0485898438e+003;4.0526923828e+003;4.0112819824e+003;4.0124357910e+003;4.0598718262e+003;4.0169230957e+003;4.0352563477e+003;4.0265385742e+003;4.0624357910e+003;4.1016665039e+003;4.0421794434e+003;4.0656411133e+003;4.0467949219e+003;4.0244870605e+003;
2.4765625000e+000;4.0273076172e+003;4.0316667480e+003;3.9924357910e+003;3.9946154785e+003;4.0383332520e+003;3.9971794434e+003;4.0171794434e+003;4.0043588867e+003;4.0380769043e+003;4.0746154785e+003;4.0191025391e+003;4.0460256348e+003;4.0265385742e+003;4.0064101563e+003;
2.4843750000e+000;4.0407692871e+003;4.0512819824e+003;4.0119230957e+003;4.0124357910e+003;4.0539743652e+003;4.0106411133e+003;4.0308974609e+003;4.0210256348e+003;4.0456411133e+003;4.0820512695e+003;4.0334614258e+003;4.0561538086e+003;4.0421794434e+003;4.0250000000e+003;
2.4921875000e+000;3.9857692871e+003;4.0025642090e+003;3.9655129395e+003;3.9633332520e+003;4.0051281738e+003;3.9683332520e+003;3.9885898438e+003;3.9761538086e+003;3.9952563477e+003;4.0358974609e+003;3.9866667480e+003;4.0080769043e+003;3.9946154785e+003;3.9769230957e+003;
2.5000000000e+000;4.0178205566e+003;4.0346154785e+003;3.9948718262e+003;3.9941025391e+003;4.0369230957e+003;3.9974357910e+003;4.0212819824e+003;4.0029487305e+003;4.0229487305e+003;4.0642307129e+003;4.0176923828e+003;4.0383332520e+003;4.0283332520e+003;4.0055129395e+003;
2.5078125000e+000;4.0897436523e+003;4.1080771484e+003;4.0647436523e+003;4.0642307129e+003;4.1082050781e+003;4.0624357910e+003;4.0902563477e+003;4.0707692871e+003;4.0915385742e+003;4.1339741211e+003;4.0906411133e+003;4.1085898438e+003;4.1025639648e+003;4.0750000000e+003;
2.5156250000e+000;4.1578203125e+003;4.1834614258e+003;4.1414101563e+003;4.1355126953e+003;4.1764101563e+003;4.1262822266e+003;4.1576923828e+003;4.1488461914e+003;4.1674360352e+003;4.2100000000e+003;4.1692309570e+003;4.1842309570e+003;4.1766665039e+003;4.1510258789e+003;
2.5234375000e+000;4.1151284180e+003;4.1435898438e+003;4.1061538086e+003;4.0971796875e+003;4.1351284180e+003;4.0894870605e+003;4.1200000000e+003;4.1158974609e+003;4.1319228516e+003;4.1743588867e+003;4.1319228516e+003;4.1478203125e+003;4.1373076172e+003;4.1158974609e+003;
2.5312500000e+000;4.0591025391e+003;4.0883332520e+003;4.0544870605e+003;4.0442307129e+003;4.0806411133e+003;4.0398718262e+003;4.0682050781e+003;4.0669230957e+003;4.0806411133e+003;4.1242309570e+003;4.0793588867e+003;4.0957692871e+003;4.0841025391e+003;4.0652563477e+003;
2.5390625000e+000;4.0001281738e+003;4.0148718262e+003;3.9888461914e+003;3.9830769043e+003;4.0057692871e+003;3.9697436523e+003;3.9926923828e+003;3.9875642090e+003;4.0078205566e+003;4.0408974609e+003;4.0115385742e+003;4.0326923828e+003;4.0146154785e+003;3.9958974609e+003;
2.5468750000e+000;4.0267949219e+003;4.0432050781e+003;4.0167949219e+003;4.0080769043e+003;4.0339743652e+003;3.9934614258e+003;4.0173076172e+003;4.0143588867e+003;4.0375642090e+003;4.0723076172e+003;4.0421794434e+003;4.0612819824e+003;4.0455129395e+003;4.0257692871e+003;
2.5546875000e+000;3.9605129395e+003;3.9773076172e+003;3.9570512695e+003;3.9479487305e+003;3.9730769043e+003;3.9378205566e+003;3.9507692871e+003;3.9501281738e+003;3.9815385742e+003;4.0208974609e+003;3.9825642090e+003;4.0008974609e+003;3.9887180176e+003;3.9657692871e+003;
2.5625000000e+000;3.9810256348e+003;3.9958974609e+003;3.9714101563e+003;3.9635898438e+003;3.9934614258e+003;3.9528205566e+003;3.9684614258e+003;3.9591025391e+003;3.9934614258e+003;4.0296154785e+003;3.9946154785e+003;4.0123076172e+003;4.0000000000e+003;3.9770512695e+003;
2.5703125000e+000;3.9724357910e+003;3.9882050781e+003;3.9641025391e+003;3.9566667480e+003;3.9850000000e+003;3.9474357910e+003;3.9615385742e+003;3.9537180176e+003;3.9869230957e+003;4.0262819824e+003;3.9880769043e+003;4.0051281738e+003;3.9921794434e+003;3.9710256348e+003;
2.5781250000e+000;3.9439743652e+003;3.9606411133e+003;3.9351281738e+003;3.9319230957e+003;3.9537180176e+003;3.9225642090e+003;3.9352563477e+003;3.9271794434e+003;3.9535898438e+003;3.9984614258e+003;3.9570512695e+003;3.9733332520e+003;3.9620512695e+003;3.9425642090e+003;
2.5859375000e+000;3.9067949219e+003;3.9164101563e+003;3.8966667480e+003;3.8933332520e+003;3.9132050781e+003;3.8866667480e+003;3.9037180176e+003;3.8930769043e+003;3.9119230957e+003;3.9503845215e+003;3.9187180176e+003;3.9350000000e+003;3.9219230957e+003;3.9026923828e+003;
2.5937500000e+000;3.9125642090e+003;3.9212819824e+003;3.9043588867e+003;3.8991025391e+003;3.9202563477e+003;3.8937180176e+003;3.9123076172e+003;3.8969230957e+003;3.9128205566e+003;3.9514101563e+003;3.9234614258e+003;3.9406411133e+003;3.9261538086e+003;3.9082050781e+003;
2.6015625000e+000;3.9538461914e+003;3.9641025391e+003;3.9479487305e+003;3.9392307129e+003;3.9633332520e+003;3.9324357910e+003;3.9532050781e+003;3.9366667480e+003;3.9500000000e+003;3.9916667480e+003;3.9642307129e+003;3.9839743652e+003;3.9678205566e+003;3.9516667480e+003;
2.6093750000e+000;4.0053845215e+003;4.0178205566e+003;4.0025642090e+003;3.9884614258e+003;4.0134614258e+003;3.9771794434e+003;3.9996154785e+003;3.9905129395e+003;3.9996154785e+003;4.0473076172e+003;4.0164101563e+003;4.0446154785e+003;4.0241025391e+003;4.0112819824e+003;
2.6171875000e+000;3.9598718262e+003;3.9717949219e+003;3.9580769043e+003;3.9438461914e+003;3.9666667480e+003;3.9347436523e+003;3.9584614258e+003;3.9417949219e+003;3.9487180176e+003;3.9898718262e+003;3.9717949219e+003;3.9955129395e+003;3.9797436523e+003;3.9632050781e+003;
2.6250000000e+000;3.9806411133e+003;3.9966667480e+003;3.9828205566e+003;3.9655129395e+003;3.9884614258e+003;3.9555129395e+003;3.9785898438e+003;3.9635898438e+003;3.9712819824e+003;4.0123076172e+003;3.9946154785e+003;4.0178205566e+003;4.0011538086e+003;3.9857692871e+003;
2.6328125000e+000;3.9869230957e+003;4.0055129395e+003;3.9930769043e+003;3.9730769043e+003;3.9946154785e+003;3.9611538086e+003;3.9825642090e+003;3.9717949219e+003;3.9803845215e+003;4.0220512695e+003;4.0017949219e+003;4.0280769043e+003;4.0071794434e+003;3.9951281738e+003;
2.6406250000e+000;3.9720512695e+003;3.9898718262e+003;3.9789743652e+003;3.9585898438e+003;3.9785898438e+003;3.9446154785e+003;3.9644870605e+003;3.9565385742e+003;3.9665385742e+003;4.0084614258e+003;3.9857692871e+003;4.0156411133e+003;3.9901281738e+003;3.9814101563e+003;
2.6484375000e+000;3.9596154785e+003;3.9743588867e+003;3.9632050781e+003;3.9442307129e+003;3.9650000000e+003;3.9288461914e+003;3.9483332520e+003;3.9403845215e+003;3.9530769043e+003;3.9946154785e+003;3.9712819824e+003;4.0016667480e+003;3.9743588867e+003;3.9669230957e+003;
2.6562500000e+000;3.9529487305e+003;3.9673076172e+003;3.9553845215e+003;3.9417949219e+003;3.9628205566e+003;3.9278205566e+003;3.9419230957e+003;3.9448718262e+003;3.9653845215e+003;4.0021794434e+003;3.9711538086e+003;4.0005129395e+003;3.9711538086e+003;3.9576923828e+003;
2.6640625000e+000;3.9421794434e+003;3.9558974609e+003;3.9412819824e+003;3.9317949219e+003;3.9553845215e+003;3.9262819824e+003;3.9375642090e+003;3.9374357910e+003;3.9674357910e+003;3.9925642090e+003;3.9580769043e+003;3.9832050781e+003;3.9611538086e+003;3.9516667480e+003;
2.6718750000e+000;3.9396154785e+003;3.9546154785e+003;3.9382050781e+003;3.9287180176e+003;3.9534614258e+003;3.9278205566e+003;3.9376923828e+003;3.9369230957e+003;3.9674357910e+003;3.9923076172e+003;3.9570512695e+003;3.9796154785e+003;3.9588461914e+003;3.9501281738e+003;
2.6796875000e+000;3.9192307129e+003;3.9316667480e+003;3.9105129395e+003;3.9117949219e+003;3.9319230957e+003;3.9138461914e+003;3.9253845215e+003;3.9147436523e+003;3.9423076172e+003;3.9657692871e+003;3.9288461914e+003;3.9541025391e+003;3.9339743652e+003;3.9164101563e+003;
2.6875000000e+000;3.9297436523e+003;3.9421794434e+003;3.9228205566e+003;3.9262819824e+003;3.9501281738e+003;3.9297436523e+003;3.9420512695e+003;3.9300000000e+003;3.9616667480e+003;3.9821794434e+003;3.9444870605e+003;3.9691025391e+003;3.9466667480e+003;3.9326923828e+003;
2.6953125000e+000;3.9215385742e+003;3.9358974609e+003;3.9162819824e+003;3.9187180176e+003;3.9423076172e+003;3.9238461914e+003;3.9367949219e+003;3.9203845215e+003;3.9489743652e+003;3.9715385742e+003;3.9358974609e+003;3.9606411133e+003;3.9380769043e+003;3.9264101563e+003;
2.7031250000e+000;3.9997436523e+003;4.0166667480e+003;3.9911538086e+003;3.9928205566e+003;4.0175642090e+003;3.9900000000e+003;4.0053845215e+003;3.9921794434e+003;4.0116667480e+003;4.0476923828e+003;4.0137180176e+003;4.0338461914e+003;4.0192307129e+003;4.0014101563e+003;
2.7109375000e+000;3.9841025391e+003;4.0006411133e+003;3.9765385742e+003;3.9800000000e+003;4.0032050781e+003;3.9751281738e+003;3.9903845215e+003;3.9783332520e+003;3.9957692871e+003;4.0314101563e+003;4.0001281738e+003;4.0201281738e+003;4.0041025391e+003;3.9880769043e+003;
2.7187500000e+000;3.9516667480e+003;3.9694870605e+003;3.9455129395e+003;3.9525642090e+003;3.9746154785e+003;3.9465385742e+003;3.9650000000e+003;3.9447436523e+003;3.9570512695e+003;3.9906411133e+003;3.9666667480e+003;3.9878205566e+003;3.9676923828e+003;3.9573076172e+003;
2.7265625000e+000;3.9685898438e+003;3.9876923828e+003;3.9621794434e+003;3.9688461914e+003;3.9914101563e+003;3.9600000000e+003;3.9812819824e+003;3.9589743652e+003;3.9697436523e+003;4.0053845215e+003;3.9817949219e+003;4.0034614258e+003;3.9817949219e+003;3.9716667480e+003;
2.7343750000e+000;3.9925642090e+003;4.0115385742e+003;3.9888461914e+003;3.9876923828e+003;4.0043588867e+003;3.9632050781e+003;3.9839743652e+003;3.9715385742e+003;3.9860256348e+003;4.0285898438e+003;4.0010256348e+003;4.0235898438e+003;3.9987180176e+003;3.9848718262e+003;
2.7421875000e+000;4.0042307129e+003;4.0234614258e+003;4.0010256348e+003;3.9988461914e+003;4.0141025391e+003;3.9680769043e+003;3.9885898438e+003;3.9798718262e+003;3.9958974609e+003;4.0402563477e+003;4.0120512695e+003;4.0338461914e+003;4.0102563477e+003;3.9957692871e+003;
2.7500000000e+000;4.0176923828e+003;4.0376923828e+003;4.0151281738e+003;4.0134614258e+003;4.0276923828e+003;3.9776923828e+003;3.9980769043e+003;3.9937180176e+003;4.0105129395e+003;4.0565385742e+003;4.0269230957e+003;4.0485898438e+003;4.0257692871e+003;4.0116667480e+003;
2.7578125000e+000;4.0121794434e+003;4.0325642090e+003;4.0102563477e+003;4.0102563477e+003;4.0226923828e+003;3.9734614258e+003;3.9928205566e+003;3.9912819824e+003;4.0091025391e+003;4.0553845215e+003;4.0242307129e+003;4.0467949219e+003;4.0229487305e+003;4.0105129395e+003;
2.7656250000e+000;4.0437180176e+003;4.0670512695e+003;4.0374357910e+003;4.0389743652e+003;4.0574357910e+003;4.0110256348e+003;4.0305129395e+003;4.0253845215e+003;4.0569230957e+003;4.0916667480e+003;4.0637180176e+003;4.0753845215e+003;4.0632050781e+003;4.0411538086e+003;
2.7734375000e+000;4.0843588867e+003;4.1120512695e+003;4.0815385742e+003;4.0810256348e+003;4.1016665039e+003;4.0520512695e+003;4.0714101563e+003;4.0717949219e+003;4.1032050781e+003;4.1391025391e+003;4.1084614258e+003;4.1170512695e+003;4.1067949219e+003;4.0817949219e+003;
2.7812500000e+000;4.0910256348e+003;4.1278203125e+003;4.0960258789e+003;4.0957692871e+003;4.1232050781e+003;4.0808974609e+003;4.0966665039e+003;4.0937180176e+003;4.1234614258e+003;4.1561538086e+003;4.1223076172e+003;4.1321796875e+003;4.1188461914e+003;4.0957692871e+003;
2.7890625000e+000;4.0811538086e+003;4.1224360352e+003;4.0880769043e+003;4.0862819824e+003;4.1197436523e+003;4.0838461914e+003;4.0962822266e+003;4.0966665039e+003;4.1256411133e+003;4.1525639648e+003;4.1162822266e+003;4.1285898438e+003;4.1128203125e+003;4.0960258789e+003;
2.7968750000e+000;4.0303845215e+003;4.0700000000e+003;4.0394870605e+003;4.0403845215e+003;4.0680769043e+003;4.0380769043e+003;4.0508974609e+003;4.0492307129e+003;4.0764101563e+003;4.1012822266e+003;4.0642307129e+003;4.0776923828e+003;4.0610256348e+003;4.0450000000e+003;
2.8046875000e+000;4.0337180176e+003;4.0669230957e+003;4.0396154785e+003;4.0406411133e+003;4.0702563477e+003;4.0442307129e+003;4.0630769043e+003;4.0546154785e+003;4.0805129395e+003;4.1019228516e+003;4.0651281738e+003;4.0774357910e+003;4.0660256348e+003;4.0448718262e+003;
2.8125000000e+000;4.1074360352e+003;4.1410258789e+003;4.1155126953e+003;4.1083334961e+003;4.1466665039e+003;4.1103847656e+003;4.1332050781e+003;4.1197436523e+003;4.1441025391e+003;4.1702563477e+003;4.1333334961e+003;4.1502563477e+003;4.1348715820e+003;4.1150000000e+003;
2.8203125000e+000;4.1582050781e+003;4.1965385742e+003;4.1671796875e+003;4.1596152344e+003;4.1989741211e+003;4.1538461914e+003;4.1792309570e+003;4.1661538086e+003;4.1889741211e+003;4.2220512695e+003;4.1844873047e+003;4.1997436523e+003;4.1869228516e+003;4.1673076172e+003;
2.8281250000e+000;4.1528203125e+003;4.1974360352e+003;4.1711538086e+003;4.1600000000e+003;4.1882050781e+003;4.1415385742e+003;4.1602563477e+003;4.1506411133e+003;4.1729487305e+003;4.2224360352e+003;4.1869228516e+003;4.2033334961e+003;4.1885898438e+003;4.1753847656e+003;
2.8359375000e+000;4.1175639648e+003;4.1625639648e+003;4.1391025391e+003;4.1273076172e+003;4.1516665039e+003;4.1052563477e+003;4.1216665039e+003;4.1083334961e+003;4.1334614258e+003;4.1821796875e+003;4.1517949219e+003;4.1706411133e+003;4.1535898438e+003;4.1429487305e+003;
2.8437500000e+000;4.0743588867e+003;4.1202563477e+003;4.0953845215e+003;4.0862819824e+003;4.1088461914e+003;4.0557692871e+003;4.0725642090e+003;4.0608974609e+003;4.0882050781e+003;4.1341025391e+003;4.1098715820e+003;4.1311538086e+003;4.1114101563e+003;4.1061538086e+003;
2.8515625000e+000;4.0374357910e+003;4.0811538086e+003;4.0565385742e+003;4.0498718262e+003;4.0715385742e+003;4.0192307129e+003;4.0374357910e+003;4.0284614258e+003;4.0530769043e+003;4.0970512695e+003;4.0733332520e+003;4.0946154785e+003;4.0735898438e+003;4.0703845215e+003;
2.8593750000e+000;4.0524357910e+003;4.0925642090e+003;4.0692307129e+003;4.0614101563e+003;4.0887180176e+003;4.0408974609e+003;4.0662819824e+003;4.0514101563e+003;4.0711538086e+003;4.1088461914e+003;4.0842307129e+003;4.1006411133e+003;4.0815385742e+003;4.0724357910e+003;
2.8671875000e+000;4.1028203125e+003;4.1457690430e+003;4.1201284180e+003;4.1115385742e+003;4.1406411133e+003;4.0910256348e+003;4.1157690430e+003;4.1058974609e+003;4.1283334961e+003;4.1655126953e+003;4.1370512695e+003;4.1532050781e+003;4.1341025391e+003;4.1226923828e+003;
2.8750000000e+000;4.1182050781e+003;4.1638461914e+003;4.1357690430e+003;4.1284614258e+003;4.1567949219e+003;4.1075639648e+003;4.1294873047e+003;4.1276923828e+003;4.1525639648e+003;4.1885898438e+003;4.1558974609e+003;4.1728203125e+003;4.1530771484e+003;4.1412822266e+003;
2.8828125000e+000;4.0983334961e+003;4.1462822266e+003;4.1153847656e+003;4.1105126953e+003;4.1371796875e+003;4.0908974609e+003;4.1101284180e+003;4.1135898438e+003;4.1400000000e+003;4.1734614258e+003;4.1384614258e+003;4.1546152344e+003;4.1360258789e+003;4.1243588867e+003;
2.8906250000e+000;4.1337177734e+003;4.1887177734e+003;4.1569228516e+003;4.1434614258e+003;4.1794873047e+003;4.1378203125e+003;4.1585898438e+003;4.1650000000e+003;4.1897436523e+003;4.2205126953e+003;4.1835898438e+003;4.1867949219e+003;4.1807690430e+003;4.1643588867e+003;
2.8984375000e+000;4.1196152344e+003;4.1752563477e+003;4.1482050781e+003;4.1301284180e+003;4.1702563477e+003;4.1261538086e+003;4.1469228516e+003;4.1512822266e+003;4.1783334961e+003;4.2074360352e+003;4.1726923828e+003;4.1803847656e+003;4.1678203125e+003;4.1562822266e+003;
2.9062500000e+000;4.0979487305e+003;4.1571796875e+003;4.1311538086e+003;4.1129487305e+003;4.1511538086e+003;4.1107690430e+003;4.1298715820e+003;4.1307690430e+003;4.1571796875e+003;4.1883334961e+003;4.1523076172e+003;4.1594873047e+003;4.1478203125e+003;4.1356411133e+003;
2.9140625000e+000;4.0255129395e+003;4.0924357910e+003;4.0666667480e+003;4.0529487305e+003;4.0848718262e+003;4.0551281738e+003;4.0715385742e+003;4.0583332520e+003;4.0806411133e+003;4.1115385742e+003;4.0793588867e+003;4.0888461914e+003;4.0773076172e+003;4.0665385742e+003;
2.9218750000e+000;3.9930769043e+003;4.0562819824e+003;4.0298718262e+003;4.0200000000e+003;4.0521794434e+003;4.0170512695e+003;4.0317949219e+003;4.0183332520e+003;4.0379487305e+003;4.0712819824e+003;4.0467949219e+003;4.0588461914e+003;4.0380769043e+003;4.0335898438e+003;
2.9296875000e+000;3.9815385742e+003;4.0407692871e+003;4.0158974609e+003;4.0079487305e+003;4.0347436523e+003;4.0003845215e+003;4.0184614258e+003;4.0020512695e+003;4.0194870605e+003;4.0528205566e+003;4.0316667480e+003;4.0433332520e+003;4.0242307129e+003;4.0180769043e+003;
2.9375000000e+000;4.0457692871e+003;4.1047436523e+003;4.0758974609e+003;4.0689743652e+003;4.0928205566e+003;4.0517949219e+003;4.0787180176e+003;4.0596154785e+003;4.0750000000e+003;4.1107690430e+003;4.0928205566e+003;4.1035898438e+003;4.0882050781e+003;4.0793588867e+003;
2.9453125000e+000;4.0752563477e+003;4.1364101563e+003;4.1070512695e+003;4.0983334961e+003;4.1232050781e+003;4.0788461914e+003;4.1066665039e+003;4.0910256348e+003;4.1062822266e+003;4.1444873047e+003;4.1255126953e+003;4.1369228516e+003;4.1200000000e+003;4.1112822266e+003;
2.9531250000e+000;4.0815385742e+003;4.1446152344e+003;4.1156411133e+003;4.1073076172e+003;4.1312822266e+003;4.0800000000e+003;4.1066665039e+003;4.1007690430e+003;4.1150000000e+003;4.1573076172e+003;4.1385898438e+003;4.1453847656e+003;4.1324360352e+003;4.1160258789e+003;
2.9609375000e+000;4.1038461914e+003;4.1683334961e+003;4.1370512695e+003;4.1293588867e+003;4.1529487305e+003;4.0971796875e+003;4.1264101563e+003;4.1235898438e+003;4.1378203125e+003;4.1796152344e+003;4.1603847656e+003;4.1652563477e+003;4.1558974609e+003;4.1373076172e+003;
2.9687500000e+000;4.1400000000e+003;4.2110258789e+003;4.1783334961e+003;4.1687177734e+003;4.1956411133e+003;4.1366665039e+003;4.1692309570e+003;4.1664101563e+003;4.1796152344e+003;4.2167949219e+003;4.1928203125e+003;4.2039741211e+003;4.1902563477e+003;4.1760258789e+003;
2.9765625000e+000;4.1719228516e+003;4.2474360352e+003;4.2125639648e+003;4.2026923828e+003;4.2360258789e+003;4.1753847656e+003;4.2076923828e+003;4.2019228516e+003;4.2142309570e+003;4.2498715820e+003;4.2241025391e+003;4.2382050781e+003;4.2215385742e+003;4.2087177734e+003;
2.9843750000e+000;4.3016665039e+003;4.3907690430e+003;4.3450000000e+003;4.3361538086e+003;4.3889741211e+003;4.3226923828e+003;4.3480771484e+003;4.3516665039e+003;4.3682050781e+003;4.4071796875e+003;4.3752563477e+003;4.3762822266e+003;4.3712822266e+003;4.3456411133e+003;
2.9921875000e+000;4.2821796875e+003;4.3733334961e+003;4.3296152344e+003;4.3184614258e+003;4.3719228516e+003;4.3105126953e+003;4.3324360352e+003;4.3388461914e+003;4.3573076172e+003;4.3935898438e+003;4.3602563477e+003;4.3598715820e+003;4.3570512695e+003;4.3288461914e+003;
3.0000000000e+000;4.2626923828e+003;4.3556411133e+003;4.3144873047e+003;4.2998715820e+003;4.3547436523e+003;4.2964101563e+003;4.3173076172e+003;4.3221796875e+003;4.3410258789e+003;4.3730771484e+003;4.3396152344e+003;4.3415385742e+003;4.3383334961e+003;4.3098715820e+003;
3.0078125000e+000;4.2806411133e+003;4.3762822266e+003;4.3357690430e+003;4.3178203125e+003;4.3760258789e+003;4.3158974609e+003;4.3385898438e+003;4.3405126953e+003;4.3585898438e+003;4.3882050781e+003;4.3543588867e+003;4.3597436523e+003;4.3546152344e+003;4.3275639648e+003;
3.0156250000e+000;4.3612822266e+003;4.4669228516e+003;4.4226923828e+003;4.4091025391e+003;4.4634614258e+003;4.4071796875e+003;4.4312822266e+003;4.4285898438e+003;4.4500000000e+003;4.4848715820e+003;4.4469228516e+003;4.4500000000e+003;4.4430771484e+003;4.4207690430e+003;
3.0234375000e+000;4.3614101563e+003;4.4735898438e+003;4.4353847656e+003;4.4117949219e+003;4.4761538086e+003;4.4100000000e+003;4.4350000000e+003;4.4389741211e+003;4.4555126953e+003;4.4932050781e+003;4.4544873047e+003;4.4616665039e+003;4.4497436523e+003;4.4271796875e+003;
3.0312500000e+000;4.3417949219e+003;4.4542309570e+003;4.4184614258e+003;4.3966665039e+003;4.4585898438e+003;4.3953847656e+003;4.4216665039e+003;4.4206411133e+003;4.4356411133e+003;4.4737177734e+003;4.4375639648e+003;4.4437177734e+003;4.4324360352e+003;4.4103847656e+003;
3.0390625000e+000;4.3676923828e+003;4.4835898438e+003;4.4460258789e+003;4.4228203125e+003;4.4862822266e+003;4.4239741211e+003;4.4532050781e+003;4.4441025391e+003;4.4598715820e+003;4.4971796875e+003;4.4661538086e+003;4.4678203125e+003;4.4624360352e+003;4.4389741211e+003;
3.0468750000e+000;4.3829487305e+003;4.5083334961e+003;4.4716665039e+003;4.4393588867e+003;4.5039741211e+003;4.4316665039e+003;4.4628203125e+003;4.4626923828e+003;4.4726923828e+003;4.5151284180e+003;4.4828203125e+003;4.4950000000e+003;4.4823076172e+003;4.4582050781e+003;
3.0546875000e+000;4.4085898438e+003;4.5355126953e+003;4.4973076172e+003;4.4629487305e+003;4.5279487305e+003;4.4528203125e+003;4.4871796875e+003;4.4865385742e+003;4.4984614258e+003;4.5410258789e+003;4.5103847656e+003;4.5215385742e+003;4.5105126953e+003;4.4880771484e+003;
3.0625000000e+000;4.4229487305e+003;4.5517949219e+003;4.5133334961e+003;4.4756411133e+003;4.5383334961e+003;4.4665385742e+003;4.5007690430e+003;4.5042309570e+003;4.5176923828e+003;4.5587177734e+003;4.5288461914e+003;4.5396152344e+003;4.5257690430e+003;4.5101284180e+003;
3.0703125000e+000;4.4075639648e+003;4.5348715820e+003;4.4985898438e+003;4.4615385742e+003;4.5230771484e+003;4.4534614258e+003;4.4857690430e+003;4.4907690430e+003;4.5016665039e+003;4.5433334961e+003;4.5130771484e+003;4.5233334961e+003;4.5094873047e+003;4.4928203125e+003;
3.0781250000e+000;4.4598715820e+003;4.5865385742e+003;4.5511538086e+003;4.5173076172e+003;4.5865385742e+003;4.5052563477e+003;4.5376923828e+003;4.5489741211e+003;4.5587177734e+003;4.6056411133e+003;4.5728203125e+003;4.5737177734e+003;4.5716665039e+003;4.5424360352e+003;
3.0859375000e+000;4.4591025391e+003;4.5889741211e+003;4.5534614258e+003;4.5193588867e+003;4.5878203125e+003;4.5069228516e+003;4.5392309570e+003;4.5521796875e+003;4.5647436523e+003;4.6082050781e+003;4.5762822266e+003;4.5779487305e+003;4.5733334961e+003;4.5471796875e+003;
3.0937500000e+000;4.4319228516e+003;4.5665385742e+003;4.5303847656e+003;4.4950000000e+003;4.5600000000e+003;4.4883334961e+003;4.5175639648e+003;4.5301284180e+003;4.5439741211e+003;4.5784614258e+003;4.5502563477e+003;4.5551284180e+003;4.5452563477e+003;4.5257690430e+003;
3.1015625000e+000;4.4374360352e+003;4.5729487305e+003;4.5366665039e+003;4.5001284180e+003;4.5665385742e+003;4.4979487305e+003;4.5251284180e+003;4.5401284180e+003;4.5525639648e+003;4.5870512695e+003;4.5567949219e+003;4.5614101563e+003;4.5532050781e+003;4.5324360352e+003;
3.1093750000e+000;4.4353847656e+003;4.5710258789e+003;4.5365385742e+003;4.4993588867e+003;4.5673076172e+003;4.5017949219e+003;4.5266665039e+003;4.5456411133e+003;4.5569228516e+003;4.5930771484e+003;4.5576923828e+003;4.5628203125e+003;4.5558974609e+003;4.5326923828e+003;
3.1171875000e+000;4.3589741211e+003;4.4946152344e+003;4.4638461914e+003;4.4310258789e+003;4.4985898438e+003;4.4424360352e+003;4.4642309570e+003;4.4810258789e+003;4.4935898438e+003;4.5264101563e+003;4.4853847656e+003;4.4933334961e+003;4.4811538086e+003;4.4598715820e+003;
3.1250000000e+000;4.3303847656e+003;4.4671796875e+003;4.4332050781e+003;4.4051284180e+003;4.4733334961e+003;4.4197436523e+003;4.4416665039e+003;4.4524360352e+003;4.4664101563e+003;4.4939741211e+003;4.4561538086e+003;4.4615385742e+003;4.4484614258e+003;4.4294873047e+003;
3.1328125000e+000;4.3328203125e+003;4.4719228516e+003;4.4324360352e+003;4.4084614258e+003;4.4787177734e+003;4.4256411133e+003;4.4483334961e+003;4.4547436523e+003;4.4688461914e+003;4.4924360352e+003;4.4580771484e+003;4.4584614258e+003;4.4484614258e+003;4.4293588867e+003;
3.1406250000e+000;4.2539741211e+003;4.3855126953e+003;4.3526923828e+003;4.3329487305e+003;4.3966665039e+003;4.3567949219e+003;4.3819228516e+003;4.3852563477e+003;4.3879487305e+003;4.4098715820e+003;4.3752563477e+003;4.3791025391e+003;4.3689741211e+003;4.3484614258e+003;
3.1484375000e+000;4.2615385742e+003;4.3905126953e+003;4.3580771484e+003;4.3374360352e+003;4.4012822266e+003;4.3579487305e+003;4.3825639648e+003;4.3907690430e+003;4.3939741211e+003;4.4147436523e+003;4.3815385742e+003;4.3869228516e+003;4.3739741211e+003;4.3575639648e+003;
3.1562500000e+000;4.2288461914e+003;4.3523076172e+003;4.3226923828e+003;4.3041025391e+003;4.3562822266e+003;4.3150000000e+003;4.3403847656e+003;4.3507690430e+003;4.3584614258e+003;4.3742309570e+003;4.3483334961e+003;4.3557690430e+003;4.3448715820e+003;4.3246152344e+003;
3.1640625000e+000;4.2447436523e+003;4.3684614258e+003;4.3384614258e+003;4.3200000000e+003;4.3703847656e+003;4.3262822266e+003;4.3528203125e+003;4.3619228516e+003;4.3708974609e+003;4.3875639648e+003;4.3644873047e+003;4.3703847656e+003;4.3616665039e+003;4.3376923828e+003;
3.1718750000e+000;4.2907690430e+003;4.4114101563e+003;4.3839741211e+003;4.3621796875e+003;4.4114101563e+003;4.3585898438e+003;4.3834614258e+003;4.3997436523e+003;4.4053847656e+003;4.4328203125e+003;4.4096152344e+003;4.4133334961e+003;4.4026923828e+003;4.3801284180e+003;
3.1796875000e+000;4.3447436523e+003;4.4612822266e+003;4.4266665039e+003;4.4014101563e+003;4.4478203125e+003;4.3896152344e+003;4.4164101563e+003;4.4370512695e+003;4.4441025391e+003;4.4765385742e+003;4.4493588867e+003;4.4589741211e+003;4.4473076172e+003;4.4262822266e+003;
3.1875000000e+000;4.3493588867e+003;4.4696152344e+003;4.4342309570e+003;4.4067949219e+003;4.4534614258e+003;4.3969228516e+003;4.4202563477e+003;4.4447436523e+003;4.4539741211e+003;4.4860258789e+003;4.4567949219e+003;4.4670512695e+003;4.4551284180e+003;4.4315385742e+003;
3.1953125000e+000;4.3271796875e+003;4.4473076172e+003;4.4185898438e+003;4.3879487305e+003;4.4352563477e+003;4.3824360352e+003;4.4008974609e+003;4.4247436523e+003;4.4308974609e+003;4.4624360352e+003;4.4337177734e+003;4.4437177734e+003;4.4310258789e+003;4.4085898438e+003;
3.2031250000e+000;4.3447436523e+003;4.4624360352e+003;4.4350000000e+003;4.4046152344e+003;4.4535898438e+003;4.3989741211e+003;4.4194873047e+003;4.4403847656e+003;4.4437177734e+003;4.4752563477e+003;4.4461538086e+003;4.4566665039e+003;4.4442309570e+003;4.4251284180e+003;
3.2109375000e+000;4.3356411133e+003;4.4533334961e+003;4.4247436523e+003;4.3966665039e+003;4.4432050781e+003;4.3987177734e+003;4.4180771484e+003;4.4330771484e+003;4.4421796875e+003;4.4633334961e+003;4.4303847656e+003;4.4451284180e+003;4.4303847656e+003;4.4183334961e+003;
3.2187500000e+000;4.2978203125e+003;4.4167949219e+003;4.3903847656e+003;4.3608974609e+003;4.4083334961e+003;4.3703847656e+003;4.3862822266e+003;4.3964101563e+003;4.4084614258e+003;4.4235898438e+003;4.3941025391e+003;4.4069228516e+003;4.3930771484e+003;4.3791025391e+003;
3.2265625000e+000;4.2928203125e+003;4.4128203125e+003;4.3888461914e+003;4.3579487305e+003;4.4123076172e+003;4.3769228516e+003;4.3907690430e+003;4.3970512695e+003;4.4051284180e+003;4.4206411133e+003;4.3942309570e+003;4.3997436523e+003;4.3891025391e+003;4.3730771484e+003;
3.2343750000e+000;4.2958974609e+003;4.4152563477e+003;4.3905126953e+003;4.3632050781e+003;4.4171796875e+003;4.3834614258e+003;4.3974360352e+003;4.4055126953e+003;4.4083334961e+003;4.4275639648e+003;4.3985898438e+003;4.4044873047e+003;4.3929487305e+003;4.3792309570e+003;
3.2421875000e+000;4.2579487305e+003;4.3785898438e+003;4.3466665039e+003;4.3315385742e+003;4.3816665039e+003;4.3535898438e+003;4.3688461914e+003;4.3737177734e+003;4.3728203125e+003;4.3889741211e+003;4.3605126953e+003;4.3752563477e+003;4.3601284180e+003;4.3498715820e+003;
3.2500000000e+000;4.2610258789e+003;4.3826923828e+003;4.3503847656e+003;4.3334614258e+003;4.3860258789e+003;4.3553847656e+003;4.3693588867e+003;4.3767949219e+003;4.3771796875e+003;4.3929487305e+003;4.3666665039e+003;4.3800000000e+003;4.3661538086e+003;4.3534614258e+003;
3.2578125000e+000;4.2452563477e+003;4.3653847656e+003;4.3367949219e+003;4.3169228516e+003;4.3689741211e+003;4.3382050781e+003;4.3489741211e+003;4.3614101563e+003;4.3607690430e+003;4.3783334961e+003;4.3535898438e+003;4.3643588867e+003;4.3521796875e+003;4.3376923828e+003;
3.2656250000e+000;4.2029487305e+003;4.3188461914e+003;4.2966665039e+003;4.2751284180e+003;4.3225639648e+003;4.2953847656e+003;4.3021796875e+003;4.3176923828e+003;4.3137177734e+003;4.3338461914e+003;4.3108974609e+003;4.3196152344e+003;4.3098715820e+003;4.2947436523e+003;
3.2734375000e+000;4.1437177734e+003;4.2488461914e+003;4.2366665039e+003;4.2143588867e+003;4.2478203125e+003;4.2232050781e+003;4.2301284180e+003;4.2379487305e+003;4.2370512695e+003;4.2615385742e+003;4.2476923828e+003;4.2539741211e+003;4.2460258789e+003;4.2329487305e+003;
3.2812500000e+000;4.1210258789e+003;4.2228203125e+003;4.2125639648e+003;4.1926923828e+003;4.2214101563e+003;4.1970512695e+003;4.2033334961e+003;4.2120512695e+003;4.2143588867e+003;4.2375639648e+003;4.2248715820e+003;4.2334614258e+003;4.2178203125e+003;4.2091025391e+003;
3.2890625000e+000;4.0982050781e+003;4.1880771484e+003;4.1771796875e+003;4.1643588867e+003;4.1833334961e+003;4.1530771484e+003;4.1596152344e+003;4.1674360352e+003;4.1766665039e+003;4.1987177734e+003;4.1892309570e+003;4.2012822266e+003;4.1819228516e+003;4.1753847656e+003;
3.2968750000e+000;4.0373076172e+003;4.1211538086e+003;4.1139741211e+003;4.1007690430e+003;4.1155126953e+003;4.0903845215e+003;4.0923076172e+003;4.1057690430e+003;4.1162822266e+003;4.1341025391e+003;4.1294873047e+003;4.1439741211e+003;4.1255126953e+003;4.1180771484e+003;
3.3046875000e+000;4.0276923828e+003;4.1088461914e+003;4.1007690430e+003;4.0905129395e+003;4.1035898438e+003;4.0812819824e+003;4.0835898438e+003;4.0944870605e+003;4.1052563477e+003;4.1207690430e+003;4.1188461914e+003;4.1311538086e+003;4.1133334961e+003;4.1076923828e+003;
3.3125000000e+000;4.0976923828e+003;4.1676923828e+003;4.1656411133e+003;4.1535898438e+003;4.1732050781e+003;4.1551284180e+003;4.1574360352e+003;4.1666665039e+003;4.1801284180e+003;4.1873076172e+003;4.1797436523e+003;4.1887177734e+003;4.1726923828e+003;4.1693588867e+003;
3.3203125000e+000;4.1438461914e+003;4.2211538086e+003;4.2074360352e+003;4.2007690430e+003;4.2330771484e+003;4.2182050781e+003;4.2241025391e+003;4.2251284180e+003;4.2326923828e+003;4.2379487305e+003;4.2234614258e+003;4.2264101563e+003;4.2198715820e+003;4.2070512695e+003;
3.3281250000e+000;4.1611538086e+003;4.2430771484e+003;4.2238461914e+003;4.2200000000e+003;4.2551284180e+003;4.2407690430e+003;4.2457690430e+003;4.2500000000e+003;4.2544873047e+003;4.2629487305e+003;4.2453847656e+003;4.2461538086e+003;4.2426923828e+003;4.2270512695e+003;
3.3359375000e+000;4.1429487305e+003;4.2153847656e+003;4.2006411133e+003;4.1948715820e+003;4.2310258789e+003;4.2203847656e+003;4.2253847656e+003;4.2282050781e+003;4.2303847656e+003;4.2365385742e+003;4.2134614258e+003;4.2192309570e+003;4.2183334961e+003;4.2035898438e+003;
3.3437500000e+000;4.1719228516e+003;4.2426923828e+003;4.2264101563e+003;4.2185898438e+003;4.2567949219e+003;4.2414101563e+003;4.2488461914e+003;4.2507690430e+003;4.2528203125e+003;4.2600000000e+003;4.2355126953e+003;4.2423076172e+003;4.2428203125e+003;4.2273076172e+003;
3.3515625000e+000;4.2032050781e+003;4.2797436523e+003;4.2611538086e+003;4.2510258789e+003;4.2897436523e+003;4.2687177734e+003;4.2753847656e+003;4.2811538086e+003;4.2823076172e+003;4.2933334961e+003;4.2714101563e+003;4.2800000000e+003;4.2748715820e+003;4.2583334961e+003;
3.3593750000e+000;4.1929487305e+003;4.2717949219e+003;4.2547436523e+003;4.2438461914e+003;4.2817949219e+003;4.2608974609e+003;4.2652563477e+003;4.2705126953e+003;4.2719228516e+003;4.2824360352e+003;4.2656411133e+003;4.2757690430e+003;4.2650000000e+003;4.2491025391e+003;
3.3671875000e+000;4.2433334961e+003;4.3243588867e+003;4.3046152344e+003;4.2892309570e+003;4.3253847656e+003;4.2971796875e+003;4.3019228516e+003;4.3074360352e+003;4.3103847656e+003;4.3258974609e+003;4.3151284180e+003;4.3237177734e+003;4.3120512695e+003;4.2996152344e+003;
3.3750000000e+000;4.2479487305e+003;4.3293588867e+003;4.3084614258e+003;4.2934614258e+003;4.3244873047e+003;4.2961538086e+003;4.3014101563e+003;4.3082050781e+003;4.3106411133e+003;4.3308974609e+003;4.3187177734e+003;4.3284614258e+003;4.3178203125e+003;4.3067949219e+003;
3.3828125000e+000;4.2424360352e+003;4.3228203125e+003;4.3026923828e+003;4.2892309570e+003;4.3153847656e+003;4.2867949219e+003;4.2920512695e+003;4.2976923828e+003;4.3006411133e+003;4.3241025391e+003;4.3123076172e+003;4.3243588867e+003;4.3142309570e+003;4.3037177734e+003;
3.3906250000e+000;4.2514101563e+003;4.3298715820e+003;4.3114101563e+003;4.2988461914e+003;4.3234614258e+003;4.2915385742e+003;4.2971796875e+003;4.3012822266e+003;4.3057690430e+003;4.3310258789e+003;4.3207690430e+003;4.3350000000e+003;4.3251284180e+003;4.3143588867e+003;
3.3984375000e+000;4.2388461914e+003;4.3141025391e+003;4.3087177734e+003;4.2862822266e+003;4.3057690430e+003;4.2737177734e+003;4.2764101563e+003;4.2915385742e+003;4.3005126953e+003;4.3287177734e+003;4.3157690430e+003;4.3284614258e+003;4.3121796875e+003;4.3043588867e+003;
3.4062500000e+000;4.1757690430e+003;4.2474360352e+003;4.2443588867e+003;4.2234614258e+003;4.2412822266e+003;4.2183334961e+003;4.2144873047e+003;4.2411538086e+003;4.2541025391e+003;4.2678203125e+003;4.2553847656e+003;4.2646152344e+003;4.2605126953e+003;4.2451284180e+003;
3.4140625000e+000;4.0956411133e+003;4.1621796875e+003;4.1561538086e+003;4.1467949219e+003;4.1642309570e+003;4.1557690430e+003;4.1558974609e+003;4.1655126953e+003;4.1775639648e+003;4.1802563477e+003;4.1676923828e+003;4.1739741211e+003;4.1664101563e+003;4.1542309570e+003;
3.4218750000e+000;4.1378203125e+003;4.2062822266e+003;4.1948715820e+003;4.1879487305e+003;4.2096152344e+003;4.2001284180e+003;4.2021796875e+003;4.2051284180e+003;4.2189741211e+003;4.2221796875e+003;4.2082050781e+003;4.2137177734e+003;4.2067949219e+003;4.1932050781e+003;
3.4296875000e+000;4.1712822266e+003;4.2356411133e+003;4.2289741211e+003;4.2189741211e+003;4.2420512695e+003;4.2394873047e+003;4.2356411133e+003;4.2420512695e+003;4.2483334961e+003;4.2514101563e+003;4.2310258789e+003;4.2447436523e+003;4.2346152344e+003;4.2241025391e+003;
