Time (s),AF3,F7,F3,FC5,T7,P7,O1,O2,P8,T8,FC6,F4,F8,AF4,Sampling Rate
0.0000000000e+000,4.8198715820e+003,4.8256411133e+003,4.8276923828e+003,4.7692309570e+003,4.8382050781e+003,4.8220512695e+003,4.8066665039e+003,4.8080771484e+003,4.7737177734e+003,4.8550000000e+003,4.8288461914e+003,4.7703847656e+003,4.8079487305e+003,4.8076923828e+003,128
7.8125000000e-003,5.0078203125e+003,5.0220512695e+003,5.0105126953e+003,4.9621796875e+003,5.0235898438e+003,4.9947436523e+003,4.9825639648e+003,4.9935898438e+003,4.9610258789e+003,5.0491025391e+003,5.0356411133e+003,4.9626923828e+003,5.0048715820e+003,5.0023076172e+003,
1.5625000000e-002,5.0905126953e+003,5.1121796875e+003,5.0916665039e+003,5.0516665039e+003,5.0994873047e+003,5.0734614258e+003,5.0620512695e+003,5.0841025391e+003,5.0543588867e+003,5.1470512695e+003,5.1330771484e+003,5.0521796875e+003,5.0947436523e+003,5.0906411133e+003,
2.3437500000e-002,5.1228203125e+003,5.1525639648e+003,5.1271796875e+003,5.0916665039e+003,5.1288461914e+003,5.1075639648e+003,5.0964101563e+003,5.1276923828e+003,5.0994873047e+003,5.1957690430e+003,5.1769228516e+003,5.0897436523e+003,5.1374360352e+003,5.1276923828e+003,
3.1250000000e-002,5.1426923828e+003,5.1866665039e+003,5.1623076172e+003,5.1230771484e+003,5.1593588867e+003,5.1380771484e+003,5.1274360352e+003,5.1652563477e+003,5.1320512695e+003,5.2261538086e+003,5.2051284180e+003,5.1084614258e+003,5.1760258789e+003,5.1510258789e+003,
3.9062500000e-002,5.1784614258e+003,5.2292309570e+003,5.2050000000e+003,5.1617949219e+003,5.2044873047e+003,5.1785898438e+003,5.1667949219e+003,5.2106411133e+003,5.1737177734e+003,5.2625639648e+003,5.2471796875e+003,5.1462822266e+003,5.2160258789e+003,5.1902563477e+003,
4.6875000000e-002,5.1887177734e+003,5.2444873047e+003,5.2216665039e+003,5.1747436523e+003,5.2216665039e+003,5.1956411133e+003,5.1805126953e+003,5.2365385742e+003,5.1976923828e+003,5.2791025391e+003,5.2698715820e+003,5.1671796875e+003,5.2269228516e+003,5.2087177734e+003,
5.4687500000e-002,4.2582050781e+003,4.2820512695e+003,4.3158974609e+003,4.2788461914e+003,4.2833334961e+003,4.3166665039e+003,4.2992309570e+003,4.3376923828e+003,4.3143588867e+003,4.3307690430e+003,4.2956411133e+003,4.2457690430e+003,4.2958974609e+003,4.2884614258e+003,
6.2500000000e-002,4.1543588867e+003,4.1725639648e+003,4.2073076172e+003,4.1764101563e+003,4.1680771484e+003,4.2173076172e+003,4.2020512695e+003,4.2252563477e+003,4.2048715820e+003,4.2130771484e+003,4.1835898438e+003,4.1325639648e+003,4.1912822266e+003,4.1853847656e+003,
7.0312500000e-002,4.0775642090e+003,4.0761538086e+003,4.1102563477e+003,4.0929487305e+003,4.0620512695e+003,4.1421796875e+003,4.1357690430e+003,4.1379487305e+003,4.1289741211e+003,4.1093588867e+003,4.1139741211e+003,4.0651281738e+003,4.0834614258e+003,4.1143588867e+003,
7.8125000000e-002,3.9843588867e+003,3.9562819824e+003,4.0011538086e+003,3.9938461914e+003,3.9897436523e+003,4.0351281738e+003,4.0319230957e+003,4.0256411133e+003,4.0253845215e+003,3.9985898438e+003,3.9806411133e+003,3.9412819824e+003,3.9879487305e+003,3.9906411133e+003,
8.5937500000e-002,3.8979487305e+003,3.8583332520e+003,3.9114101563e+003,3.9091025391e+003,3.9015385742e+003,3.9433332520e+003,3.9393588867e+003,3.9324357910e+003,3.9308974609e+003,3.9080769043e+003,3.8830769043e+003,3.8476923828e+003,3.9064101563e+003,3.9026923828e+003,
9.3750000000e-002,3.5921794434e+003,3.5165385742e+003,3.5902563477e+003,3.5960256348e+003,3.5419230957e+003,3.6128205566e+003,3.6148718262e+003,3.6071794434e+003,3.6112819824e+003,3.5505129395e+003,3.5643588867e+003,3.5494870605e+003,3.5737180176e+003,3.6025642090e+003,
1.0156250000e-001,3.5306411133e+003,3.4229487305e+003,3.5106411133e+003,3.5092307129e+003,3.4388461914e+003,3.5083332520e+003,3.5248718262e+003,3.5026923828e+003,3.5094870605e+003,3.4401281738e+003,3.4641025391e+003,3.4614101563e+003,3.4784614258e+003,3.5146154785e+003,
1.0937500000e-001,3.5969230957e+003,3.4797436523e+003,3.5656411133e+003,3.5682050781e+003,3.4919230957e+003,3.5588461914e+003,3.5755129395e+003,3.5529487305e+003,3.5543588867e+003,3.5047436523e+003,3.5119230957e+003,3.5161538086e+003,3.5393588867e+003,3.5692307129e+003,
1.1718750000e-001,3.8424357910e+003,3.7080769043e+003,3.7889743652e+003,3.7906411133e+003,3.7110256348e+003,3.7630769043e+003,3.7794870605e+003,3.7841025391e+003,3.7793588867e+003,3.7316667480e+003,3.7534614258e+003,3.7553845215e+003,3.7666667480e+003,3.7929487305e+003,
1.2500000000e-001,3.8774357910e+003,3.7435898438e+003,3.8217949219e+003,3.8164101563e+003,3.7434614258e+003,3.7885898438e+003,3.8096154785e+003,3.8244870605e+003,3.8241025391e+003,3.7625642090e+003,3.7975642090e+003,3.7900000000e+003,3.8016667480e+003,3.8258974609e+003,
1.3281250000e-001,3.8674357910e+003,3.7398718262e+003,3.8051281738e+003,3.7994870605e+003,3.7142307129e+003,3.7702563477e+003,3.8011538086e+003,3.8275642090e+003,3.8285898438e+003,3.7682050781e+003,3.7832050781e+003,3.7787180176e+003,3.7991025391e+003,3.8137180176e+003,
1.4062500000e-001,3.8444870605e+003,3.7189743652e+003,3.7797436523e+003,3.7794870605e+003,3.6797436523e+003,3.7500000000e+003,3.7806411133e+003,3.8085898438e+003,3.8052563477e+003,3.7556411133e+003,3.7496154785e+003,3.7573076172e+003,3.7789743652e+003,3.7889743652e+003,
1.4843750000e-001,3.8408974609e+003,3.7112819824e+003,3.7753845215e+003,3.7823076172e+003,3.7053845215e+003,3.7691025391e+003,3.7816667480e+003,3.8055129395e+003,3.8014101563e+003,3.7365385742e+003,3.7529487305e+003,3.7507692871e+003,3.7712819824e+003,3.7806411133e+003,
1.5625000000e-001,3.8583332520e+003,3.7253845215e+003,3.7893588867e+003,3.8005129395e+003,3.7444870605e+003,3.7889743652e+003,3.7985898438e+003,3.8193588867e+003,3.8205129395e+003,3.7411538086e+003,3.7733332520e+003,3.7606411133e+003,3.7851281738e+003,3.7952563477e+003,
1.6406250000e-001,3.8557692871e+003,3.7193588867e+003,3.7829487305e+003,3.8006411133e+003,3.7544870605e+003,3.7862819824e+003,3.7955129395e+003,3.8116667480e+003,3.8175642090e+003,3.7319230957e+003,3.7662819824e+003,3.7510256348e+003,3.7798718262e+003,3.7894870605e+003,
1.7187500000e-001,3.8188461914e+003,3.6793588867e+003,3.7435898438e+003,3.7678205566e+003,3.7170512695e+003,3.7505129395e+003,3.7596154785e+003,3.7696154785e+003,3.7784614258e+003,3.6965385742e+003,3.7216667480e+003,3.7107692871e+003,3.7410256348e+003,3.7500000000e+003,
1.7968750000e-001,3.5955129395e+003,3.4494870605e+003,3.5166667480e+003,3.5465385742e+003,3.4698718262e+003,3.5521794434e+003,3.5535898438e+003,3.5394870605e+003,3.5456411133e+003,3.4773076172e+003,3.4779487305e+003,3.4870512695e+003,3.5041025391e+003,3.5269230957e+003,
1.8750000000e-001,3.6025642090e+003,3.4558974609e+003,3.5169230957e+003,3.5532050781e+003,3.4810256348e+003,3.5576923828e+003,3.5596154785e+003,3.5391025391e+003,3.5469230957e+003,3.4684614258e+003,3.4711538086e+003,3.4850000000e+003,3.5043588867e+003,3.5285898438e+003,
1.9531250000e-001,3.6820512695e+003,3.5279487305e+003,3.5752563477e+003,3.6305129395e+003,3.5446154785e+003,3.6197436523e+003,3.6212819824e+003,3.5907692871e+003,3.6019230957e+003,3.5247436523e+003,3.5503845215e+003,3.5339743652e+003,3.5771794434e+003,3.5848718262e+003,
2.0312500000e-001,3.6720512695e+003,3.5001281738e+003,3.5657692871e+003,3.6061538086e+003,3.5207692871e+003,3.5930769043e+003,3.5952563477e+003,3.5726923828e+003,3.5815385742e+003,3.5028205566e+003,3.5266667480e+003,3.5321794434e+003,3.5635898438e+003,3.5758974609e+003,
2.1093750000e-001,3.6702563477e+003,3.4956411133e+003,3.5624357910e+003,3.6016667480e+003,3.5178205566e+003,3.5789743652e+003,3.5844870605e+003,3.5639743652e+003,3.5733332520e+003,3.4921794434e+003,3.5142307129e+003,3.5320512695e+003,3.5533332520e+003,3.5728205566e+003,
2.1875000000e-001,3.5905129395e+003,3.3983332520e+003,3.4711538086e+003,3.5166667480e+003,3.3928205566e+003,3.4615385742e+003,3.4787180176e+003,3.4697436523e+003,3.4671794434e+003,3.4002563477e+003,3.4470512695e+003,3.4489743652e+003,3.4547436523e+003,3.4841025391e+003,
2.2656250000e-001,3.5475642090e+003,3.3461538086e+003,3.4251281738e+003,3.4708974609e+003,3.3364101563e+003,3.4100000000e+003,3.4303845215e+003,3.4279487305e+003,3.4202563477e+003,3.3533332520e+003,3.4021794434e+003,3.4038461914e+003,3.4117949219e+003,3.4389743652e+003,
2.3437500000e-001,3.5097436523e+003,3.2996154785e+003,3.3826923828e+003,3.4270512695e+003,3.2997436523e+003,3.3551281738e+003,3.3829487305e+003,3.3951281738e+003,3.3921794434e+003,3.3134614258e+003,3.3456411133e+003,3.3611538086e+003,3.3771794434e+003,3.3953845215e+003,
2.4218750000e-001,3.4944870605e+003,3.2843588867e+003,3.3662819824e+003,3.4087180176e+003,3.2862819824e+003,3.3323076172e+003,3.3657692871e+003,3.3837180176e+003,3.3888461914e+003,3.3003845215e+003,3.3270512695e+003,3.3471794434e+003,3.3611538086e+003,3.3788461914e+003,
2.5000000000e-001,3.4601281738e+003,3.2487180176e+003,3.3316667480e+003,3.3705129395e+003,3.2461538086e+003,3.2935898438e+003,3.3332050781e+003,3.3544870605e+003,3.3661538086e+003,3.2658974609e+003,3.2926923828e+003,3.3164101563e+003,3.3229487305e+003,3.3452563477e+003,
2.5781250000e-001,3.4111538086e+003,3.1955129395e+003,3.2819230957e+003,3.3171794434e+003,3.1864101563e+003,3.2442307129e+003,3.2883332520e+003,3.3103845215e+003,3.3241025391e+003,3.2123076172e+003,3.2414101563e+003,3.2694870605e+003,3.2685898438e+003,3.2970512695e+003,
2.6562500000e-001,3.4802563477e+003,3.2564101563e+003,3.3274357910e+003,3.3764101563e+003,3.2674357910e+003,3.3289743652e+003,3.3628205566e+003,3.3679487305e+003,3.3800000000e+003,3.2676923828e+003,3.3050000000e+003,3.3141025391e+003,3.3298718262e+003,3.3458974609e+003,
2.7343750000e-001,3.5689743652e+003,3.3467949219e+003,3.4114101563e+003,3.4593588867e+003,3.3571794434e+003,3.4173076172e+003,3.4483332520e+003,3.4510256348e+003,3.4651281738e+003,3.3574357910e+003,3.3942307129e+003,3.3980769043e+003,3.4142307129e+003,3.4282050781e+003,
2.8125000000e-001,3.7114101563e+003,3.4860256348e+003,3.5497436523e+003,3.5943588867e+003,3.4958974609e+003,3.5569230957e+003,3.5787180176e+003,3.5778205566e+003,3.5855129395e+003,3.4962819824e+003,3.5158974609e+003,3.5350000000e+003,3.5415385742e+003,3.5639743652e+003,
2.8906250000e-001,3.8202563477e+003,3.6002563477e+003,3.6515385742e+003,3.6976923828e+003,3.6017949219e+003,3.6687180176e+003,3.6796154785e+003,3.6573076172e+003,3.6712819824e+003,3.5869230957e+003,3.6357692871e+003,3.6320512695e+003,3.6470512695e+003,3.6657692871e+003,
2.9687500000e-001,3.8574357910e+003,3.6415385742e+003,3.6893588867e+003,3.7274357910e+003,3.6350000000e+003,3.7080769043e+003,3.7158974609e+003,3.6906411133e+003,3.7087180176e+003,3.6258974609e+003,3.6725642090e+003,3.6665385742e+003,3.6905129395e+003,3.7012819824e+003,
3.0468750000e-001,3.8717949219e+003,3.6674357910e+003,3.7167949219e+003,3.7432050781e+003,3.6835898438e+003,3.7302563477e+003,3.7307692871e+003,3.6984614258e+003,3.7091025391e+003,3.6471794434e+003,3.6632050781e+003,3.6908974609e+003,3.7108974609e+003,3.7230769043e+003,
3.1250000000e-001,3.9064101563e+003,3.7030769043e+003,3.7493588867e+003,3.7819230957e+003,3.7214101563e+003,3.7593588867e+003,3.7591025391e+003,3.7243588867e+003,3.7333332520e+003,3.6719230957e+003,3.6979487305e+003,3.7274357910e+003,3.7361538086e+003,3.7567949219e+003,
3.2031250000e-001,3.9853845215e+003,3.7867949219e+003,3.8291025391e+003,3.8697436523e+003,3.7708974609e+003,3.8258974609e+003,3.8274357910e+003,3.8055129395e+003,3.8108974609e+003,3.7469230957e+003,3.8066667480e+003,3.8198718262e+003,3.8174357910e+003,3.8437180176e+003,
3.2812500000e-001,3.8793588867e+003,3.6838461914e+003,3.7380769043e+003,3.7678205566e+003,3.6876923828e+003,3.7185898438e+003,3.7271794434e+003,3.7187180176e+003,3.7079487305e+003,3.6712819824e+003,3.7235898438e+003,3.7230769043e+003,3.7341025391e+003,3.7519230957e+003,
3.3593750000e-001,3.8846154785e+003,3.6893588867e+003,3.7405129395e+003,3.7728205566e+003,3.6925642090e+003,3.7155129395e+003,3.7276923828e+003,3.7276923828e+003,3.7160256348e+003,3.6724357910e+003,3.7242307129e+003,3.7266667480e+003,3.7375642090e+003,3.7543588867e+003,
3.4375000000e-001,3.9091025391e+003,3.7144870605e+003,3.7611538086e+003,3.7973076172e+003,3.7112819824e+003,3.7303845215e+003,3.7475642090e+003,3.7576923828e+003,3.7479487305e+003,3.6907692871e+003,3.7398718262e+003,3.7523076172e+003,3.7597436523e+003,3.7762819824e+003,
3.5156250000e-001,3.9455129395e+003,3.7528205566e+003,3.7947436523e+003,3.8332050781e+003,3.7428205566e+003,3.7588461914e+003,3.7820512695e+003,3.8011538086e+003,3.7948718262e+003,3.7258974609e+003,3.7707692871e+003,3.7926923828e+003,3.7971794434e+003,3.8125642090e+003,
3.5937500000e-001,4.1997436523e+003,4.0260256348e+003,4.0606411133e+003,4.0765385742e+003,3.9991025391e+003,4.0311538086e+003,4.0570512695e+003,4.0914101563e+003,4.0803845215e+003,4.0158974609e+003,4.0698718262e+003,4.0598718262e+003,4.0788461914e+003,4.0774357910e+003,
3.6718750000e-001,4.2629487305e+003,4.0964101563e+003,4.1269228516e+003,4.1428203125e+003,4.0675642090e+003,4.1060258789e+003,4.1265385742e+003,4.1603847656e+003,4.1461538086e+003,4.0844870605e+003,4.1347436523e+003,4.1223076172e+003,4.1462822266e+003,4.1408974609e+003,
3.7500000000e-001,4.2705126953e+003,4.1369228516e+003,4.1424360352e+003,4.1711538086e+003,4.1365385742e+003,4.1507690430e+003,4.1573076172e+003,4.1874360352e+003,4.1738461914e+003,4.1132050781e+003,4.1444873047e+003,4.1478203125e+003,4.1537177734e+003,4.1626923828e+003,
3.8281250000e-001,4.1503847656e+003,4.0273076172e+003,4.0441025391e+003,4.0580769043e+003,4.0175642090e+003,4.0598718262e+003,4.0652563477e+003,4.0666667480e+003,4.0558974609e+003,4.0014101563e+003,4.0433332520e+003,4.0420512695e+003,4.0474357910e+003,4.0564101563e+003,
3.9062500000e-001,4.1956411133e+003,4.0784614258e+003,4.0898718262e+003,4.1103847656e+003,4.0660256348e+003,4.1084614258e+003,4.1138461914e+003,4.1026923828e+003,4.0951281738e+003,4.0501281738e+003,4.0941025391e+003,4.0817949219e+003,4.1047436523e+003,4.1002563477e+003,
3.9843750000e-001,4.3000000000e+003,4.1933334961e+003,4.1957690430e+003,4.2410258789e+003,4.2096152344e+003,4.2160258789e+003,4.2166665039e+003,4.2042309570e+003,4.2014101563e+003,4.1482050781e+003,4.1976923828e+003,4.1860258789e+003,4.2065385742e+003,4.2038461914e+003,
4.0625000000e-001,4.2555126953e+003,4.1451284180e+003,4.1570512695e+003,4.1985898438e+003,4.1624360352e+003,4.1730771484e+003,4.1716665039e+003,4.1614101563e+003,4.1569228516e+003,4.0925642090e+003,4.1442309570e+003,4.1456411133e+003,4.1538461914e+003,4.1594873047e+003,
4.1406250000e-001,4.2067949219e+003,4.0967949219e+003,4.1164101563e+003,4.1470512695e+003,4.0984614258e+003,4.1266665039e+003,4.1223076172e+003,4.1008974609e+003,4.0943588867e+003,4.0356411133e+003,4.0933332520e+003,4.1005126953e+003,4.1035898438e+003,4.1112822266e+003,
4.2187500000e-001,4.2489741211e+003,4.1462822266e+003,4.1589741211e+003,4.1879487305e+003,4.1424360352e+003,4.1675639648e+003,4.1637177734e+003,4.1342309570e+003,4.1282050781e+003,4.0865385742e+003,4.1494873047e+003,4.1439741211e+003,4.1519228516e+003,4.1569228516e+003,
4.2968750000e-001,4.4138461914e+003,4.3315385742e+003,4.3255126953e+003,4.3570512695e+003,4.3125639648e+003,4.3189741211e+003,4.3191025391e+003,4.3028203125e+003,4.2932050781e+003,4.2714101563e+003,4.3369228516e+003,4.3143588867e+003,4.3346152344e+003,4.3348715820e+003,
4.3750000000e-001,4.4167949219e+003,4.3351284180e+003,4.3294873047e+003,4.3615385742e+003,4.3066665039e+003,4.3164101563e+003,4.3156411133e+003,4.3106411133e+003,4.2982050781e+003,4.2697436523e+003,4.3273076172e+003,4.3188461914e+003,4.3392309570e+003,4.3374360352e+003,
4.4531250000e-001,4.4097436523e+003,4.3283334961e+003,4.3242309570e+003,4.3538461914e+003,4.2919228516e+003,4.3032050781e+003,4.3019228516e+003,4.3051284180e+003,4.2907690430e+003,4.2580771484e+003,4.3092309570e+003,4.3150000000e+003,4.3329487305e+003,4.3297436523e+003,
4.5312500000e-001,4.4135898438e+003,4.3337177734e+003,4.3315385742e+003,4.3543588867e+003,4.2939741211e+003,4.3002563477e+003,4.3001284180e+003,4.3087177734e+003,4.2934614258e+003,4.2620512695e+003,4.3123076172e+003,4.3241025391e+003,4.3379487305e+003,4.3348715820e+003,
4.6093750000e-001,4.3815385742e+003,4.3046152344e+003,4.3201284180e+003,4.3261538086e+003,4.2876923828e+003,4.2660258789e+003,4.2793588867e+003,4.3182050781e+003,4.2908974609e+003,4.2632050781e+003,4.3351284180e+003,4.3189741211e+003,4.3129487305e+003,4.3239741211e+003,
4.6875000000e-001,4.3311538086e+003,4.2532050781e+003,4.2698715820e+003,4.2820512695e+003,4.2358974609e+003,4.2225639648e+003,4.2385898438e+003,4.2798715820e+003,4.2491025391e+003,4.2146152344e+003,4.2873076172e+003,4.2717949219e+003,4.2602563477e+003,4.2767949219e+003,
4.7656250000e-001,4.2976923828e+003,4.2296152344e+003,4.2297436523e+003,4.2530771484e+003,4.2050000000e+003,4.2182050781e+003,4.2333334961e+003,4.2639741211e+003,4.2434614258e+003,4.1843588867e+003,4.2450000000e+003,4.2351284180e+003,4.2369228516e+003,4.2432050781e+003,
4.8437500000e-001,4.3557690430e+003,4.2924360352e+003,4.2901284180e+003,4.3138461914e+003,4.2984614258e+003,4.3028203125e+003,4.3142309570e+003,4.3274360352e+003,4.3066665039e+003,4.2500000000e+003,4.2900000000e+003,4.2843588867e+003,4.3032050781e+003,4.3000000000e+003,
4.9218750000e-001,4.4257690430e+003,4.3644873047e+003,4.3582050781e+003,4.3834614258e+003,4.3676923828e+003,4.3742309570e+003,4.3828203125e+003,4.3932050781e+003,4.3705126953e+003,4.3207690430e+003,4.3650000000e+003,4.3508974609e+003,4.3670512695e+003,4.3685898438e+003,
5.0000000000e-001,4.5101284180e+003,4.4775639648e+003,4.4493588867e+003,4.4635898438e+003,4.4547436523e+003,4.4700000000e+003,4.4675639648e+003,4.4784614258e+003,4.4662822266e+003,4.4126923828e+003,4.4730771484e+003,4.4474360352e+003,4.4589741211e+003,4.4555126953e+003,
5.0781250000e-001,4.4570512695e+003,4.4334614258e+003,4.4114101563e+003,4.4102563477e+003,4.4351284180e+003,4.4367949219e+003,4.4296152344e+003,4.4214101563e+003,4.4082050781e+003,4.3720512695e+003,4.4167949219e+003,4.4070512695e+003,4.4138461914e+003,4.4133334961e+003,
5.1562500000e-001,4.4720512695e+003,4.4443588867e+003,4.4283334961e+003,4.4312822266e+003,4.4493588867e+003,4.4511538086e+003,4.4437177734e+003,4.4343588867e+003,4.4211538086e+003,4.3943588867e+003,4.4351284180e+003,4.4220512695e+003,4.4315385742e+003,4.4303847656e+003,
5.2343750000e-001,4.3533334961e+003,4.3235898438e+003,4.3180771484e+003,4.3283334961e+003,4.3252563477e+003,4.3233334961e+003,4.3198715820e+003,4.3057690430e+003,4.3007690430e+003,4.2680771484e+003,4.3217949219e+003,4.3064101563e+003,4.3258974609e+003,4.3152563477e+003,
5.3125000000e-001,4.3387177734e+003,4.3116665039e+003,4.3057690430e+003,4.3078203125e+003,4.3052563477e+003,4.3046152344e+003,4.3024360352e+003,4.2821796875e+003,4.2764101563e+003,4.2428203125e+003,4.3037177734e+003,4.2930771484e+003,4.3108974609e+003,4.3023076172e+003,
5.3906250000e-001,4.4815385742e+003,4.4546152344e+003,4.4496152344e+003,4.4296152344e+003,4.4234614258e+003,4.4294873047e+003,4.4316665039e+003,4.4074360352e+003,4.3947436523e+003,4.3698715820e+003,4.4438461914e+003,4.4401284180e+003,4.4475639648e+003,4.4485898438e+003,
5.4687500000e-001,4.5992309570e+003,4.5720512695e+003,4.5656411133e+003,4.5405126953e+003,4.5357690430e+003,4.5347436523e+003,4.5397436523e+003,4.5212822266e+003,4.5065385742e+003,4.4876923828e+003,4.5676923828e+003,4.5608974609e+003,4.5635898438e+003,4.5660258789e+003,
5.5468750000e-001,4.9652563477e+003,4.9724360352e+003,4.9292309570e+003,4.9043588867e+003,4.9355126953e+003,4.8865385742e+003,4.8928203125e+003,4.9052563477e+003,4.8873076172e+003,4.8987177734e+003,4.9834614258e+003,4.9378203125e+003,4.9511538086e+003,4.9338461914e+003,
5.6250000000e-001,5.1071796875e+003,5.1326923828e+003,5.0756411133e+003,5.0442309570e+003,5.0837177734e+003,5.0342309570e+003,5.0365385742e+003,5.0602563477e+003,5.0379487305e+003,5.0574360352e+003,5.1371796875e+003,5.0835898438e+003,5.1051284180e+003,5.0814101563e+003,
5.7031250000e-001,5.2421796875e+003,5.2830771484e+003,5.2174360352e+003,5.1776923828e+003,5.2217949219e+003,5.1778203125e+003,5.1748715820e+003,5.2123076172e+003,5.1848715820e+003,5.2048715820e+003,5.2782050781e+003,5.2234614258e+003,5.2508974609e+003,5.2234614258e+003,
5.7812500000e-001,5.3365385742e+003,5.3880771484e+003,5.3188461914e+003,5.2737177734e+003,5.3246152344e+003,5.2821796875e+003,5.2748715820e+003,5.3269228516e+003,5.2952563477e+003,5.3094873047e+003,5.3764101563e+003,5.3241025391e+003,5.3548715820e+003,5.3241025391e+003,
5.8593750000e-001,5.4673076172e+003,5.5632050781e+003,5.4747436523e+003,5.4261538086e+003,5.5403847656e+003,5.4642309570e+003,5.4591025391e+003,5.5000000000e+003,5.4515385742e+003,5.4921796875e+003,5.5414101563e+003,5.4852563477e+003,5.5221796875e+003,5.4800000000e+003,
5.9375000000e-001,5.6119228516e+003,5.7252563477e+003,5.6250000000e+003,5.5732050781e+003,5.6947436523e+003,5.6207690430e+003,5.6102563477e+003,5.6475639648e+003,5.5948715820e+003,5.6508974609e+003,5.7025639648e+003,5.6361538086e+003,5.6765385742e+003,5.6344873047e+003,
6.0156250000e-001,5.8541025391e+003,6.0047436523e+003,5.8969228516e+003,5.8310258789e+003,5.9602563477e+003,5.8950000000e+003,5.8646152344e+003,5.9250000000e+003,5.8684614258e+003,5.9325639648e+003,5.9989741211e+003,5.9041025391e+003,5.9546152344e+003,5.9053847656e+003,
6.0937500000e-001,5.6902563477e+003,5.8756411133e+003,5.7637177734e+003,5.6967949219e+003,5.8276923828e+003,5.7735898438e+003,5.7379487305e+003,5.7917949219e+003,5.7408974609e+003,5.7960258789e+003,5.8400000000e+003,5.7652563477e+003,5.8192309570e+003,5.7685898438e+003,
6.1718750000e-001,5.6369228516e+003,5.8293588867e+003,5.7179487305e+003,5.6514101563e+003,5.7814101563e+003,5.7328203125e+003,5.6941025391e+003,5.7467949219e+003,5.6982050781e+003,5.7496152344e+003,5.7933334961e+003,5.7226923828e+003,5.7658974609e+003,5.7247436523e+003,
6.2500000000e-001,5.4762822266e+003,5.6666665039e+003,5.5783334961e+003,5.5044873047e+003,5.6256411133e+003,5.5900000000e+003,5.5507690430e+003,5.5921796875e+003,5.5496152344e+003,5.5898715820e+003,5.6634614258e+003,5.5816665039e+003,5.6003847656e+003,5.5797436523e+003,
6.3281250000e-001,5.4773076172e+003,5.6762822266e+003,5.5934614258e+003,5.5341025391e+003,5.6353847656e+003,5.5970512695e+003,5.5585898438e+003,5.5882050781e+003,5.5505126953e+003,5.5943588867e+003,5.6724360352e+003,5.5925639648e+003,5.6247436523e+003,5.5973076172e+003,
6.4062500000e-001,5.5184614258e+003,5.7146152344e+003,5.6379487305e+003,5.5766665039e+003,5.6838461914e+003,5.6312822266e+003,5.5938461914e+003,5.6229487305e+003,5.5879487305e+003,5.6339741211e+003,5.7107690430e+003,5.6364101563e+003,5.6685898438e+003,5.6406411133e+003,
6.4843750000e-001,5.5265385742e+003,5.7279487305e+003,5.6551284180e+003,5.5828203125e+003,5.7023076172e+003,5.6182050781e+003,5.5917949219e+003,5.6260258789e+003,5.5947436523e+003,5.6488461914e+003,5.7184614258e+003,5.6484614258e+003,5.6958974609e+003,5.6578203125e+003,
6.5625000000e-001,5.4787177734e+003,5.6884614258e+003,5.6135898438e+003,5.5398715820e+003,5.6514101563e+003,5.5741025391e+003,5.5506411133e+003,5.5884614258e+003,5.5550000000e+003,5.6023076172e+003,5.6792309570e+003,5.6097436523e+003,5.6479487305e+003,5.6185898438e+003,
6.6406250000e-001,5.4648715820e+003,5.6805126953e+003,5.6121796875e+003,5.5306411133e+003,5.6310258789e+003,5.5684614258e+003,5.5466665039e+003,5.5952563477e+003,5.5560258789e+003,5.5865385742e+003,5.6896152344e+003,5.6170512695e+003,5.6210258789e+003,5.6183334961e+003,
6.7187500000e-001,5.5171796875e+003,5.7321796875e+003,5.6665385742e+003,5.5825639648e+003,5.6825639648e+003,5.6205126953e+003,5.5982050781e+003,5.6546152344e+003,5.6116665039e+003,5.6430771484e+003,5.7473076172e+003,5.6721796875e+003,5.6756411133e+003,5.6724360352e+003,
6.7968750000e-001,5.5730771484e+003,5.7905126953e+003,5.7225639648e+003,5.6407690430e+003,5.7402563477e+003,5.6764101563e+003,5.6534614258e+003,5.7184614258e+003,5.6707690430e+003,5.7088461914e+003,5.8016665039e+003,5.7253847656e+003,5.7448715820e+003,5.7292309570e+003,
6.8750000000e-001,5.5710258789e+003,5.8038461914e+003,5.7252563477e+003,5.6548715820e+003,5.7484614258e+003,5.6856411133e+003,5.6621796875e+003,5.7400000000e+003,5.6830771484e+003,5.7256411133e+003,5.7952563477e+003,5.7185898438e+003,5.7748715820e+003,5.7339741211e+003,
6.9531250000e-001,5.5137177734e+003,5.7521796875e+003,5.6734614258e+003,5.6035898438e+003,5.6951284180e+003,5.6370512695e+003,5.6146152344e+003,5.6932050781e+003,5.6344873047e+003,5.6696152344e+003,5.7414101563e+003,5.6639741211e+003,5.7197436523e+003,5.6805126953e+003,
7.0312500000e-001,5.4515385742e+003,5.6898715820e+003,5.6162822266e+003,5.5419228516e+003,5.6325639648e+003,5.5819228516e+003,5.5619228516e+003,5.6369228516e+003,5.5791025391e+003,5.6035898438e+003,5.6833334961e+003,5.6064101563e+003,5.6498715820e+003,5.6200000000e+003,
7.1093750000e-001,5.4058974609e+003,5.6438461914e+003,5.5725639648e+003,5.5047436523e+003,5.6133334961e+003,5.5674360352e+003,5.5498715820e+003,5.5951284180e+003,5.5455126953e+003,5.5547436523e+003,5.6402563477e+003,5.5620512695e+003,5.5957690430e+003,5.5782050781e+003,
7.1875000000e-001,5.4332050781e+003,5.6757690430e+003,5.5987177734e+003,5.5360258789e+003,5.6584614258e+003,5.6012822266e+003,5.5780771484e+003,5.6226923828e+003,5.5721796875e+003,5.5902563477e+003,5.6766665039e+003,5.5857690430e+003,5.6243588867e+003,5.6058974609e+003,
7.2656250000e-001,5.4003847656e+003,5.6416665039e+003,5.5747436523e+003,5.5083334961e+003,5.6215385742e+003,5.5748715820e+003,5.5491025391e+003,5.5857690430e+003,5.5347436523e+003,5.5550000000e+003,5.6482050781e+003,5.5550000000e+003,5.5928203125e+003,5.5729487305e+003,
7.3437500000e-001,5.3864101563e+003,5.6273076172e+003,5.5652563477e+003,5.5088461914e+003,5.5884614258e+003,5.5506411133e+003,5.5265385742e+003,5.5617949219e+003,5.5152563477e+003,5.5201284180e+003,5.6243588867e+003,5.5466665039e+003,5.5710258789e+003,5.5620512695e+003,
7.4218750000e-001,5.3698715820e+003,5.6120512695e+003,5.5485898438e+003,5.4951284180e+003,5.5735898438e+003,5.5298715820e+003,5.5055126953e+003,5.5391025391e+003,5.4942309570e+003,5.5052563477e+003,5.6048715820e+003,5.5301284180e+003,5.5526923828e+003,5.5452563477e+003,
7.5000000000e-001,5.2714101563e+003,5.5064101563e+003,5.4514101563e+003,5.3797436523e+003,5.4562822266e+003,5.4187177734e+003,5.4000000000e+003,5.4221796875e+003,5.3879487305e+003,5.3947436523e+003,5.4819228516e+003,5.4219228516e+003,5.4520512695e+003,5.4402563477e+003,
7.5781250000e-001,5.2837177734e+003,5.5153847656e+003,5.4658974609e+003,5.3878203125e+003,5.4565385742e+003,5.4266665039e+003,5.4102563477e+003,5.4324360352e+003,5.4006411133e+003,5.4008974609e+003,5.4978203125e+003,5.4370512695e+003,5.4632050781e+003,5.4544873047e+003,
7.6562500000e-001,5.4014101563e+003,5.6338461914e+003,5.5858974609e+003,5.5112822266e+003,5.5683334961e+003,5.5317949219e+003,5.5178203125e+003,5.5492309570e+003,5.5141025391e+003,5.5207690430e+003,5.6347436523e+003,5.5641025391e+003,5.5820512695e+003,5.5820512695e+003,
7.7343750000e-001,5.4716665039e+003,5.7085898438e+003,5.6539741211e+003,5.5851284180e+003,5.6476923828e+003,5.5958974609e+003,5.5819228516e+003,5.6219228516e+003,5.5825639648e+003,5.5976923828e+003,5.7116665039e+003,5.6358974609e+003,5.6543588867e+003,5.6566665039e+003,
7.8125000000e-001,5.5676923828e+003,5.8165385742e+003,5.7479487305e+003,5.6784614258e+003,5.7661538086e+003,5.6942309570e+003,5.6808974609e+003,5.7434614258e+003,5.6919228516e+003,5.7000000000e+003,5.8158974609e+003,5.7334614258e+003,5.7542309570e+003,5.7547436523e+003,
7.8906250000e-001,5.6232050781e+003,5.8751284180e+003,5.8061538086e+003,5.7317949219e+003,5.8216665039e+003,5.7550000000e+003,5.7424360352e+003,5.8041025391e+003,5.7484614258e+003,5.7528203125e+003,5.8728203125e+003,5.7885898438e+003,5.8114101563e+003,5.8096152344e+003,
7.9687500000e-001,5.7973076172e+003,6.0625639648e+003,5.9865385742e+003,5.9067949219e+003,6.0087177734e+003,5.9432050781e+003,5.9253847656e+003,5.9882050781e+003,5.9228203125e+003,5.9430771484e+003,6.0600000000e+003,5.9689741211e+003,5.9984614258e+003,5.9907690430e+003,
8.0468750000e-001,5.7879487305e+003,6.0593588867e+003,5.9834614258e+003,5.9039741211e+003,6.0117949219e+003,5.9456411133e+003,5.9215385742e+003,5.9935898438e+003,5.9238461914e+003,5.9528203125e+003,6.0638461914e+003,5.9724360352e+003,5.9987177734e+003,5.9912822266e+003,
8.1250000000e-001,5.0370512695e+003,5.2929487305e+003,5.2530771484e+003,5.1843588867e+003,5.2688461914e+003,5.2428203125e+003,5.2161538086e+003,5.2883334961e+003,5.2285898438e+003,5.2097436523e+003,5.3125639648e+003,5.2516665039e+003,5.2548715820e+003,5.2626923828e+003,
8.2031250000e-001,4.8092309570e+003,5.0535898438e+003,5.0220512695e+003,4.9589741211e+003,5.0305126953e+003,5.0238461914e+003,5.0037177734e+003,5.0548715820e+003,5.0035898438e+003,4.9614101563e+003,5.0646152344e+003,5.0133334961e+003,5.0210258789e+003,5.0307690430e+003,
8.2812500000e-001,4.7260258789e+003,4.9598715820e+003,4.9314101563e+003,4.8739741211e+003,4.9332050781e+003,4.9417949219e+003,4.9283334961e+003,4.9583334961e+003,4.9126923828e+003,4.8576923828e+003,4.9623076172e+003,4.9144873047e+003,4.9330771484e+003,4.9408974609e+003,
8.3593750000e-001,5.0847436523e+003,5.2911538086e+003,5.2634614258e+003,5.2155126953e+003,5.2796152344e+003,5.2583334961e+003,5.2434614258e+003,5.2671796875e+003,5.2205126953e+003,5.1775639648e+003,5.3123076172e+003,5.2515385742e+003,5.2655126953e+003,5.2748715820e+003,
8.4375000000e-001,5.1544873047e+003,5.3641025391e+003,5.3267949219e+003,5.2755126953e+003,5.3519228516e+003,5.3169228516e+003,5.3010258789e+003,5.3246152344e+003,5.2785898438e+003,5.2406411133e+003,5.3755126953e+003,5.3158974609e+003,5.3284614258e+003,5.3387177734e+003,
8.5156250000e-001,5.0655126953e+003,5.2776923828e+003,5.2412822266e+003,5.1826923828e+003,5.2219228516e+003,5.2132050781e+003,5.1897436523e+003,5.2270512695e+003,5.1843588867e+003,5.1547436523e+003,5.2846152344e+003,5.2296152344e+003,5.2594873047e+003,5.2544873047e+003,
8.5937500000e-001,4.6403847656e+003,4.8170512695e+003,4.8189741211e+003,4.7707690430e+003,4.7955126953e+003,4.7834614258e+003,4.7693588867e+003,4.7897436523e+003,4.7591025391e+003,4.6958974609e+003,4.8417949219e+003,4.8130771484e+003,4.8138461914e+003,4.8288461914e+003,
8.6718750000e-001,4.5796152344e+003,4.7442309570e+003,4.7519228516e+003,4.7035898438e+003,4.7330771484e+003,4.7137177734e+003,4.7039741211e+003,4.7216665039e+003,4.6942309570e+003,4.6257690430e+003,4.7730771484e+003,4.7471796875e+003,4.7414101563e+003,4.7633334961e+003,
8.7500000000e-001,4.1089741211e+003,4.2358974609e+003,4.2746152344e+003,4.2151284180e+003,4.1947436523e+003,4.2284614258e+003,4.2292309570e+003,4.2648715820e+003,4.2525639648e+003,4.1383334961e+003,4.2721796875e+003,4.2625639648e+003,4.2635898438e+003,4.2883334961e+003,
8.8281250000e-001,3.8761538086e+003,3.9837180176e+003,4.0397436523e+003,3.9792307129e+003,3.9408974609e+003,3.9929487305e+003,4.0023076172e+003,4.0342307129e+003,4.0265385742e+003,3.8875642090e+003,4.0238461914e+003,4.0234614258e+003,4.0205129395e+003,4.0517949219e+003,
8.9062500000e-001,3.6969230957e+003,3.7675642090e+003,3.8355129395e+003,3.7864101563e+003,3.7476923828e+003,3.7971794434e+003,3.8237180176e+003,3.8419230957e+003,3.8306411133e+003,3.6682050781e+003,3.8188461914e+003,3.8208974609e+003,3.8052563477e+003,3.8511538086e+003,
8.9843750000e-001,3.7541025391e+003,3.8120512695e+003,3.8744870605e+003,3.8324357910e+003,3.8030769043e+003,3.8441025391e+003,3.8725642090e+003,3.8915385742e+003,3.8742307129e+003,3.7130769043e+003,3.8658974609e+003,3.8652563477e+003,3.8485898438e+003,3.8955129395e+003,
9.0625000000e-001,3.8047436523e+003,3.8358974609e+003,3.8952563477e+003,3.8539743652e+003,3.8356411133e+003,3.8807692871e+003,3.8983332520e+003,3.9312819824e+003,3.9098718262e+003,3.7339743652e+003,3.8770512695e+003,3.8855129395e+003,3.8798718262e+003,3.9215385742e+003,
9.1406250000e-001,3.7523076172e+003,3.7780769043e+003,3.8374357910e+003,3.7978205566e+003,3.7780769043e+003,3.8275642090e+003,3.8448718262e+003,3.8737180176e+003,3.8550000000e+003,3.6707692871e+003,3.8148718262e+003,3.8229487305e+003,3.8224357910e+003,3.8630769043e+003,
9.2187500000e-001,3.8030769043e+003,3.8193588867e+003,3.8707692871e+003,3.8424357910e+003,3.8135898438e+003,3.8707692871e+003,3.8905129395e+003,3.9028205566e+003,3.8856411133e+003,3.7119230957e+003,3.8532050781e+003,3.8552563477e+003,3.8628205566e+003,3.8987180176e+003,
9.2968750000e-001,3.9248718262e+003,3.9338461914e+003,3.9805129395e+003,3.9574357910e+003,3.9234614258e+003,3.9830769043e+003,4.0011538086e+003,4.0101281738e+003,3.9921794434e+003,3.8330769043e+003,3.9687180176e+003,3.9694870605e+003,3.9779487305e+003,4.0110256348e+003,
9.3750000000e-001,4.0939743652e+003,4.0829487305e+003,4.1273076172e+003,4.1064101563e+003,4.0888461914e+003,4.1293588867e+003,4.1373076172e+003,4.1573076172e+003,4.1389741211e+003,3.9933332520e+003,4.1266665039e+003,4.1221796875e+003,4.1260258789e+003,4.1589741211e+003,
9.4531250000e-001,4.0082050781e+003,3.9944870605e+003,4.0444870605e+003,4.0214101563e+003,4.0088461914e+003,4.0455129395e+003,4.0535898438e+003,4.0701281738e+003,4.0511538086e+003,3.8989743652e+003,4.0371794434e+003,4.0351281738e+003,4.0326923828e+003,4.0715385742e+003,
9.5312500000e-001,3.9188461914e+003,3.9016667480e+003,3.9579487305e+003,3.9347436523e+003,3.9155129395e+003,3.9576923828e+003,3.9667949219e+003,3.9744870605e+003,3.9556411133e+003,3.7978205566e+003,3.9389743652e+003,3.9446154785e+003,3.9346154785e+003,3.9800000000e+003,
9.6093750000e-001,3.8760256348e+003,3.8535898438e+003,3.9128205566e+003,3.8935898438e+003,3.8576923828e+003,3.9107692871e+003,3.9207692871e+003,3.9185898438e+003,3.9014101563e+003,3.7424357910e+003,3.8826923828e+003,3.8980769043e+003,3.8838461914e+003,3.9324357910e+003,
9.6875000000e-001,3.9724357910e+003,3.9258974609e+003,3.9779487305e+003,3.9608974609e+003,3.9257692871e+003,3.9591025391e+003,3.9707692871e+003,3.9589743652e+003,3.9502563477e+003,3.8041025391e+003,3.9476923828e+003,3.9632050781e+003,3.9693588867e+003,4.0042307129e+003,
9.7656250000e-001,3.9266667480e+003,3.8534614258e+003,3.9305129395e+003,3.9017949219e+003,3.8457692871e+003,3.8771794434e+003,3.8961538086e+003,3.8902563477e+003,3.8925642090e+003,3.7482050781e+003,3.9066667480e+003,3.9214101563e+003,3.8883332520e+003,3.9487180176e+003,
9.8437500000e-001,3.8387180176e+003,3.7555129395e+003,3.8380769043e+003,3.8096154785e+003,3.7478205566e+003,3.7758974609e+003,3.8026923828e+003,3.8033332520e+003,3.8088461914e+003,3.6580769043e+003,3.8152563477e+003,3.8338461914e+003,3.8006411133e+003,3.8597436523e+003,
9.9218750000e-001,3.5685898438e+003,3.4693588867e+003,3.5666667480e+003,3.5275642090e+003,3.4715385742e+003,3.5028205566e+003,3.5421794434e+003,3.5541025391e+003,3.5619230957e+003,3.3830769043e+003,3.5266667480e+003,3.5576923828e+003,3.5380769043e+003,3.5905129395e+003,
1.0000000000e+000,3.3061538086e+003,3.1760256348e+003,3.2869230957e+003,3.2585898438e+003,3.1680769043e+003,3.2629487305e+003,3.3019230957e+003,3.3110256348e+003,3.3066667480e+003,3.0850000000e+003,3.2452563477e+003,3.2761538086e+003,3.2343588867e+003,3.3117949219e+003,
1.0078125000e+000,3.3102563477e+003,3.1711538086e+003,3.2778205566e+003,3.2591025391e+003,3.1632050781e+003,3.2606411133e+003,3.3001281738e+003,3.3044870605e+003,3.2992307129e+003,3.0811538086e+003,3.2375642090e+003,3.2675642090e+003,3.2321794434e+003,3.3060256348e+003,
1.0156250000e+000,3.2937180176e+003,3.1401281738e+003,3.2441025391e+003,3.2426923828e+003,3.1483332520e+003,3.2360256348e+003,3.2741025391e+003,3.2739743652e+003,3.2729487305e+003,3.0611538086e+003,3.1856411133e+003,3.2294870605e+003,3.2120512695e+003,3.2748718262e+003,
1.0234375000e+000,3.2661538086e+003,3.1092307129e+003,3.2126923828e+003,3.2175642090e+003,3.1289743652e+003,3.2076923828e+003,3.2444870605e+003,3.2437180176e+003,3.2450000000e+003,3.0301281738e+003,3.1470512695e+003,3.1960256348e+003,3.1762819824e+003,3.2426923828e+003,
1.0312500000e+000,3.3348718262e+003,3.1811538086e+003,3.2558974609e+003,3.2765385742e+003,3.2064101563e+003,3.2682050781e+003,3.3001281738e+003,3.2878205566e+003,3.2911538086e+003,3.0696154785e+003,3.2196154785e+003,3.2350000000e+003,3.2152563477e+003,3.2889743652e+003,
1.0390625000e+000,3.4293588867e+003,3.2742307129e+003,3.3396154785e+003,3.3634614258e+003,3.2923076172e+003,3.3575642090e+003,3.3865385742e+003,3.3693588867e+003,3.3734614258e+003,3.1614101563e+003,3.3121794434e+003,3.3171794434e+003,3.3143588867e+003,3.3750000000e+003,
1.0468750000e+000,3.5223076172e+003,3.3635898438e+003,3.4256411133e+003,3.4489743652e+003,3.3756411133e+003,3.4447436523e+003,3.4708974609e+003,3.4519230957e+003,3.4565385742e+003,3.2565385742e+003,3.3974357910e+003,3.4026923828e+003,3.4156411133e+003,3.4629487305e+003,
1.0546875000e+000,3.5876923828e+003,3.4250000000e+003,3.4882050781e+003,3.5075642090e+003,3.4348718262e+003,3.5033332520e+003,3.5274357910e+003,3.5107692871e+003,3.5150000000e+003,3.3244870605e+003,3.4524357910e+003,3.4667949219e+003,3.4857692871e+003,3.5270512695e+003,
1.0625000000e+000,3.5802563477e+003,3.4091025391e+003,3.4864101563e+003,3.5008974609e+003,3.4237180176e+003,3.4725642090e+003,3.4971794434e+003,3.4761538086e+003,3.4793588867e+003,3.3025642090e+003,3.4423076172e+003,3.4708974609e+003,3.4520512695e+003,3.5155129395e+003,
1.0703125000e+000,3.6073076172e+003,3.4330769043e+003,3.5110256348e+003,3.5264101563e+003,3.4394870605e+003,3.4934614258e+003,3.5175642090e+003,3.4879487305e+003,3.4933332520e+003,3.3241025391e+003,3.4716667480e+003,3.4906411133e+003,3.4765385742e+003,3.5361538086e+003,
1.0781250000e+000,3.7766667480e+003,3.6105129395e+003,3.6648718262e+003,3.6748718262e+003,3.5948718262e+003,3.6370512695e+003,3.6611538086e+003,3.6400000000e+003,3.6487180176e+003,3.4982050781e+003,3.6389743652e+003,3.6455129395e+003,3.6573076172e+003,3.6973076172e+003,
1.0859375000e+000,3.8120512695e+003,3.6433332520e+003,3.7016667480e+003,3.7042307129e+003,3.6253845215e+003,3.6576923828e+003,3.6887180176e+003,3.6747436523e+003,3.6833332520e+003,3.5256411133e+003,3.6534614258e+003,3.6837180176e+003,3.6857692871e+003,3.7247436523e+003,
1.0937500000e+000,3.8611538086e+003,3.6902563477e+003,3.7492307129e+003,3.7517949219e+003,3.6752563477e+003,3.7064101563e+003,3.7375642090e+003,3.7258974609e+003,3.7358974609e+003,3.5756411133e+003,3.7044870605e+003,3.7315385742e+003,3.7332050781e+003,3.7696154785e+003,
1.1015625000e+000,3.8742307129e+003,3.7082050781e+003,3.7693588867e+003,3.7735898438e+003,3.7230769043e+003,3.7382050781e+003,3.7683332520e+003,3.7808974609e+003,3.7846154785e+003,3.6180769043e+003,3.7500000000e+003,3.7652563477e+003,3.7488461914e+003,3.7923076172e+003,
1.1093750000e+000,3.6383332520e+003,3.4688461914e+003,3.5405129395e+003,3.5560256348e+003,3.4833332520e+003,3.5297436523e+003,3.5580769043e+003,3.5625642090e+003,3.5515385742e+003,3.3774357910e+003,3.5089743652e+003,3.5301281738e+003,3.5175642090e+003,3.5585898438e+003,
1.1171875000e+000,3.6133332520e+003,3.4434614258e+003,3.5124357910e+003,3.5300000000e+003,3.4497436523e+003,3.5071794434e+003,3.5365385742e+003,3.5373076172e+003,3.5264101563e+003,3.3450000000e+003,3.4796154785e+003,3.5014101563e+003,3.4911538086e+003,3.5315385742e+003,
1.1250000000e+000,3.6156411133e+003,3.4460256348e+003,3.5115385742e+003,3.5305129395e+003,3.4493588867e+003,3.5087180176e+003,3.5402563477e+003,3.5410256348e+003,3.5324357910e+003,3.3446154785e+003,3.4812819824e+003,3.5041025391e+003,3.4910256348e+003,3.5342307129e+003,
1.1328125000e+000,3.5846154785e+003,3.4116667480e+003,3.4782050781e+003,3.4988461914e+003,3.4288461914e+003,3.4750000000e+003,3.5078205566e+003,3.5175642090e+003,3.5142307129e+003,3.3238461914e+003,3.4528205566e+003,3.4802563477e+003,3.4585898438e+003,3.5069230957e+003,
1.1406250000e+000,3.3579487305e+003,3.1651281738e+003,3.2502563477e+003,3.2626923828e+003,3.1697436523e+003,3.2541025391e+003,3.2844870605e+003,3.2792307129e+003,3.2770512695e+003,3.0796154785e+003,3.1985898438e+003,3.2378205566e+003,3.2270512695e+003,3.2671794434e+003,
1.1484375000e+000,3.3339743652e+003,3.1353845215e+003,3.2216667480e+003,3.2391025391e+003,3.1307692871e+003,3.2278205566e+003,3.2606411133e+003,3.2434614258e+003,3.2416667480e+003,3.0414101563e+003,3.1684614258e+003,3.2051281738e+003,3.1970512695e+003,3.2362819824e+003,
1.1562500000e+000,3.3525642090e+003,3.1494870605e+003,3.2333332520e+003,3.2624357910e+003,3.1458974609e+003,3.2402563477e+003,3.2755129395e+003,3.2506411133e+003,3.2497436523e+003,3.0476923828e+003,3.1860256348e+003,3.2179487305e+003,3.2069230957e+003,3.2489743652e+003,
1.1640625000e+000,3.4553845215e+003,3.2453845215e+003,3.3212819824e+003,3.3728205566e+003,3.2729487305e+003,3.3243588867e+003,3.3598718262e+003,3.3328205566e+003,3.3332050781e+003,3.1282050781e+003,3.2846154785e+003,3.3132050781e+003,3.2878205566e+003,3.3417949219e+003,
1.1718750000e+000,3.5214101563e+003,3.3112819824e+003,3.3816667480e+003,3.4325642090e+003,3.3525642090e+003,3.3810256348e+003,3.4142307129e+003,3.3878205566e+003,3.3883332520e+003,3.1851281738e+003,3.3438461914e+003,3.3744870605e+003,3.3488461914e+003,3.4025642090e+003,
1.1796875000e+000,3.5871794434e+003,3.3814101563e+003,3.4442307129e+003,3.4857692871e+003,3.4229487305e+003,3.4393588867e+003,3.4698718262e+003,3.4437180176e+003,3.4434614258e+003,3.2482050781e+003,3.4046154785e+003,3.4356411133e+003,3.4175642090e+003,3.4646154785e+003,
1.1875000000e+000,3.6267949219e+003,3.4251281738e+003,3.4852563477e+003,3.5194870605e+003,3.4235898438e+003,3.4514101563e+003,3.4848718262e+003,3.4639743652e+003,3.4619230957e+003,3.2962819824e+003,3.4644870605e+003,3.4858974609e+003,3.4600000000e+003,3.5120512695e+003,
1.1953125000e+000,3.6326923828e+003,3.4261538086e+003,3.4876923828e+003,3.5256411133e+003,3.4319230957e+003,3.4492307129e+003,3.4817949219e+003,3.4638461914e+003,3.4687180176e+003,3.2958974609e+003,3.4693588867e+003,3.4912819824e+003,3.4614101563e+003,3.5148718262e+003,
1.2031250000e+000,3.5156411133e+003,3.3014101563e+003,3.3732050781e+003,3.4206411133e+003,3.3115385742e+003,3.3379487305e+003,3.3648718262e+003,3.3511538086e+003,3.3669230957e+003,3.1887180176e+003,3.3421794434e+003,3.3697436523e+003,3.3591025391e+003,3.3973076172e+003,
1.2109375000e+000,3.2923076172e+003,3.0676923828e+003,3.1487180176e+003,3.2015385742e+003,3.0752563477e+003,3.1388461914e+003,3.1692307129e+003,3.1506411133e+003,3.1625642090e+003,2.9438461914e+003,3.1037180176e+003,3.1417949219e+003,3.1176923828e+003,3.1720512695e+003,
1.2187500000e+000,3.3038461914e+003,3.0789743652e+003,3.1548718262e+003,3.2025642090e+003,3.0812819824e+003,3.1530769043e+003,3.1862819824e+003,3.1665385742e+003,3.1734614258e+003,2.9452563477e+003,3.1124357910e+003,3.1492307129e+003,3.1226923828e+003,3.1807692871e+003,
1.2265625000e+000,3.3944870605e+003,3.1742307129e+003,3.2375642090e+003,3.2875642090e+003,3.1973076172e+003,3.2500000000e+003,3.2878205566e+003,3.2733332520e+003,3.2697436523e+003,3.0451281738e+003,3.2015385742e+003,3.2329487305e+003,3.2187180176e+003,3.2683332520e+003,
1.2343750000e+000,3.4224357910e+003,3.2041025391e+003,3.2650000000e+003,3.3228205566e+003,3.2348718262e+003,3.2825642090e+003,3.3207692871e+003,3.3079487305e+003,3.3039743652e+003,3.0791025391e+003,3.2307692871e+003,3.2639743652e+003,3.2470512695e+003,3.2975642090e+003,
1.2421875000e+000,3.5726923828e+003,3.3567949219e+003,3.4112819824e+003,3.4764101563e+003,3.3803845215e+003,3.4351281738e+003,3.4715385742e+003,3.4578205566e+003,3.4489743652e+003,3.2316667480e+003,3.3876923828e+003,3.4176923828e+003,3.3914101563e+003,3.4479487305e+003,
1.2500000000e+000,3.6976923828e+003,3.4843588867e+003,3.5326923828e+003,3.5973076172e+003,3.5026923828e+003,3.5557692871e+003,3.5896154785e+003,3.5741025391e+003,3.5617949219e+003,3.3584614258e+003,3.5182050781e+003,3.5385898438e+003,3.5161538086e+003,3.5701281738e+003,
1.2578125000e+000,4.0657692871e+003,3.8817949219e+003,3.9017949219e+003,3.9655129395e+003,3.9096154785e+003,3.9166667480e+003,3.9389743652e+003,3.9252563477e+003,3.9052563477e+003,3.7520512695e+003,3.9038461914e+003,3.8992307129e+003,3.9046154785e+003,3.9328205566e+003,
1.2656250000e+000,4.1617949219e+003,3.9897436523e+003,4.0021794434e+003,4.0637180176e+003,4.0134614258e+003,4.0130769043e+003,4.0324357910e+003,4.0221794434e+003,3.9979487305e+003,3.8534614258e+003,4.0002563477e+003,4.0001281738e+003,4.0061538086e+003,4.0303845215e+003,
1.2734375000e+000,4.3292309570e+003,4.1730771484e+003,4.1732050781e+003,4.2310258789e+003,4.1723076172e+003,4.1733334961e+003,4.1900000000e+003,4.1865385742e+003,4.1556411133e+003,4.0239743652e+003,4.1687177734e+003,4.1758974609e+003,4.1764101563e+003,4.2002563477e+003,
1.2812500000e+000,4.3658974609e+003,4.2158974609e+003,4.2112822266e+003,4.2684614258e+003,4.2080771484e+003,4.2052563477e+003,4.2205126953e+003,4.2203847656e+003,4.1906411133e+003,4.0666667480e+003,4.2161538086e+003,4.2176923828e+003,4.2156411133e+003,4.2401284180e+003,
1.2890625000e+000,4.0967949219e+003,3.9550000000e+003,3.9658974609e+003,4.0092307129e+003,3.9471794434e+003,3.9435898438e+003,3.9526923828e+003,3.9566667480e+003,3.9398718262e+003,3.8138461914e+003,3.9838461914e+003,3.9766667480e+003,3.9651281738e+003,3.9991025391e+003,
1.2968750000e+000,3.9679487305e+003,3.8211538086e+003,3.8453845215e+003,3.8833332520e+003,3.8057692871e+003,3.8188461914e+003,3.8283332520e+003,3.8297436523e+003,3.8158974609e+003,3.6780769043e+003,3.8478205566e+003,3.8512819824e+003,3.8406411133e+003,3.8764101563e+003,
1.3046875000e+000,3.8805129395e+003,3.7257692871e+003,3.7610256348e+003,3.7970512695e+003,3.7019230957e+003,3.7296154785e+003,3.7420512695e+003,3.7406411133e+003,3.7298718262e+003,3.5794870605e+003,3.7470512695e+003,3.7623076172e+003,3.7526923828e+003,3.7882050781e+003,
1.3125000000e+000,3.7544870605e+003,3.5983332520e+003,3.6230769043e+003,3.6570512695e+003,3.5870512695e+003,3.5932050781e+003,3.6183332520e+003,3.6074357910e+003,3.6151281738e+003,3.4293588867e+003,3.6014101563e+003,3.6237180176e+003,3.5903845215e+003,3.6491025391e+003,
1.3203125000e+000,3.7267949219e+003,3.5703845215e+003,3.5984614258e+003,3.6306411133e+003,3.5646154785e+003,3.5758974609e+003,3.5983332520e+003,3.5858974609e+003,3.5897436523e+003,3.4032050781e+003,3.5743588867e+003,3.5946154785e+003,3.5643588867e+003,3.6238461914e+003,
1.3281250000e+000,3.6556411133e+003,3.4898718262e+003,3.5319230957e+003,3.5647436523e+003,3.4864101563e+003,3.5220512695e+003,3.5439743652e+003,3.5317949219e+003,3.5270512695e+003,3.3194870605e+003,3.5051281738e+003,3.5261538086e+003,3.5007692871e+003,3.5558974609e+003,
1.3359375000e+000,3.5250000000e+003,3.3534614258e+003,3.3911538086e+003,3.4370512695e+003,3.3521794434e+003,3.4019230957e+003,3.4300000000e+003,3.4184614258e+003,3.4070512695e+003,3.1898718262e+003,3.3615385742e+003,3.3893588867e+003,3.3582050781e+003,3.4184614258e+003,
1.3437500000e+000,3.5260256348e+003,3.3521794434e+003,3.3888461914e+003,3.4389743652e+003,3.3628205566e+003,3.4053845215e+003,3.4356411133e+003,3.4188461914e+003,3.4070512695e+003,3.1943588867e+003,3.3576923828e+003,3.3843588867e+003,3.3589743652e+003,3.4148718262e+003,
1.3515625000e+000,3.7169230957e+003,3.5391025391e+003,3.5688461914e+003,3.6196154785e+003,3.5574357910e+003,3.5957692871e+003,3.6200000000e+003,3.6057692871e+003,3.5979487305e+003,3.3885898438e+003,3.5550000000e+003,3.5647436523e+003,3.5570512695e+003,3.5979487305e+003,
1.3593750000e+000,3.7592307129e+003,3.5802563477e+003,3.6114101563e+003,3.6584614258e+003,3.5874357910e+003,3.6373076172e+003,3.6587180176e+003,3.6473076172e+003,3.6370512695e+003,3.4298718262e+003,3.5994870605e+003,3.6078205566e+003,3.5965385742e+003,3.6402563477e+003,
1.3671875000e+000,3.7958974609e+003,3.6161538086e+003,3.6517949219e+003,3.6967949219e+003,3.6138461914e+003,3.6635898438e+003,3.6837180176e+003,3.6702563477e+003,3.6526923828e+003,3.4610256348e+003,3.6287180176e+003,3.6441025391e+003,3.6208974609e+003,3.6739743652e+003,
1.3750000000e+000,3.8212819824e+003,3.6434614258e+003,3.6766667480e+003,3.7238461914e+003,3.6453845215e+003,3.6800000000e+003,3.6996154785e+003,3.6844870605e+003,3.6652563477e+003,3.4815385742e+003,3.6482050781e+003,3.6680769043e+003,3.6420512695e+003,3.6964101563e+003,
1.3828125000e+000,3.9311538086e+003,3.7603845215e+003,3.7883332520e+003,3.8279487305e+003,3.7607692871e+003,3.7666667480e+003,3.7860256348e+003,3.7719230957e+003,3.7493588867e+003,3.5830769043e+003,3.7555129395e+003,3.7810256348e+003,3.7605129395e+003,3.8076923828e+003,
1.3906250000e+000,3.9360256348e+003,3.7667949219e+003,3.7983332520e+003,3.8312819824e+003,3.7579487305e+003,3.7635898438e+003,3.7847436523e+003,3.7744870605e+003,3.7537180176e+003,3.5955129395e+003,3.7692307129e+003,3.7908974609e+003,3.7705129395e+003,3.8182050781e+003,
1.3984375000e+000,3.8129487305e+003,3.6498718262e+003,3.6860256348e+003,3.7162819824e+003,3.6257692871e+003,3.6319230957e+003,3.6551281738e+003,3.6529487305e+003,3.6466667480e+003,3.4960256348e+003,3.6682050781e+003,3.6823076172e+003,3.6596154785e+003,3.7112819824e+003,
1.4062500000e+000,3.7115385742e+003,3.5512819824e+003,3.5879487305e+003,3.6216667480e+003,3.5257692871e+003,3.5333332520e+003,3.5567949219e+003,3.5539743652e+003,3.5561538086e+003,3.4000000000e+003,3.5708974609e+003,3.5869230957e+003,3.5646154785e+003,3.6167949219e+003,
1.4140625000e+000,3.6276923828e+003,3.4651281738e+003,3.4976923828e+003,3.5326923828e+003,3.4423076172e+003,3.4603845215e+003,3.4834614258e+003,3.4696154785e+003,3.4806411133e+003,3.2974357910e+003,3.4616667480e+003,3.4978205566e+003,3.4789743652e+003,3.5287180176e+003,
1.4218750000e+000,3.6896154785e+003,3.5244870605e+003,3.5557692871e+003,3.5905129395e+003,3.5003845215e+003,3.5200000000e+003,3.5443588867e+003,3.5279487305e+003,3.5392307129e+003,3.3533332520e+003,3.5158974609e+003,3.5556411133e+003,3.5334614258e+003,3.5856411133e+003,
1.4296875000e+000,3.7753845215e+003,3.6089743652e+003,3.6397436523e+003,3.6769230957e+003,3.5841025391e+003,3.6032050781e+003,3.6296154785e+003,3.6098718262e+003,3.6216667480e+003,3.4370512695e+003,3.6019230957e+003,3.6396154785e+003,3.6137180176e+003,3.6689743652e+003,
1.4375000000e+000,4.2992309570e+003,4.1814101563e+003,4.1712822266e+003,4.2080771484e+003,4.1570512695e+003,4.1683334961e+003,4.1801284180e+003,4.1820512695e+003,4.1614101563e+003,4.0298718262e+003,4.1851284180e+003,4.1841025391e+003,4.1674360352e+003,4.2064101563e+003,
1.4453125000e+000,4.2867949219e+003,4.1739741211e+003,4.1635898438e+003,4.1935898438e+003,4.1598715820e+003,4.1626923828e+003,4.1735898438e+003,4.1824360352e+003,4.1569228516e+003,4.0274357910e+003,4.1712822266e+003,4.1817949219e+003,4.1520512695e+003,4.1980771484e+003,
1.4531250000e+000,4.3124360352e+003,4.2108974609e+003,4.2006411133e+003,4.2258974609e+003,4.2164101563e+003,4.2041025391e+003,4.2215385742e+003,4.2200000000e+003,4.1901284180e+003,4.0614101563e+003,4.1979487305e+003,4.2046152344e+003,4.1960258789e+003,4.2250000000e+003,
1.4609375000e+000,4.4130771484e+003,4.3194873047e+003,4.3060258789e+003,4.3330771484e+003,4.3230771484e+003,4.3114101563e+003,4.3279487305e+003,4.3261538086e+003,4.2923076172e+003,4.1728203125e+003,4.3106411133e+003,4.3055126953e+003,4.3134614258e+003,4.3262822266e+003,
1.4687500000e+000,4.5239741211e+003,4.4483334961e+003,4.4271796875e+003,4.4560258789e+003,4.4396152344e+003,4.4323076172e+003,4.4428203125e+003,4.4589741211e+003,4.4170512695e+003,4.3139741211e+003,4.4519228516e+003,4.4387177734e+003,4.4448715820e+003,4.4494873047e+003,
1.4765625000e+000,3.9651281738e+003,3.8850000000e+003,3.8966667480e+003,3.9152563477e+003,3.8674357910e+003,3.8803845215e+003,3.8996154785e+003,3.9123076172e+003,3.8747436523e+003,3.7446154785e+003,3.8839743652e+003,3.9114101563e+003,3.8743588867e+003,3.9192307129e+003,
1.4843750000e+000,3.8402563477e+003,3.7480769043e+003,3.7747436523e+003,3.7912819824e+003,3.7341025391e+003,3.7523076172e+003,3.7747436523e+003,3.7762819824e+003,3.7424357910e+003,3.6047436523e+003,3.7488461914e+003,3.7819230957e+003,3.7450000000e+003,3.7926923828e+003,
1.4921875000e+000,3.7141025391e+003,3.6039743652e+003,3.6423076172e+003,3.6600000000e+003,3.5906411133e+003,3.6150000000e+003,3.6389743652e+003,3.6276923828e+003,3.6001281738e+003,3.4610256348e+003,3.6196154785e+003,3.6438461914e+003,3.6142307129e+003,3.6623076172e+003,
1.5000000000e+000,3.6846154785e+003,3.5716667480e+003,3.6091025391e+003,3.6283332520e+003,3.5515385742e+003,3.5807692871e+003,3.6051281738e+003,3.5914101563e+003,3.5669230957e+003,3.4297436523e+003,3.5928205566e+003,3.6126923828e+003,3.5844870605e+003,3.6347436523e+003,
1.5078125000e+000,3.6326923828e+003,3.5146154785e+003,3.5552563477e+003,3.5815385742e+003,3.4887180176e+003,3.5178205566e+003,3.5428205566e+003,3.5262819824e+003,3.5205129395e+003,3.3802563477e+003,3.5237180176e+003,3.5614101563e+003,3.5282050781e+003,3.5847436523e+003,
1.5156250000e+000,3.6132050781e+003,3.4901281738e+003,3.5352563477e+003,3.5652563477e+003,3.4739743652e+003,3.4973076172e+003,3.5206411133e+003,3.5048718262e+003,3.5073076172e+003,3.3632050781e+003,3.5000000000e+003,3.5410256348e+003,3.5069230957e+003,3.5621794434e+003,
1.5234375000e+000,3.5543588867e+003,3.4232050781e+003,3.4739743652e+003,3.5083332520e+003,3.4162819824e+003,3.4435898438e+003,3.4643588867e+003,3.4461538086e+003,3.4605129395e+003,3.3074357910e+003,3.4451281738e+003,3.4792307129e+003,3.4485898438e+003,3.4996154785e+003,
1.5312500000e+000,3.5393588867e+003,3.4073076172e+003,3.4557692871e+003,3.4925642090e+003,3.3992307129e+003,3.4310256348e+003,3.4526923828e+003,3.4303845215e+003,3.4476923828e+003,3.2908974609e+003,3.4326923828e+003,3.4602563477e+003,3.4337180176e+003,3.4829487305e+003,
1.5390625000e+000,3.6338461914e+003,3.4979487305e+003,3.5355129395e+003,3.5866667480e+003,3.5105129395e+003,3.5239743652e+003,3.5491025391e+003,3.5274357910e+003,3.5428205566e+003,3.3797436523e+003,3.5193588867e+003,3.5419230957e+003,3.5278205566e+003,3.5639743652e+003,
1.5468750000e+000,3.6630769043e+003,3.5262819824e+003,3.5635898438e+003,3.6128205566e+003,3.5461538086e+003,3.5560256348e+003,3.5812819824e+003,3.5655129395e+003,3.5762819824e+003,3.4120512695e+003,3.5416667480e+003,3.5703845215e+003,3.5611538086e+003,3.5897436523e+003,
1.5546875000e+000,3.6752563477e+003,3.5408974609e+003,3.5771794434e+003,3.6205129395e+003,3.5612819824e+003,3.5747436523e+003,3.6001281738e+003,3.5896154785e+003,3.5953845215e+003,3.4301281738e+003,3.5483332520e+003,3.5830769043e+003,3.5788461914e+003,3.6012819824e+003,
1.5625000000e+000,3.6774357910e+003,3.5483332520e+003,3.5814101563e+003,3.6196154785e+003,3.5629487305e+003,3.5855129395e+003,3.6114101563e+003,3.6039743652e+003,3.6057692871e+003,3.4398718262e+003,3.5498718262e+003,3.5867949219e+003,3.5843588867e+003,3.6050000000e+003,
1.5703125000e+000,3.6806411133e+003,3.5485898438e+003,3.5857692871e+003,3.6350000000e+003,3.5578205566e+003,3.6005129395e+003,3.6284614258e+003,3.6226923828e+003,3.6173076172e+003,3.4503845215e+003,3.5767949219e+003,3.6008974609e+003,3.5760256348e+003,3.6114101563e+003,
1.5781250000e+000,3.8006411133e+003,3.6812819824e+003,3.7035898438e+003,3.7574357910e+003,3.6655129395e+003,3.7051281738e+003,3.7341025391e+003,3.7356411133e+003,3.7180769043e+003,3.5810256348e+003,3.6841025391e+003,3.7157692871e+003,3.7246154785e+003,3.7205129395e+003,
1.5859375000e+000,3.7810256348e+003,3.6615385742e+003,3.6826923828e+003,3.7446154785e+003,3.6344870605e+003,3.6792307129e+003,3.7085898438e+003,3.7089743652e+003,3.6900000000e+003,3.5564101563e+003,3.6594870605e+003,3.6970512695e+003,3.7005129395e+003,3.6998718262e+003,
1.5937500000e+000,3.7779487305e+003,3.6517949219e+003,3.6748718262e+003,3.7512819824e+003,3.6398718262e+003,3.6639743652e+003,3.6926923828e+003,3.6844870605e+003,3.6644870605e+003,3.5356411133e+003,3.6511538086e+003,3.6934614258e+003,3.6807692871e+003,3.6902563477e+003,
1.6015625000e+000,4.0193588867e+003,3.9069230957e+003,3.9202563477e+003,3.9738461914e+003,3.9094870605e+003,3.8844870605e+003,3.9125642090e+003,3.8987180176e+003,3.8758974609e+003,3.7728205566e+003,3.9162819824e+003,3.9388461914e+003,3.9228205566e+003,3.9320512695e+003,
1.6093750000e+000,4.0157692871e+003,3.9061538086e+003,3.9193588867e+003,3.9655129395e+003,3.8919230957e+003,3.8792307129e+003,3.9057692871e+003,3.8937180176e+003,3.8742307129e+003,3.7689743652e+003,3.9132050781e+003,3.9370512695e+003,3.9234614258e+003,3.9303845215e+003,
1.6171875000e+000,3.9903845215e+003,3.8846154785e+003,3.8993588867e+003,3.9419230957e+003,3.8601281738e+003,3.8587180176e+003,3.8807692871e+003,3.8641025391e+003,3.8551281738e+003,3.7467949219e+003,3.8719230957e+003,3.9133332520e+003,3.9046154785e+003,3.9050000000e+003,
1.6250000000e+000,4.0135898438e+003,3.9093588867e+003,3.9250000000e+003,3.9701281738e+003,3.8937180176e+003,3.8853845215e+003,3.9050000000e+003,3.8847436523e+003,3.8801281738e+003,3.7751281738e+003,3.8911538086e+003,3.9376923828e+003,3.9282050781e+003,3.9282050781e+003,
1.6328125000e+000,4.0532050781e+003,3.9669230957e+003,3.9703845215e+003,4.0235898438e+003,3.9567949219e+003,3.9529487305e+003,3.9630769043e+003,3.9485898438e+003,3.9484614258e+003,3.8428205566e+003,3.9658974609e+003,3.9908974609e+003,3.9741025391e+003,3.9774357910e+003,
1.6406250000e+000,4.0238461914e+003,3.9451281738e+003,3.9420512695e+003,3.9957692871e+003,3.9275642090e+003,3.9384614258e+003,3.9470512695e+003,3.9323076172e+003,3.9312819824e+003,3.8184614258e+003,3.9447436523e+003,3.9662819824e+003,3.9497436523e+003,3.9498718262e+003,
1.6484375000e+000,4.0688461914e+003,3.9988461914e+003,3.9898718262e+003,4.0384614258e+003,3.9819230957e+003,4.0016667480e+003,4.0117949219e+003,3.9910256348e+003,3.9861538086e+003,3.8650000000e+003,3.9833332520e+003,4.0112819824e+003,4.0032050781e+003,3.9906411133e+003,
1.6562500000e+000,4.1400000000e+003,4.0717949219e+003,4.0647436523e+003,4.1082050781e+003,4.0638461914e+003,4.0747436523e+003,4.0860256348e+003,4.0676923828e+003,4.0615385742e+003,3.9402563477e+003,4.0523076172e+003,4.0821794434e+003,4.0766667480e+003,4.0606411133e+003,
1.6640625000e+000,4.0292307129e+003,3.9629487305e+003,3.9703845215e+003,4.0123076172e+003,3.9783332520e+003,3.9762819824e+003,3.9885898438e+003,3.9930769043e+003,3.9870512695e+003,3.8552563477e+003,3.9687180176e+003,3.9883332520e+003,3.9648718262e+003,3.9612819824e+003,
1.6718750000e+000,3.8952563477e+003,3.8297436523e+003,3.8392307129e+003,3.8867949219e+003,3.8461538086e+003,3.8519230957e+003,3.8639743652e+003,3.8687180176e+003,3.8619230957e+003,3.7255129395e+003,3.8378205566e+003,3.8576923828e+003,3.8333332520e+003,3.8297436523e+003,
1.6796875000e+000,3.7928205566e+003,3.7269230957e+003,3.7373076172e+003,3.7897436523e+003,3.7433332520e+003,3.7565385742e+003,3.7689743652e+003,3.7706411133e+003,3.7612819824e+003,3.6228205566e+003,3.7314101563e+003,3.7553845215e+003,3.7357692871e+003,3.7285898438e+003,
1.6875000000e+000,3.7491025391e+003,3.6808974609e+003,3.6926923828e+003,3.7460256348e+003,3.6974357910e+003,3.7141025391e+003,3.7282050781e+003,3.7266667480e+003,3.7133332520e+003,3.5739743652e+003,3.6811538086e+003,3.7110256348e+003,3.6964101563e+003,3.6869230957e+003,
1.6953125000e+000,3.9069230957e+003,3.8369230957e+003,3.8410256348e+003,3.8907692871e+003,3.8433332520e+003,3.8402563477e+003,3.8621794434e+003,3.8607692871e+003,3.8462819824e+003,3.7058974609e+003,3.8315385742e+003,3.8662819824e+003,3.8458974609e+003,3.8487180176e+003,
1.7031250000e+000,3.9978205566e+003,3.9223076172e+003,3.9350000000e+003,3.9735898438e+003,3.8962819824e+003,3.8989743652e+003,3.9217949219e+003,3.9225642090e+003,3.8966667480e+003,3.7951281738e+003,3.9232050781e+003,3.9642307129e+003,3.9380769043e+003,3.9411538086e+003,
1.7109375000e+000,3.9982050781e+003,3.9251281738e+003,3.9364101563e+003,3.9679487305e+003,3.8943588867e+003,3.8948718262e+003,3.9206411133e+003,3.9166667480e+003,3.8939743652e+003,3.7926923828e+003,3.9317949219e+003,3.9678205566e+003,3.9392307129e+003,3.9448718262e+003,
1.7187500000e+000,4.0979487305e+003,4.0353845215e+003,4.0330769043e+003,4.0639743652e+003,4.0207692871e+003,3.9952563477e+003,4.0224357910e+003,4.0020512695e+003,3.9882050781e+003,3.8930769043e+003,4.0437180176e+003,4.0632050781e+003,4.0412819824e+003,4.0403845215e+003,
1.7265625000e+000,4.5888461914e+003,4.5565385742e+003,4.5266665039e+003,4.5469228516e+003,4.5393588867e+003,4.5035898438e+003,4.5051284180e+003,4.4993588867e+003,4.4860258789e+003,4.4184614258e+003,4.5446152344e+003,4.5570512695e+003,4.5457690430e+003,4.5334614258e+003,
1.7343750000e+000,4.5942309570e+003,4.5725639648e+003,4.5397436523e+003,4.5598715820e+003,4.5471796875e+003,4.5214101563e+003,4.5173076172e+003,4.5183334961e+003,4.5055126953e+003,4.4394873047e+003,4.5591025391e+003,4.5694873047e+003,4.5620512695e+003,4.5443588867e+003,
1.7421875000e+000,4.5738461914e+003,4.5742309570e+003,4.5355126953e+003,4.5657690430e+003,4.5569228516e+003,4.5343588867e+003,4.5264101563e+003,4.5214101563e+003,4.5100000000e+003,4.4410258789e+003,4.5510258789e+003,4.5580771484e+003,4.5587177734e+003,4.5308974609e+003,
1.7500000000e+000,4.6115385742e+003,4.6216665039e+003,4.5771796875e+003,4.6141025391e+003,4.6144873047e+003,4.5865385742e+003,4.5769228516e+003,4.5700000000e+003,4.5574360352e+003,4.4866665039e+003,4.5971796875e+003,4.5992309570e+003,4.6001284180e+003,4.5724360352e+003,
1.7578125000e+000,4.3192309570e+003,4.3378203125e+003,4.3067949219e+003,4.3398715820e+003,4.3375639648e+003,4.3237177734e+003,4.3079487305e+003,4.3330771484e+003,4.3148715820e+003,4.2285898438e+003,4.3328203125e+003,4.3365385742e+003,4.3228203125e+003,4.3120512695e+003,
1.7656250000e+000,3.9751281738e+003,3.9852563477e+003,3.9739743652e+003,4.0017949219e+003,3.9787180176e+003,3.9901281738e+003,3.9780769043e+003,4.0050000000e+003,3.9901281738e+003,3.8861538086e+003,3.9819230957e+003,4.0002563477e+003,3.9796154785e+003,3.9773076172e+003,
1.7734375000e+000,3.3769230957e+003,3.3607692871e+003,3.3835898438e+003,3.4092307129e+003,3.3503845215e+003,3.4105129395e+003,3.4137180176e+003,3.4134614258e+003,3.4115385742e+003,3.2594870605e+003,3.3530769043e+003,3.3955129395e+003,3.3638461914e+003,3.3794870605e+003,
1.7812500000e+000,3.2817949219e+003,3.2514101563e+003,3.2820512695e+003,3.3092307129e+003,3.2496154785e+003,3.3157692871e+003,3.3255129395e+003,3.3101281738e+003,3.3133332520e+003,3.1426923828e+003,3.2444870605e+003,3.2893588867e+003,3.2556411133e+003,3.2771794434e+003,
1.7890625000e+000,3.3847436523e+003,3.3153845215e+003,3.3506411133e+003,3.3910256348e+003,3.3465385742e+003,3.3748718262e+003,3.3916667480e+003,3.3797436523e+003,3.3819230957e+003,3.2089743652e+003,3.3194870605e+003,3.3580769043e+003,3.3466667480e+003,3.3597436523e+003,
1.7968750000e+000,3.3426923828e+003,3.2629487305e+003,3.3021794434e+003,3.3496154785e+003,3.2912819824e+003,3.3161538086e+003,3.3361538086e+003,3.3306411133e+003,3.3306411133e+003,3.1623076172e+003,3.2680769043e+003,3.3112819824e+003,3.3032050781e+003,3.3165385742e+003,
1.8046875000e+000,3.2578205566e+003,3.1684614258e+003,3.2152563477e+003,3.2676923828e+003,3.1870512695e+003,3.2191025391e+003,3.2437180176e+003,3.2394870605e+003,3.2385898438e+003,3.0700000000e+003,3.1753845215e+003,3.2273076172e+003,3.2112819824e+003,3.2326923828e+003,
1.8125000000e+000,3.1732050781e+003,3.0744870605e+003,3.1302563477e+003,3.1842307129e+003,3.0816667480e+003,3.1251281738e+003,3.1543588867e+003,3.1465385742e+003,3.1457692871e+003,2.9729487305e+003,3.0848718262e+003,3.1456411133e+003,3.1150000000e+003,3.1482050781e+003,
1.8203125000e+000,3.0473076172e+003,2.9143588867e+003,2.9776923828e+003,3.0392307129e+003,2.9179487305e+003,2.9476923828e+003,2.9848718262e+003,2.9598718262e+003,2.9612819824e+003,2.7929487305e+003,2.9205129395e+003,2.9938461914e+003,2.9628205566e+003,2.9935898438e+003,
1.8281250000e+000,2.8798718262e+003,2.7069230957e+003,2.7992307129e+003,2.8491025391e+003,2.7008974609e+003,2.7605129395e+003,2.8005129395e+003,2.7632050781e+003,2.7871794434e+003,2.6048718262e+003,2.7367949219e+003,2.8087180176e+003,2.7689743652e+003,2.8107692871e+003,
1.8359375000e+000,2.8569230957e+003,2.6785898438e+003,2.7688461914e+003,2.8228205566e+003,2.6789743652e+003,2.7405129395e+003,2.7791025391e+003,2.7415385742e+003,2.7710256348e+003,2.5839743652e+003,2.7055129395e+003,2.7812819824e+003,2.7461538086e+003,2.7824357910e+003,
1.8437500000e+000,2.8080769043e+003,2.6206411133e+003,2.7010256348e+003,2.7760256348e+003,2.6334614258e+003,2.6956411133e+003,2.7351281738e+003,2.6910256348e+003,2.7280769043e+003,2.5265385742e+003,2.6279487305e+003,2.7188461914e+003,2.6841025391e+003,2.7220512695e+003,
1.8515625000e+000,3.0262819824e+003,2.8274357910e+003,2.8923076172e+003,2.9789743652e+003,2.8637180176e+003,2.9184614258e+003,2.9458974609e+003,2.9008974609e+003,2.9339743652e+003,2.7391025391e+003,2.8435898438e+003,2.9039743652e+003,2.8739743652e+003,2.9119230957e+003,
1.8593750000e+000,3.0800000000e+003,2.8810256348e+003,2.9441025391e+003,3.0280769043e+003,2.9280769043e+003,2.9757692871e+003,3.0011538086e+003,2.9597436523e+003,2.9875642090e+003,2.8010256348e+003,2.9002563477e+003,2.9551281738e+003,2.9308974609e+003,2.9611538086e+003,
1.8671875000e+000,3.0856411133e+003,2.8892307129e+003,2.9438461914e+003,3.0323076172e+003,2.9448718262e+003,2.9869230957e+003,3.0137180176e+003,2.9775642090e+003,2.9982050781e+003,2.8112819824e+003,2.8901281738e+003,2.9573076172e+003,2.9352563477e+003,2.9567949219e+003,
1.8750000000e+000,3.0678205566e+003,2.8743588867e+003,2.9215385742e+003,3.0157692871e+003,2.9237180176e+003,2.9708974609e+003,2.9983332520e+003,2.9644870605e+003,2.9839743652e+003,2.7906411133e+003,2.8589743652e+003,2.9367949219e+003,2.9142307129e+003,2.9333332520e+003,
1.8828125000e+000,3.0706411133e+003,2.8775642090e+003,2.9187180176e+003,3.0175642090e+003,2.9023076172e+003,2.9692307129e+003,2.9953845215e+003,2.9680769043e+003,2.9855129395e+003,2.7971794434e+003,2.8664101563e+003,2.9339743652e+003,2.9157692871e+003,2.9306411133e+003,
1.8906250000e+000,3.0752563477e+003,2.8782050781e+003,2.9229487305e+003,3.0200000000e+003,2.9014101563e+003,2.9657692871e+003,2.9939743652e+003,2.9670512695e+003,2.9858974609e+003,2.8043588867e+003,2.8865385742e+003,2.9391025391e+003,2.9183332520e+003,2.9367949219e+003,
1.8984375000e+000,3.0678205566e+003,2.8630769043e+003,2.9101281738e+003,3.0038461914e+003,2.8885898438e+003,2.9361538086e+003,2.9703845215e+003,2.9398718262e+003,2.9644870605e+003,2.7891025391e+003,2.8873076172e+003,2.9307692871e+003,2.9056411133e+003,2.9293588867e+003,
1.9062500000e+000,3.0667949219e+003,2.8582050781e+003,2.9039743652e+003,2.9964101563e+003,2.8800000000e+003,2.9230769043e+003,2.9585898438e+003,2.9265385742e+003,2.9524357910e+003,2.7791025391e+003,2.8721794434e+003,2.9258974609e+003,2.9042307129e+003,2.9256411133e+003,
1.9140625000e+000,3.0460256348e+003,2.8220512695e+003,2.8746154785e+003,2.9675642090e+003,2.8032050781e+003,2.8671794434e+003,2.9007692871e+003,2.8758974609e+003,2.8975642090e+003,2.7379487305e+003,2.8157692871e+003,2.8969230957e+003,2.8788461914e+003,2.8984614258e+003,
1.9218750000e+000,3.0292307129e+003,2.8021794434e+003,2.8588461914e+003,2.9514101563e+003,2.7775642090e+003,2.8394870605e+003,2.8743588867e+003,2.8502563477e+003,2.8706411133e+003,2.7158974609e+003,2.8041025391e+003,2.8823076172e+003,2.8570512695e+003,2.8819230957e+003,
1.9296875000e+000,3.0161538086e+003,2.7878205566e+003,2.8464101563e+003,2.9369230957e+003,2.7705129395e+003,2.8164101563e+003,2.8534614258e+003,2.8279487305e+003,2.8479487305e+003,2.6983332520e+003,2.7989743652e+003,2.8714101563e+003,2.8394870605e+003,2.8692307129e+003,
1.9375000000e+000,2.9997436523e+003,2.7698718262e+003,2.8293588867e+003,2.9167949219e+003,2.7702563477e+003,2.7928205566e+003,2.8308974609e+003,2.8032050781e+003,2.8239743652e+003,2.6794870605e+003,2.7878205566e+003,2.8551281738e+003,2.8203845215e+003,2.8528205566e+003,
1.9453125000e+000,2.9980769043e+003,2.7489743652e+003,2.8207692871e+003,2.9138461914e+003,2.7735898438e+003,2.7996154785e+003,2.8402563477e+003,2.7891025391e+003,2.8182050781e+003,2.6651281738e+003,2.7642307129e+003,2.8328205566e+003,2.8052563477e+003,2.8329487305e+003,
1.9531250000e+000,3.1444870605e+003,2.9021794434e+003,2.9616667480e+003,3.0592307129e+003,2.9165385742e+003,2.9492307129e+003,2.9892307129e+003,2.9357692871e+003,2.9703845215e+003,2.8129487305e+003,2.9101281738e+003,2.9746154785e+003,2.9498718262e+003,2.9741025391e+003,
1.9609375000e+000,3.5130769043e+003,3.3012819824e+003,3.3211538086e+003,3.4220512695e+003,3.3150000000e+003,3.3293588867e+003,3.3532050781e+003,3.3321794434e+003,3.3696154785e+003,3.2303845215e+003,3.2985898438e+003,3.3520512695e+003,3.3384614258e+003,3.3453845215e+003,
1.9687500000e+000,3.4034614258e+003,3.1980769043e+003,3.2265385742e+003,3.3517949219e+003,3.2058974609e+003,3.2502563477e+003,3.2719230957e+003,3.2556411133e+003,3.2762819824e+003,3.1392307129e+003,3.1996154785e+003,3.2517949219e+003,3.2292307129e+003,3.2384614258e+003,
1.9765625000e+000,3.3876923828e+003,3.1865385742e+003,3.2130769043e+003,3.3476923828e+003,3.1898718262e+003,3.2432050781e+003,3.2653845215e+003,3.2460256348e+003,3.2656411133e+003,3.1244870605e+003,3.1867949219e+003,3.2358974609e+003,3.2143588867e+003,3.2226923828e+003,
1.9843750000e+000,3.4117949219e+003,3.2247436523e+003,3.2414101563e+003,3.3764101563e+003,3.2358974609e+003,3.2780769043e+003,3.2988461914e+003,3.2746154785e+003,3.2917949219e+003,3.1491025391e+003,3.2017949219e+003,3.2620512695e+003,3.2402563477e+003,3.2483332520e+003,
1.9921875000e+000,3.4576923828e+003,3.2735898438e+003,3.2869230957e+003,3.4191025391e+003,3.2935898438e+003,3.3232050781e+003,3.3421794434e+003,3.3192307129e+003,3.3321794434e+003,3.1955129395e+003,3.2452563477e+003,3.3060256348e+003,3.2826923828e+003,3.2943588867e+003,
2.0000000000e+000,3.5266667480e+003,3.3439743652e+003,3.3553845215e+003,3.4857692871e+003,3.3735898438e+003,3.3865385742e+003,3.4038461914e+003,3.3866667480e+003,3.3939743652e+003,3.2739743652e+003,3.3279487305e+003,3.3775642090e+003,3.3471794434e+003,3.3684614258e+003,
2.0078125000e+000,3.5029487305e+003,3.3202563477e+003,3.3337180176e+003,3.4635898438e+003,3.3475642090e+003,3.3588461914e+003,3.3780769043e+003,3.3611538086e+003,3.3689743652e+003,3.2552563477e+003,3.3142307129e+003,3.3593588867e+003,3.3250000000e+003,3.3494870605e+003,
2.0156250000e+000,3.4279487305e+003,3.2584614258e+003,3.2684614258e+003,3.3873076172e+003,3.2652563477e+003,3.2692307129e+003,3.2971794434e+003,3.2657692871e+003,3.2752563477e+003,3.1742307129e+003,3.2437180176e+003,3.2920512695e+003,3.2671794434e+003,3.2817949219e+003,
2.0234375000e+000,3.5516667480e+003,3.3778205566e+003,3.3917949219e+003,3.4794870605e+003,3.3732050781e+003,3.3676923828e+003,3.3879487305e+003,3.3605129395e+003,3.3671794434e+003,3.2851281738e+003,3.3567949219e+003,3.4161538086e+003,3.3832050781e+003,3.4065385742e+003,
2.0312500000e+000,3.5467949219e+003,3.3715385742e+003,3.3860256348e+003,3.4698718262e+003,3.3662819824e+003,3.3565385742e+003,3.3750000000e+003,3.3496154785e+003,3.3588461914e+003,3.2812819824e+003,3.3538461914e+003,3.4130769043e+003,3.3778205566e+003,3.4030769043e+003,
2.0390625000e+000,3.5242307129e+003,3.3516667480e+003,3.3633332520e+003,3.4493588867e+003,3.3416667480e+003,3.3312819824e+003,3.3496154785e+003,3.3237180176e+003,3.3353845215e+003,3.2615385742e+003,3.3341025391e+003,3.3919230957e+003,3.3594870605e+003,3.3820512695e+003,
2.0468750000e+000,3.5107692871e+003,3.3464101563e+003,3.3525642090e+003,3.4469230957e+003,3.3166667480e+003,3.3200000000e+003,3.3392307129e+003,3.3070512695e+003,3.3170512695e+003,3.2506411133e+003,3.3212819824e+003,3.3774357910e+003,3.3532050781e+003,3.3701281738e+003,
2.0546875000e+000,3.5379487305e+003,3.3735898438e+003,3.3803845215e+003,3.4758974609e+003,3.3397436523e+003,3.3489743652e+003,3.3671794434e+003,3.3325642090e+003,3.3400000000e+003,3.2767949219e+003,3.3500000000e+003,3.4026923828e+003,3.3771794434e+003,3.3966667480e+003,
2.0625000000e+000,3.5747436523e+003,3.4075642090e+003,3.4162819824e+003,3.5110256348e+003,3.3780769043e+003,3.3870512695e+003,3.4038461914e+003,3.3687180176e+003,3.3755129395e+003,3.3139743652e+003,3.3921794434e+003,3.4383332520e+003,3.4079487305e+003,3.4320512695e+003,
2.0703125000e+000,3.4593588867e+003,3.2915385742e+003,3.2997436523e+003,3.3950000000e+003,3.2905129395e+003,3.2973076172e+003,3.3167949219e+003,3.2953845215e+003,3.3142307129e+003,3.2201281738e+003,3.2638461914e+003,3.3292307129e+003,3.3083332520e+003,3.3191025391e+003,
2.0781250000e+000,3.4432050781e+003,3.2756411133e+003,3.2841025391e+003,3.3771794434e+003,3.2798718262e+003,3.2900000000e+003,3.3098718262e+003,3.2898718262e+003,3.3098718262e+003,3.2076923828e+003,3.2474357910e+003,3.3133332520e+003,3.2924357910e+003,3.3038461914e+003,
2.0859375000e+000,3.4708974609e+003,3.3010256348e+003,3.3124357910e+003,3.3951281738e+003,3.3182050781e+003,3.3346154785e+003,3.3593588867e+003,3.3456411133e+003,3.3656411133e+003,3.2542307129e+003,3.3012819824e+003,3.3442307129e+003,3.3101281738e+003,3.3335898438e+003,
2.0937500000e+000,3.4529487305e+003,3.2852563477e+003,3.2930769043e+003,3.3770512695e+003,3.2970512695e+003,3.3253845215e+003,3.3485898438e+003,3.3376923828e+003,3.3498718262e+003,3.2416667480e+003,3.2793588867e+003,3.3194870605e+003,3.2933332520e+003,3.3110256348e+003,
2.1015625000e+000,3.4557692871e+003,3.2885898438e+003,3.2964101563e+003,3.3787180176e+003,3.2991025391e+003,3.3306411133e+003,3.3517949219e+003,3.3411538086e+003,3.3517949219e+003,3.2443588867e+003,3.2771794434e+003,3.3216667480e+003,3.2967949219e+003,3.3144870605e+003,
2.1093750000e+000,3.4321794434e+003,3.2544870605e+003,3.2696154785e+003,3.3621794434e+003,3.2588461914e+003,3.3002563477e+003,3.3221794434e+003,3.3188461914e+003,3.3300000000e+003,3.2300000000e+003,3.2560256348e+003,3.3060256348e+003,3.2748718262e+003,3.2946154785e+003,
2.1171875000e+000,3.3548718262e+003,3.1688461914e+003,3.1952563477e+003,3.2806411133e+003,3.1824357910e+003,3.2073076172e+003,3.2332050781e+003,3.2197436523e+003,3.2323076172e+003,3.1425642090e+003,3.1848718262e+003,3.2357692871e+003,3.1992307129e+003,3.2170512695e+003,
2.1250000000e+000,3.3787180176e+003,3.1919230957e+003,3.2174357910e+003,3.2937180176e+003,3.2041025391e+003,3.2158974609e+003,3.2432050781e+003,3.2248718262e+003,3.2412819824e+003,3.1542307129e+003,3.1984614258e+003,3.2538461914e+003,3.2200000000e+003,3.2366667480e+003,
2.1328125000e+000,3.4180769043e+003,3.2319230957e+003,3.2537180176e+003,3.3251281738e+003,3.2394870605e+003,3.2389743652e+003,3.2671794434e+003,3.2473076172e+003,3.2673076172e+003,3.1839743652e+003,3.2280769043e+003,3.2866667480e+003,3.2557692871e+003,3.2715385742e+003,
2.1406250000e+000,3.4807692871e+003,3.2976923828e+003,3.3150000000e+003,3.3930769043e+003,3.2980769043e+003,3.2862819824e+003,3.3142307129e+003,3.2943588867e+003,3.3142307129e+003,3.2435898438e+003,3.2974357910e+003,3.3494870605e+003,3.3153845215e+003,3.3351281738e+003,
2.1484375000e+000,3.6471794434e+003,3.4716667480e+003,3.4797436523e+003,3.5634614258e+003,3.4562819824e+003,3.4546154785e+003,3.4783332520e+003,3.4484614258e+003,3.4653845215e+003,3.4183332520e+003,3.4753845215e+003,3.5188461914e+003,3.4867949219e+003,3.5052563477e+003,
2.1562500000e+000,3.7261538086e+003,3.5565385742e+003,3.5588461914e+003,3.6400000000e+003,3.5341025391e+003,3.5312819824e+003,3.5558974609e+003,3.5241025391e+003,3.5419230957e+003,3.4991025391e+003,3.5456411133e+003,3.5943588867e+003,3.5662819824e+003,3.5811538086e+003,
2.1640625000e+000,3.7814101563e+003,3.6191025391e+003,3.6180769043e+003,3.7001281738e+003,3.5944870605e+003,3.5867949219e+003,3.6133332520e+003,3.5819230957e+003,3.5996154785e+003,3.5578205566e+003,3.5964101563e+003,3.6498718262e+003,3.6205129395e+003,3.6355129395e+003,
2.1718750000e+000,3.7842307129e+003,3.6384614258e+003,3.6332050781e+003,3.7323076172e+003,3.6255129395e+003,3.6094870605e+003,3.6334614258e+003,3.6100000000e+003,3.6228205566e+003,3.5751281738e+003,3.6143588867e+003,3.6662819824e+003,3.6230769043e+003,3.6471794434e+003,
2.1796875000e+000,3.7573076172e+003,3.6197436523e+003,3.6091025391e+003,3.7179487305e+003,3.6153845215e+003,3.5992307129e+003,3.6179487305e+003,3.5982050781e+003,3.6085898438e+003,3.5567949219e+003,3.5984614258e+003,3.6466667480e+003,3.6008974609e+003,3.6260256348e+003,
2.1875000000e+000,3.7474357910e+003,3.6165385742e+003,3.5996154785e+003,3.7117949219e+003,3.6183332520e+003,3.6038461914e+003,3.6184614258e+003,3.5984614258e+003,3.6075642090e+003,3.5534614258e+003,3.5947436523e+003,3.6406411133e+003,3.5979487305e+003,3.6197436523e+003,
2.1953125000e+000,3.8011538086e+003,3.6970512695e+003,3.6806411133e+003,3.7665385742e+003,3.6737180176e+003,3.6978205566e+003,3.7098718262e+003,3.7062819824e+003,3.7085898438e+003,3.6547436523e+003,3.6732050781e+003,3.7097436523e+003,3.6742307129e+003,3.6907692871e+003,
2.2031250000e+000,3.7093588867e+003,3.6050000000e+003,3.5920512695e+003,3.6824357910e+003,3.5917949219e+003,3.6161538086e+003,3.6276923828e+003,3.6208974609e+003,3.6237180176e+003,3.5612819824e+003,3.5826923828e+003,3.6191025391e+003,3.5803845215e+003,3.6014101563e+003,
2.2109375000e+000,4.1729487305e+003,4.0855129395e+003,4.0464101563e+003,4.1416665039e+003,4.1148715820e+003,4.0775642090e+003,4.0966665039e+003,4.0635898438e+003,4.0642307129e+003,4.0147436523e+003,4.0456411133e+003,4.0682050781e+003,4.0558974609e+003,4.0582050781e+003,
2.2187500000e+000,4.4485898438e+003,4.4053847656e+003,4.3441025391e+003,4.4247436523e+003,4.3897436523e+003,4.3561538086e+003,4.3510258789e+003,4.3725639648e+003,4.3600000000e+003,4.3624360352e+003,4.3667949219e+003,4.3848715820e+003,4.3525639648e+003,4.3620512695e+003,
2.2265625000e+000,4.2112822266e+003,4.1664101563e+003,4.1210258789e+003,4.1958974609e+003,4.1501284180e+003,4.1270512695e+003,4.1188461914e+003,4.1438461914e+003,4.1330771484e+003,4.1301284180e+003,4.1356411133e+003,4.1592309570e+003,4.1153847656e+003,4.1342309570e+003,
2.2343750000e+000,3.7292307129e+003,3.6651281738e+003,3.6532050781e+003,3.7288461914e+003,3.6567949219e+003,3.6485898438e+003,3.6583332520e+003,3.6438461914e+003,3.6474357910e+003,3.6144870605e+003,3.6419230957e+003,3.6755129395e+003,3.6433332520e+003,3.6574357910e+003,
2.2421875000e+000,3.7419230957e+003,3.6770512695e+003,3.6635898438e+003,3.7408974609e+003,3.6557692871e+003,3.6546154785e+003,3.6676923828e+003,3.6453845215e+003,3.6528205566e+003,3.6197436523e+003,3.6446154785e+003,3.6870512695e+003,3.6591025391e+003,3.6689743652e+003,
2.2500000000e+000,3.8464101563e+003,3.7820512695e+003,3.7641025391e+003,3.8362819824e+003,3.7575642090e+003,3.7467949219e+003,3.7574357910e+003,3.7329487305e+003,3.7437180176e+003,3.7183332520e+003,3.7424357910e+003,3.7911538086e+003,3.7558974609e+003,3.7710256348e+003,
2.2578125000e+000,3.9207692871e+003,3.8575642090e+003,3.8373076172e+003,3.9033332520e+003,3.8447436523e+003,3.8200000000e+003,3.8289743652e+003,3.8034614258e+003,3.8133332520e+003,3.7937180176e+003,3.8243588867e+003,3.8646154785e+003,3.8264101563e+003,3.8455129395e+003,
2.2656250000e+000,4.2208974609e+003,4.1806411133e+003,4.1366665039e+003,4.1943588867e+003,4.1570512695e+003,4.1319228516e+003,4.1353847656e+003,4.1112822266e+003,4.1144873047e+003,4.1189741211e+003,4.1515385742e+003,4.1716665039e+003,4.1541025391e+003,4.1571796875e+003,
2.2734375000e+000,4.2875639648e+003,4.2575639648e+003,4.2062822266e+003,4.2646152344e+003,4.2255126953e+003,4.2017949219e+003,4.2033334961e+003,4.1838461914e+003,4.1874360352e+003,4.1970512695e+003,4.2258974609e+003,4.2461538086e+003,4.2283334961e+003,4.2280771484e+003,
2.2812500000e+000,4.3855126953e+003,4.3744873047e+003,4.3188461914e+003,4.3685898438e+003,4.3578203125e+003,4.3103847656e+003,4.3115385742e+003,4.2969228516e+003,4.3025639648e+003,4.3138461914e+003,4.3462822266e+003,4.3625639648e+003,4.3238461914e+003,4.3343588867e+003,
2.2890625000e+000,4.4694873047e+003,4.4697436523e+003,4.4124360352e+003,4.4543588867e+003,4.4653847656e+003,4.4035898438e+003,4.4035898438e+003,4.3902563477e+003,4.3937177734e+003,4.4075639648e+003,4.4432050781e+003,4.4524360352e+003,4.4106411133e+003,4.4228203125e+003,
2.2968750000e+000,4.7489741211e+003,4.7810258789e+003,4.7103847656e+003,4.7616665039e+003,4.7667949219e+003,4.7137177734e+003,4.6952563477e+003,4.7069228516e+003,4.6929487305e+003,4.7312822266e+003,4.7441025391e+003,4.7393588867e+003,4.7426923828e+003,4.7096152344e+003,
2.3046875000e+000,4.7258974609e+003,4.7634614258e+003,4.6917949219e+003,4.7537177734e+003,4.7439741211e+003,4.7028203125e+003,4.6787177734e+003,4.7012822266e+003,4.6844873047e+003,4.7243588867e+003,4.7258974609e+003,4.7264101563e+003,4.7353847656e+003,4.6920512695e+003,
2.3125000000e+000,4.6285898438e+003,4.6705126953e+003,4.6007690430e+003,4.6673076172e+003,4.6525639648e+003,4.6196152344e+003,4.5932050781e+003,4.6214101563e+003,4.6047436523e+003,4.6400000000e+003,4.6366665039e+003,4.6429487305e+003,4.6460258789e+003,4.6041025391e+003,
2.3203125000e+000,4.4919228516e+003,4.5387177734e+003,4.4720512695e+003,4.5351284180e+003,4.5269228516e+003,4.4979487305e+003,4.4724360352e+003,4.4997436523e+003,4.4850000000e+003,4.5116665039e+003,4.5102563477e+003,4.5198715820e+003,4.5108974609e+003,4.4784614258e+003,
2.3281250000e+000,4.1532050781e+003,4.2055126953e+003,4.1492309570e+003,4.2021796875e+003,4.1975639648e+003,4.1878203125e+003,4.1778203125e+003,4.1708974609e+003,4.1647436523e+003,4.1503847656e+003,4.1597436523e+003,4.1841025391e+003,4.1651284180e+003,4.1383334961e+003,
2.3359375000e+000,5.1775639648e+003,5.2600000000e+003,5.1597436523e+003,5.2100000000e+003,5.2243588867e+003,5.1779487305e+003,5.1552563477e+003,5.1578203125e+003,5.1306411133e+003,5.1965385742e+003,5.2178203125e+003,5.1961538086e+003,5.2062822266e+003,5.1533334961e+003,
2.3437500000e+000,5.2048715820e+003,5.3012822266e+003,5.2001284180e+003,5.2484614258e+003,5.2758974609e+003,5.2065385742e+003,5.1778203125e+003,5.2030771484e+003,5.1707690430e+003,5.2530771484e+003,5.2642309570e+003,5.2453847656e+003,5.2516665039e+003,5.1958974609e+003,
2.3515625000e+000,4.6952563477e+003,4.8020512695e+003,4.7219228516e+003,4.7642309570e+003,4.7991025391e+003,4.7158974609e+003,4.6862822266e+003,4.7228203125e+003,4.6962822266e+003,4.7630771484e+003,4.7605126953e+003,4.7774360352e+003,4.7614101563e+003,4.7142309570e+003,
2.3593750000e+000,4.4175639648e+003,4.5223076172e+003,4.4530771484e+003,4.4892309570e+003,4.5184614258e+003,4.4478203125e+003,4.4228203125e+003,4.4434614258e+003,4.4255126953e+003,4.4732050781e+003,4.4755126953e+003,4.5085898438e+003,4.4824360352e+003,4.4441025391e+003,
2.3671875000e+000,4.3310258789e+003,4.4206411133e+003,4.3674360352e+003,4.3912822266e+003,4.3947436523e+003,4.3532050781e+003,4.3443588867e+003,4.3296152344e+003,4.3253847656e+003,4.3483334961e+003,4.3934614258e+003,4.4164101563e+003,4.3825639648e+003,4.3616665039e+003,
2.3750000000e+000,4.3275639648e+003,4.4135898438e+003,4.3673076172e+003,4.4094873047e+003,4.3925639648e+003,4.3530771484e+003,4.3438461914e+003,4.3402563477e+003,4.3360258789e+003,4.3570512695e+003,4.3878203125e+003,4.4176923828e+003,4.3902563477e+003,4.3620512695e+003,
2.3828125000e+000,4.3016665039e+003,4.3861538086e+003,4.3446152344e+003,4.3907690430e+003,4.3656411133e+003,4.3334614258e+003,4.3237177734e+003,4.3193588867e+003,4.3150000000e+003,4.3338461914e+003,4.3569228516e+003,4.3966665039e+003,4.3620512695e+003,4.3380771484e+003,
2.3906250000e+000,4.3088461914e+003,4.3901284180e+003,4.3523076172e+003,4.3973076172e+003,4.3757690430e+003,4.3506411133e+003,4.3380771484e+003,4.3341025391e+003,4.3351284180e+003,4.3467949219e+003,4.3797436523e+003,4.4038461914e+003,4.3692309570e+003,4.3470512695e+003,
2.3984375000e+000,4.2817949219e+003,4.3644873047e+003,4.3246152344e+003,4.3660258789e+003,4.3552563477e+003,4.3301284180e+003,4.3151284180e+003,4.3120512695e+003,4.3128203125e+003,4.3243588867e+003,4.3585898438e+003,4.3739741211e+003,4.3508974609e+003,4.3197436523e+003,
2.4062500000e+000,4.2542309570e+003,4.3350000000e+003,4.2973076172e+003,4.3320512695e+003,4.3193588867e+003,4.3133334961e+003,4.2971796875e+003,4.2933334961e+003,4.2884614258e+003,4.2998715820e+003,4.3247436523e+003,4.3421796875e+003,4.3258974609e+003,4.2898715820e+003,
2.4140625000e+000,4.2823076172e+003,4.3602563477e+003,4.3244873047e+003,4.3594873047e+003,4.3338461914e+003,4.3410258789e+003,4.3269228516e+003,4.3246152344e+003,4.3185898438e+003,4.3270512695e+003,4.3447436523e+003,4.3687177734e+003,4.3453847656e+003,4.3156411133e+003,
2.4218750000e+000,4.3991025391e+003,4.4862822266e+003,4.4341025391e+003,4.4839741211e+003,4.4707690430e+003,4.4535898438e+003,4.4429487305e+003,4.4526923828e+003,4.4478203125e+003,4.4497436523e+003,4.4553847656e+003,4.4824360352e+003,4.4503847656e+003,4.4319228516e+003,
2.4296875000e+000,4.4216665039e+003,4.5162822266e+003,4.4562822266e+003,4.5110258789e+003,4.5184614258e+003,4.4783334961e+003,4.4653847656e+003,4.4780771484e+003,4.4692309570e+003,4.4783334961e+003,4.4825639648e+003,4.5034614258e+003,4.4807690430e+003,4.4556411133e+003,
2.4375000000e+000,4.4260258789e+003,4.5247436523e+003,4.4620512695e+003,4.5194873047e+003,4.5401284180e+003,4.4853847656e+003,4.4692309570e+003,4.4839741211e+003,4.4703847656e+003,4.4888461914e+003,4.4930771484e+003,4.5057690430e+003,4.4938461914e+003,4.4596152344e+003,
2.4453125000e+000,4.2256411133e+003,4.3165385742e+003,4.2738461914e+003,4.3246152344e+003,4.3087177734e+003,4.2894873047e+003,4.2773076172e+003,4.2769228516e+003,4.2689741211e+003,4.2682050781e+003,4.2869228516e+003,4.3116665039e+003,4.2811538086e+003,4.2582050781e+003,
2.4531250000e+000,4.2515385742e+003,4.3473076172e+003,4.2980771484e+003,4.3492309570e+003,4.3400000000e+003,4.3120512695e+003,4.3016665039e+003,4.2992309570e+003,4.2882050781e+003,4.2923076172e+003,4.3060258789e+003,4.3370512695e+003,4.3085898438e+003,4.2843588867e+003,
2.4609375000e+000,4.3215385742e+003,4.4088461914e+003,4.3719228516e+003,4.4074360352e+003,4.3902563477e+003,4.3650000000e+003,4.3548715820e+003,4.3520512695e+003,4.3434614258e+003,4.3591025391e+003,4.3750000000e+003,4.4032050781e+003,4.3828203125e+003,4.3516665039e+003,
2.4687500000e+000,4.3791025391e+003,4.4617949219e+003,4.4200000000e+003,4.4702563477e+003,4.4444873047e+003,4.4062822266e+003,4.3923076172e+003,4.3901284180e+003,4.3896152344e+003,4.4085898438e+003,4.4475639648e+003,4.4620512695e+003,4.4353847656e+003,4.4137177734e+003,
2.4765625000e+000,4.4110258789e+003,4.4975639648e+003,4.4488461914e+003,4.5052563477e+003,4.4758974609e+003,4.4360258789e+003,4.4217949219e+003,4.4207690430e+003,4.4193588867e+003,4.4450000000e+003,4.4821796875e+003,4.4962822266e+003,4.4712822266e+003,4.4488461914e+003,
2.4843750000e+000,4.4333334961e+003,4.5278203125e+003,4.4784614258e+003,4.5120512695e+003,4.4942309570e+003,4.4720512695e+003,4.4570512695e+003,4.4607690430e+003,4.4635898438e+003,4.4862822266e+003,4.5017949219e+003,4.5271796875e+003,4.5003847656e+003,4.4770512695e+003,
2.4921875000e+000,4.4162822266e+003,4.5115385742e+003,4.4632050781e+003,4.4887177734e+003,4.4880771484e+003,4.4639741211e+003,4.4464101563e+003,4.4517949219e+003,4.4562822266e+003,4.4719228516e+003,4.4879487305e+003,4.5091025391e+003,4.4826923828e+003,4.4598715820e+003,
2.5000000000e+000,4.3441025391e+003,4.4376923828e+003,4.3947436523e+003,4.4188461914e+003,4.4432050781e+003,4.4069228516e+003,4.3843588867e+003,4.3882050781e+003,4.3882050781e+003,4.4001284180e+003,4.4264101563e+003,4.4324360352e+003,4.4134614258e+003,4.3888461914e+003,
2.5078125000e+000,4.2866665039e+003,4.3794873047e+003,4.3402563477e+003,4.3684614258e+003,4.3893588867e+003,4.3548715820e+003,4.3315385742e+003,4.3341025391e+003,4.3307690430e+003,4.3435898438e+003,4.3721796875e+003,4.3748715820e+003,4.3583334961e+003,4.3334614258e+003,
2.5156250000e+000,4.1351284180e+003,4.2219228516e+003,4.1916665039e+003,4.2279487305e+003,4.2053847656e+003,4.2132050781e+003,4.1941025391e+003,4.1994873047e+003,4.1967949219e+003,4.1912822266e+003,4.1978203125e+003,4.2232050781e+003,4.2016665039e+003,4.1787177734e+003,
2.5234375000e+000,4.1438461914e+003,4.2264101563e+003,4.1989741211e+003,4.2339741211e+003,4.2098715820e+003,4.2210258789e+003,4.2038461914e+003,4.2080771484e+003,4.2061538086e+003,4.1953847656e+003,4.1951284180e+003,4.2265385742e+003,4.2067949219e+003,4.1829487305e+003,
2.5312500000e+000,4.2437177734e+003,4.3251284180e+003,4.2930771484e+003,4.3265385742e+003,4.3248715820e+003,4.3176923828e+003,4.2985898438e+003,4.3005126953e+003,4.2983334961e+003,4.2938461914e+003,4.2991025391e+003,4.3156411133e+003,4.3055126953e+003,4.2783334961e+003,
2.5390625000e+000,4.2726923828e+003,4.3574360352e+003,4.3206411133e+003,4.3543588867e+003,4.3633334961e+003,4.3483334961e+003,4.3260258789e+003,4.3296152344e+003,4.3267949219e+003,4.3288461914e+003,4.3419228516e+003,4.3457690430e+003,4.3362822266e+003,4.3094873047e+003,
2.5468750000e+000,4.1023076172e+003,4.1861538086e+003,4.1597436523e+003,4.1870512695e+003,4.1894873047e+003,4.1797436523e+003,4.1585898438e+003,4.1579487305e+003,4.1582050781e+003,4.1547436523e+003,4.1738461914e+003,4.1839741211e+003,4.1625639648e+003,4.1439741211e+003,
2.5546875000e+000,4.0448718262e+003,4.1248715820e+003,4.1024360352e+003,4.1284614258e+003,4.1284614258e+003,4.1165385742e+003,4.0993588867e+003,4.0916667480e+003,4.0939743652e+003,4.0861538086e+003,4.0998715820e+003,4.1200000000e+003,4.1033334961e+003,4.0820512695e+003,
2.5625000000e+000,4.0212819824e+003,4.0984614258e+003,4.0758974609e+003,4.1037177734e+003,4.1030771484e+003,4.0864101563e+003,4.0723076172e+003,4.0587180176e+003,4.0619230957e+003,4.0539743652e+003,4.0617949219e+003,4.0892307129e+003,4.0791025391e+003,4.0539743652e+003,
2.5703125000e+000,4.0128205566e+003,4.0878205566e+003,4.0638461914e+003,4.0956411133e+003,4.0908974609e+003,4.0728205566e+003,4.0601281738e+003,4.0441025391e+003,4.0466667480e+003,4.0416667480e+003,4.0474357910e+003,4.0779487305e+003,4.0696154785e+003,4.0442307129e+003,
2.5781250000e+000,3.6983332520e+003,3.7429487305e+003,3.7517949219e+003,3.7819230957e+003,3.7238461914e+003,3.7433332520e+003,3.7423076172e+003,3.7247436523e+003,3.7326923828e+003,3.7076923828e+003,3.7432050781e+003,3.7788461914e+003,3.7397436523e+003,3.7388461914e+003,
2.5859375000e+000,3.6084614258e+003,3.6444870605e+003,3.6610256348e+003,3.6870512695e+003,3.6320512695e+003,3.6500000000e+003,3.6533332520e+003,3.6301281738e+003,3.6425642090e+003,3.6074357910e+003,3.6433332520e+003,3.6865385742e+003,3.6457692871e+003,3.6462819824e+003,
2.5937500000e+000,3.6885898438e+003,3.7055129395e+003,3.7198718262e+003,3.7437180176e+003,3.7108974609e+003,3.7080769043e+003,3.7156411133e+003,3.6844870605e+003,3.7025642090e+003,3.6675642090e+003,3.6911538086e+003,3.7452563477e+003,3.7032050781e+003,3.7071794434e+003,
2.6015625000e+000,3.8788461914e+003,3.8882050781e+003,3.8893588867e+003,3.9296154785e+003,3.8716667480e+003,3.8810256348e+003,3.8824357910e+003,3.8700000000e+003,3.8850000000e+003,3.8643588867e+003,3.8898718262e+003,3.9153845215e+003,3.9003845215e+003,3.8876923828e+003,
2.6093750000e+000,3.9038461914e+003,3.9166667480e+003,3.9114101563e+003,3.9550000000e+003,3.8998718262e+003,3.9108974609e+003,3.9096154785e+003,3.8978205566e+003,3.9148718262e+003,3.8921794434e+003,3.9165385742e+003,3.9392307129e+003,3.9302563477e+003,3.9133332520e+003,
2.6171875000e+000,4.0680769043e+003,4.0807692871e+003,4.0688461914e+003,4.1175639648e+003,4.0874357910e+003,4.0851281738e+003,4.0787180176e+003,4.0714101563e+003,4.0789743652e+003,4.0620512695e+003,4.0792307129e+003,4.1074360352e+003,4.0843588867e+003,4.0694870605e+003,
2.6250000000e+000,4.1819228516e+003,4.2093588867e+003,4.1843588867e+003,4.2296152344e+003,4.2134614258e+003,4.2032050781e+003,4.1901284180e+003,4.1970512695e+003,4.2001284180e+003,4.1925639648e+003,4.1975639648e+003,4.2178203125e+003,4.1988461914e+003,4.1838461914e+003,
2.6328125000e+000,4.1847436523e+003,4.2200000000e+003,4.1892309570e+003,4.2279487305e+003,4.2179487305e+003,4.2126923828e+003,4.1950000000e+003,4.2033334961e+003,4.2100000000e+003,4.2017949219e+003,4.2019228516e+003,4.2201284180e+003,4.2057690430e+003,4.1888461914e+003,
2.6406250000e+000,4.1425639648e+003,4.1691025391e+003,4.1492309570e+003,4.1833334961e+003,4.1607690430e+003,4.1776923828e+003,4.1552563477e+003,4.1551284180e+003,4.1607690430e+003,4.1523076172e+003,4.1615385742e+003,4.1802563477e+003,4.1583334961e+003,4.1475639648e+003,
2.6484375000e+000,4.1537177734e+003,4.1784614258e+003,4.1567949219e+003,4.1952563477e+003,4.1756411133e+003,4.1846152344e+003,4.1650000000e+003,4.1610258789e+003,4.1648715820e+003,4.1602563477e+003,4.1742309570e+003,4.1871796875e+003,4.1719228516e+003,4.1583334961e+003,
2.6562500000e+000,4.1939741211e+003,4.2311538086e+003,4.1960258789e+003,4.2387177734e+003,4.2393588867e+003,4.2238461914e+003,4.2078203125e+003,4.2006411133e+003,4.2048715820e+003,4.2116665039e+003,4.2196152344e+003,4.2251284180e+003,4.2241025391e+003,4.2026923828e+003,
2.6640625000e+000,4.1797436523e+003,4.2211538086e+003,4.1875639648e+003,4.2289741211e+003,4.2333334961e+003,4.2125639648e+003,4.1962822266e+003,4.1885898438e+003,4.1928203125e+003,4.2038461914e+003,4.2056411133e+003,4.2166665039e+003,4.2107690430e+003,4.1921796875e+003,
2.6718750000e+000,4.0341025391e+003,4.0564101563e+003,4.0482050781e+003,4.0916667480e+003,4.0671794434e+003,4.0583332520e+003,4.0414101563e+003,4.0266667480e+003,4.0297436523e+003,4.0376923828e+003,4.0507692871e+003,4.0805129395e+003,4.0539743652e+003,4.0515385742e+003,
2.6796875000e+000,4.0162819824e+003,4.0348718262e+003,4.0261538086e+003,4.0689743652e+003,4.0351281738e+003,4.0348718262e+003,4.0200000000e+003,3.9998718262e+003,4.0025642090e+003,4.0088461914e+003,4.0308974609e+003,4.0603845215e+003,4.0360256348e+003,4.0333332520e+003,
2.6875000000e+000,4.0235898438e+003,4.0430769043e+003,4.0316667480e+003,4.0701281738e+003,4.0311538086e+003,4.0391025391e+003,4.0270512695e+003,4.0012819824e+003,4.0023076172e+003,4.0094870605e+003,4.0379487305e+003,4.0669230957e+003,4.0450000000e+003,4.0401281738e+003,
2.6953125000e+000,4.0424357910e+003,4.0648718262e+003,4.0529487305e+003,4.0857692871e+003,4.0452563477e+003,4.0573076172e+003,4.0476923828e+003,4.0179487305e+003,4.0169230957e+003,4.0266667480e+003,4.0587180176e+003,4.0876923828e+003,4.0653845215e+003,4.0584614258e+003,
2.7031250000e+000,4.0369230957e+003,4.0666667480e+003,4.0528205566e+003,4.0962822266e+003,4.0748718262e+003,4.0550000000e+003,4.0456411133e+003,4.0276923828e+003,4.0388461914e+003,4.0397436523e+003,4.0617949219e+003,4.0962822266e+003,4.0500000000e+003,4.0596154785e+003,
2.7109375000e+000,4.0420512695e+003,4.0724357910e+003,4.0542307129e+003,4.0958974609e+003,4.0833332520e+003,4.0607692871e+003,4.0501281738e+003,4.0374357910e+003,4.0516667480e+003,4.0478205566e+003,4.0678205566e+003,4.1000000000e+003,4.0574357910e+003,4.0656411133e+003,
2.7187500000e+000,4.1514101563e+003,4.1916665039e+003,4.1664101563e+003,4.1942309570e+003,4.1769228516e+003,4.1797436523e+003,4.1602563477e+003,4.1591025391e+003,4.1721796875e+003,4.1724360352e+003,4.1848715820e+003,4.1982050781e+003,4.1870512695e+003,4.1714101563e+003,
2.7265625000e+000,4.2183334961e+003,4.2693588867e+003,4.2405126953e+003,4.2787177734e+003,4.2635898438e+003,4.2624360352e+003,4.2412822266e+003,4.2432050781e+003,4.2543588867e+003,4.2578203125e+003,4.2585898438e+003,4.2683334961e+003,4.2588461914e+003,4.2446152344e+003,
2.7343750000e+000,4.1973076172e+003,4.2500000000e+003,4.2207690430e+003,4.2610258789e+003,4.2546152344e+003,4.2483334961e+003,4.2235898438e+003,4.2291025391e+003,4.2383334961e+003,4.2407690430e+003,4.2393588867e+003,4.2497436523e+003,4.2365385742e+003,4.2248715820e+003,
2.7421875000e+000,4.1051284180e+003,4.1658974609e+003,4.1355126953e+003,4.1638461914e+003,4.1755126953e+003,4.1753847656e+003,4.1437177734e+003,4.1478203125e+003,4.1562822266e+003,4.1533334961e+003,4.1482050781e+003,4.1684614258e+003,4.1393588867e+003,4.1383334961e+003,
2.7500000000e+000,4.1402563477e+003,4.1907690430e+003,4.1711538086e+003,4.1892309570e+003,4.2008974609e+003,4.2106411133e+003,4.1826923828e+003,4.1815385742e+003,4.1933334961e+003,4.1880771484e+003,4.1948715820e+003,4.1973076172e+003,4.1691025391e+003,4.1707690430e+003,
2.7578125000e+000,4.1378203125e+003,4.1869228516e+003,4.1678203125e+003,4.1908974609e+003,4.1991025391e+003,4.2076923828e+003,4.1791025391e+003,4.1782050781e+003,4.1869228516e+003,4.1857690430e+003,4.1947436523e+003,4.1912822266e+003,4.1732050781e+003,4.1655126953e+003,
2.7656250000e+000,4.1501284180e+003,4.2142309570e+003,4.1771796875e+003,4.2098715820e+003,4.2038461914e+003,4.2126923828e+003,4.1858974609e+003,4.1742309570e+003,4.1810258789e+003,4.1928203125e+003,4.1893588867e+003,4.2011538086e+003,4.2005126953e+003,4.1789741211e+003,
2.7734375000e+000,4.1824360352e+003,4.2462822266e+003,4.2088461914e+003,4.2378203125e+003,4.2337177734e+003,4.2378203125e+003,4.2146152344e+003,4.1985898438e+003,4.2066665039e+003,4.2228203125e+003,4.2160258789e+003,4.2335898438e+003,4.2273076172e+003,4.2121796875e+003,
2.7812500000e+000,4.2441025391e+003,4.2975639648e+003,4.2735898438e+003,4.2917949219e+003,4.3012822266e+003,4.2829487305e+003,4.2678203125e+003,4.2471796875e+003,4.2484614258e+003,4.2757690430e+003,4.2805126953e+003,4.2948715820e+003,4.2747436523e+003,4.2696152344e+003,
2.7890625000e+000,4.2788461914e+003,4.3308974609e+003,4.3106411133e+003,4.3244873047e+003,4.3401284180e+003,4.3132050781e+003,4.2989741211e+003,4.2776923828e+003,4.2732050781e+003,4.3058974609e+003,4.3210258789e+003,4.3292309570e+003,4.3087177734e+003,4.3010258789e+003,
2.7968750000e+000,4.4248715820e+003,4.4894873047e+003,4.4637177734e+003,4.4629487305e+003,4.4794873047e+003,4.4665385742e+003,4.4470512695e+003,4.4256411133e+003,4.4188461914e+003,4.4585898438e+003,4.4751284180e+003,4.4832050781e+003,4.4641025391e+003,4.4520512695e+003,
2.8046875000e+000,4.4593588867e+003,4.5257690430e+003,4.5024360352e+003,4.4978203125e+003,4.5130771484e+003,4.5041025391e+003,4.4867949219e+003,4.4657690430e+003,4.4598715820e+003,4.4991025391e+003,4.5098715820e+003,4.5243588867e+003,4.4956411133e+003,4.4911538086e+003,
2.8125000000e+000,4.4888461914e+003,4.5576923828e+003,4.5351284180e+003,4.5300000000e+003,4.5483334961e+003,4.5353847656e+003,4.5208974609e+003,4.5029487305e+003,4.4958974609e+003,4.5348715820e+003,4.5421796875e+003,4.5603847656e+003,4.5223076172e+003,4.5239741211e+003,
2.8203125000e+000,4.5217949219e+003,4.5970512695e+003,4.5697436523e+003,4.5664101563e+003,4.5933334961e+003,4.5706411133e+003,4.5566665039e+003,4.5458974609e+003,4.5357690430e+003,4.5755126953e+003,4.5832050781e+003,4.5989741211e+003,4.5574360352e+003,4.5597436523e+003,
2.8281250000e+000,4.5523076172e+003,4.6432050781e+003,4.6106411133e+003,4.5914101563e+003,4.6375639648e+003,4.6175639648e+003,4.5929487305e+003,4.6142309570e+003,4.5982050781e+003,4.6320512695e+003,4.6424360352e+003,4.6388461914e+003,4.6194873047e+003,4.6046152344e+003,
2.8359375000e+000,4.5202563477e+003,4.6101284180e+003,4.5801284180e+003,4.5579487305e+003,4.6002563477e+003,4.5906411133e+003,4.5664101563e+003,4.5853847656e+003,4.5710258789e+003,4.6017949219e+003,4.6057690430e+003,4.6034614258e+003,4.5896152344e+003,4.5719228516e+003,
2.8437500000e+000,4.5042309570e+003,4.6039741211e+003,4.5665385742e+003,4.5493588867e+003,4.5975639648e+003,4.5915385742e+003,4.5625639648e+003,4.5794873047e+003,4.5724360352e+003,4.5991025391e+003,4.5947436523e+003,4.5894873047e+003,4.5692309570e+003,4.5605126953e+003,
2.8515625000e+000,4.4514101563e+003,4.5415385742e+003,4.5246152344e+003,4.5035898438e+003,4.5485898438e+003,4.5455126953e+003,4.5105126953e+003,4.5383334961e+003,4.5383334961e+003,4.5582050781e+003,4.5444873047e+003,4.5412822266e+003,4.5184614258e+003,4.5148715820e+003,
2.8593750000e+000,4.4200000000e+003,4.5123076172e+003,4.4925639648e+003,4.4750000000e+003,4.5176923828e+003,4.5192309570e+003,4.4843588867e+003,4.5080771484e+003,4.5092309570e+003,4.5289741211e+003,4.5141025391e+003,4.5074360352e+003,4.4944873047e+003,4.4847436523e+003,
2.8671875000e+000,4.4524360352e+003,4.5653847656e+003,4.5187177734e+003,4.5138461914e+003,4.5537177734e+003,4.5538461914e+003,4.5187177734e+003,4.5303847656e+003,4.5355126953e+003,4.5585898438e+003,4.5589741211e+003,4.5383334961e+003,4.5296152344e+003,4.5239741211e+003,
2.8750000000e+000,4.5517949219e+003,4.6658974609e+003,4.6284614258e+003,4.6030771484e+003,4.6524360352e+003,4.6348715820e+003,4.6065385742e+003,4.6082050781e+003,4.6103847656e+003,4.6543588867e+003,4.6552563477e+003,4.6398715820e+003,4.6332050781e+003,4.6203847656e+003,
2.8828125000e+000,4.5948715820e+003,4.7114101563e+003,4.6760258789e+003,4.6428203125e+003,4.7058974609e+003,4.6769228516e+003,4.6511538086e+003,4.6441025391e+003,4.6432050781e+003,4.6978203125e+003,4.6944873047e+003,4.6852563477e+003,4.6835898438e+003,4.6638461914e+003,
2.8906250000e+000,4.6511538086e+003,4.7730771484e+003,4.7342309570e+003,4.7007690430e+003,4.7769228516e+003,4.7328203125e+003,4.7082050781e+003,4.6960258789e+003,4.6911538086e+003,4.7542309570e+003,4.7506411133e+003,4.7435898438e+003,4.7443588867e+003,4.7212822266e+003,
2.8984375000e+000,4.7243588867e+003,4.8585898438e+003,4.8080771484e+003,4.7870512695e+003,4.8661538086e+003,4.8051284180e+003,4.7794873047e+003,4.7761538086e+003,4.7612822266e+003,4.8271796875e+003,4.8379487305e+003,4.8228203125e+003,4.8123076172e+003,4.7984614258e+003,
2.9062500000e+000,4.6424360352e+003,4.7780771484e+003,4.7358974609e+003,4.6962822266e+003,4.7585898438e+003,4.7358974609e+003,4.7152563477e+003,4.7114101563e+003,4.6916665039e+003,4.7502563477e+003,4.7715385742e+003,4.7494873047e+003,4.7291025391e+003,4.7241025391e+003,
2.9140625000e+000,4.6464101563e+003,4.7801284180e+003,4.7407690430e+003,4.6961538086e+003,4.7624360352e+003,4.7428203125e+003,4.7257690430e+003,4.7192309570e+003,4.7005126953e+003,4.7588461914e+003,4.7761538086e+003,4.7528203125e+003,4.7398715820e+003,4.7303847656e+003,
2.9218750000e+000,4.6692309570e+003,4.8014101563e+003,4.7633334961e+003,4.7193588867e+003,4.7901284180e+003,4.7660258789e+003,4.7507690430e+003,4.7485898438e+003,4.7300000000e+003,4.7860258789e+003,4.7988461914e+003,4.7756411133e+003,4.7680771484e+003,4.7547436523e+003,
2.9296875000e+000,4.6806411133e+003,4.8130771484e+003,4.7750000000e+003,4.7355126953e+003,4.8030771484e+003,4.7779487305e+003,4.7573076172e+003,4.7769228516e+003,4.7566665039e+003,4.8003847656e+003,4.8092309570e+003,4.7921796875e+003,4.7755126953e+003,4.7665385742e+003,
2.9375000000e+000,4.6575639648e+003,4.7910258789e+003,4.7533334961e+003,4.7125639648e+003,4.7761538086e+003,4.7582050781e+003,4.7329487305e+003,4.7588461914e+003,4.7397436523e+003,4.7774360352e+003,4.7875639648e+003,4.7724360352e+003,4.7465385742e+003,4.7437177734e+003,
2.9453125000e+000,4.6297436523e+003,4.7642309570e+003,4.7283334961e+003,4.6850000000e+003,4.7485898438e+003,4.7360258789e+003,4.7079487305e+003,4.7334614258e+003,4.7169228516e+003,4.7515385742e+003,4.7639741211e+003,4.7475639648e+003,4.7162822266e+003,4.7179487305e+003,
2.9531250000e+000,4.8430771484e+003,4.9993588867e+003,4.9433334961e+003,4.9003847656e+003,4.9652563477e+003,4.9634614258e+003,4.9288461914e+003,4.9485898438e+003,4.9358974609e+003,4.9860258789e+003,4.9848715820e+003,4.9491025391e+003,4.9637177734e+003,4.9383334961e+003,
2.9609375000e+000,4.9064101563e+003,5.0700000000e+003,5.0067949219e+003,4.9589741211e+003,5.0315385742e+003,5.0289741211e+003,4.9874360352e+003,5.0141025391e+003,5.0032050781e+003,5.0578203125e+003,5.0519228516e+003,5.0164101563e+003,5.0292309570e+003,5.0014101563e+003,
2.9687500000e+000,4.7605126953e+003,4.9257690430e+003,4.8776923828e+003,4.8215385742e+003,4.9307690430e+003,4.8930771484e+003,4.8510258789e+003,4.8766665039e+003,4.8700000000e+003,4.9171796875e+003,4.9266665039e+003,4.8965385742e+003,4.8750000000e+003,4.8683334961e+003,
2.9765625000e+000,4.6441025391e+003,4.8011538086e+003,4.7608974609e+003,4.7206411133e+003,4.8026923828e+003,4.7747436523e+003,4.7420512695e+003,4.7548715820e+003,4.7444873047e+003,4.7943588867e+003,4.7971796875e+003,4.7684614258e+003,4.7651284180e+003,4.7541025391e+003,
2.9843750000e+000,4.6623076172e+003,4.8196152344e+003,4.7808974609e+003,4.7447436523e+003,4.8175639648e+003,4.7912822266e+003,4.7598715820e+003,4.7693588867e+003,4.7579487305e+003,4.8125639648e+003,4.8147436523e+003,4.7848715820e+003,4.7880771484e+003,4.7728203125e+003,
2.9921875000e+000,4.6993588867e+003,4.8667949219e+003,4.8248715820e+003,4.7767949219e+003,4.8670512695e+003,4.8280771484e+003,4.7989741211e+003,4.8037177734e+003,4.7879487305e+003,4.8482050781e+003,4.8643588867e+003,4.8376923828e+003,4.8287177734e+003,4.8175639648e+003,
3.0000000000e+000,4.6733334961e+003,4.8416665039e+003,4.7992309570e+003,4.7456411133e+003,4.8367949219e+003,4.8037177734e+003,4.7764101563e+003,4.7810258789e+003,4.7600000000e+003,4.8210258789e+003,4.8341025391e+003,4.8166665039e+003,4.8019228516e+003,4.7939741211e+003,
3.0078125000e+000,4.6229487305e+003,4.7846152344e+003,4.7492309570e+003,4.6960258789e+003,4.7702563477e+003,4.7497436523e+003,4.7300000000e+003,4.7344873047e+003,4.7028203125e+003,4.7597436523e+003,4.7707690430e+003,4.7635898438e+003,4.7444873047e+003,4.7407690430e+003,
3.0156250000e+000,4.6344873047e+003,4.7938461914e+003,4.7602563477e+003,4.7094873047e+003,4.7811538086e+003,4.7569228516e+003,4.7411538086e+003,4.7453847656e+003,4.7141025391e+003,4.7652563477e+003,4.7841025391e+003,4.7700000000e+003,4.7503847656e+003,4.7474360352e+003,
3.0234375000e+000,4.6732050781e+003,4.8334614258e+003,4.7971796875e+003,4.7471796875e+003,4.8242309570e+003,4.7923076172e+003,4.7792309570e+003,4.7832050781e+003,4.7565385742e+003,4.8017949219e+003,4.8305126953e+003,4.8051284180e+003,4.7844873047e+003,4.7819228516e+003,
3.0312500000e+000,4.7234614258e+003,4.8871796875e+003,4.8455126953e+003,4.7932050781e+003,4.8776923828e+003,4.8423076172e+003,4.8298715820e+003,4.8341025391e+003,4.8133334961e+003,4.8551284180e+003,4.8889741211e+003,4.8555126953e+003,4.8335898438e+003,4.8312822266e+003,
3.0390625000e+000,4.7739741211e+003,4.9384614258e+003,4.8983334961e+003,4.8410258789e+003,4.9021796875e+003,4.9028203125e+003,4.8829487305e+003,4.9046152344e+003,4.8796152344e+003,4.9228203125e+003,4.9287177734e+003,4.9096152344e+003,4.8983334961e+003,4.8900000000e+003,
3.0468750000e+000,4.7551284180e+003,4.9184614258e+003,4.8823076172e+003,4.8255126953e+003,4.8908974609e+003,4.8871796875e+003,4.8669228516e+003,4.8893588867e+003,4.8614101563e+003,4.9020512695e+003,4.9133334961e+003,4.8924360352e+003,4.8798715820e+003,4.8720512695e+003,
3.0546875000e+000,4.7561538086e+003,4.9284614258e+003,4.8834614258e+003,4.8307690430e+003,4.9466665039e+003,4.9016665039e+003,4.8748715820e+003,4.8967949219e+003,4.8723076172e+003,4.9062822266e+003,4.9407690430e+003,4.9119228516e+003,4.8897436523e+003,4.8864101563e+003,
3.0625000000e+000,4.6647436523e+003,4.8417949219e+003,4.7957690430e+003,4.7593588867e+003,4.8405126953e+003,4.8179487305e+003,4.7879487305e+003,4.8155126953e+003,4.7951284180e+003,4.8257690430e+003,4.8366665039e+003,4.8257690430e+003,4.8139741211e+003,4.7980771484e+003,
3.0703125000e+000,4.6485898438e+003,4.8239741211e+003,4.7796152344e+003,4.7401284180e+003,4.8153847656e+003,4.8008974609e+003,4.7705126953e+003,4.7947436523e+003,4.7779487305e+003,4.8055126953e+003,4.8173076172e+003,4.8043588867e+003,4.7994873047e+003,4.7757690430e+003,
3.0781250000e+000,4.5964101563e+003,4.7611538086e+003,4.7229487305e+003,4.6741025391e+003,4.7587177734e+003,4.7406411133e+003,4.7079487305e+003,4.7347436523e+003,4.7246152344e+003,4.7515385742e+003,4.7698715820e+003,4.7466665039e+003,4.7503847656e+003,4.7158974609e+003,
3.0859375000e+000,4.5115385742e+003,4.6689741211e+003,4.6391025391e+003,4.5930771484e+003,4.6667949219e+003,4.6525639648e+003,4.6224360352e+003,4.6479487305e+003,4.6370512695e+003,4.6633334961e+003,4.6778203125e+003,4.6634614258e+003,4.6612822266e+003,4.6315385742e+003,
3.0937500000e+000,4.3626923828e+003,4.5032050781e+003,4.4834614258e+003,4.4408974609e+003,4.4947436523e+003,4.4906411133e+003,4.4694873047e+003,4.4660258789e+003,4.4612822266e+003,4.4792309570e+003,4.5041025391e+003,4.5026923828e+003,4.4856411133e+003,4.4737177734e+003,
3.1015625000e+000,4.3916665039e+003,4.5308974609e+003,4.5061538086e+003,4.4637177734e+003,4.5219228516e+003,4.5142309570e+003,4.4920512695e+003,4.4834614258e+003,4.4805126953e+003,4.4998715820e+003,4.5358974609e+003,4.5266665039e+003,4.5100000000e+003,4.5008974609e+003,
3.1093750000e+000,4.4419228516e+003,4.5779487305e+003,4.5452563477e+003,4.5091025391e+003,4.5650000000e+003,4.5534614258e+003,4.5285898438e+003,4.5185898438e+003,4.5102563477e+003,4.5424360352e+003,4.5874360352e+003,4.5674360352e+003,4.5607690430e+003,4.5506411133e+003,
3.1171875000e+000,4.4700000000e+003,4.6044873047e+003,4.5685898438e+003,4.5376923828e+003,4.5865385742e+003,4.5765385742e+003,4.5534614258e+003,4.5397436523e+003,4.5266665039e+003,4.5664101563e+003,4.6058974609e+003,4.5892309570e+003,4.5897436523e+003,4.5756411133e+003,
3.1250000000e+000,4.9651284180e+003,5.1125639648e+003,5.0539741211e+003,5.0191025391e+003,5.0838461914e+003,5.0556411133e+003,5.0428203125e+003,5.0165385742e+003,4.9962822266e+003,5.0493588867e+003,5.0812822266e+003,5.0674360352e+003,5.0819228516e+003,5.0515385742e+003,
3.1328125000e+000,5.2444873047e+003,5.4041025391e+003,5.3342309570e+003,5.2905126953e+003,5.3798715820e+003,5.3308974609e+003,5.3160258789e+003,5.3014101563e+003,5.2779487305e+003,5.3391025391e+003,5.3716665039e+003,5.3456411133e+003,5.3652563477e+003,5.3283334961e+003,
3.1406250000e+000,5.5917949219e+003,5.7864101563e+003,5.6917949219e+003,5.6367949219e+003,5.7721796875e+003,5.6897436523e+003,5.6624360352e+003,5.6885898438e+003,5.6523076172e+003,5.7379487305e+003,5.7592309570e+003,5.7083334961e+003,5.7339741211e+003,5.6824360352e+003,
3.1484375000e+000,5.5924360352e+003,5.8034614258e+003,5.7010258789e+003,5.6467949219e+003,5.7903847656e+003,5.7067949219e+003,5.6739741211e+003,5.7137177734e+003,5.6703847656e+003,5.7642309570e+003,5.7811538086e+003,5.7246152344e+003,5.7461538086e+003,5.6907690430e+003,
3.1562500000e+000,5.5292309570e+003,5.7503847656e+003,5.6473076172e+003,5.5956411133e+003,5.7379487305e+003,5.6612822266e+003,5.6256411133e+003,5.6685898438e+003,5.6203847656e+003,5.7161538086e+003,5.7344873047e+003,5.6769228516e+003,5.6907690430e+003,5.6355126953e+003,
3.1640625000e+000,5.5374360352e+003,5.7784614258e+003,5.6814101563e+003,5.6310258789e+003,5.7607690430e+003,5.7025639648e+003,5.6603847656e+003,5.7083334961e+003,5.6584614258e+003,5.7510258789e+003,5.7703847656e+003,5.7098715820e+003,5.7282050781e+003,5.6700000000e+003,
3.1718750000e+000,5.4635898438e+003,5.7101284180e+003,5.6164101563e+003,5.5657690430e+003,5.6946152344e+003,5.6406411133e+003,5.5983334961e+003,5.6482050781e+003,5.6002563477e+003,5.6875639648e+003,5.7115385742e+003,5.6455126953e+003,5.6610258789e+003,5.6055126953e+003,
3.1796875000e+000,5.2061538086e+003,5.4507690430e+003,5.3783334961e+003,5.3171796875e+003,5.4425639648e+003,5.4117949219e+003,5.3642309570e+003,5.4062822266e+003,5.3757690430e+003,5.4376923828e+003,5.4628203125e+003,5.4016665039e+003,5.4074360352e+003,5.3560258789e+003,
3.1875000000e+000,5.2265385742e+003,5.4738461914e+003,5.3962822266e+003,5.3391025391e+003,5.4478203125e+003,5.4138461914e+003,5.3670512695e+003,5.4057690430e+003,5.3796152344e+003,5.4498715820e+003,5.4608974609e+003,5.4082050781e+003,5.4282050781e+003,5.3715385742e+003,
3.1953125000e+000,5.2561538086e+003,5.5092309570e+003,5.4235898438e+003,5.3780771484e+003,5.4887177734e+003,5.4387177734e+003,5.3934614258e+003,5.4335898438e+003,5.4061538086e+003,5.4829487305e+003,5.4946152344e+003,5.4361538086e+003,5.4641025391e+003,5.4062822266e+003,
3.2031250000e+000,5.2521796875e+003,5.5017949219e+003,5.4310258789e+003,5.3779487305e+003,5.4993588867e+003,5.4347436523e+003,5.3880771484e+003,5.4275639648e+003,5.4015385742e+003,5.4839741211e+003,5.5044873047e+003,5.4494873047e+003,5.4644873047e+003,5.4162822266e+003,
3.2109375000e+000,5.2305126953e+003,5.4741025391e+003,5.4150000000e+003,5.3515385742e+003,5.4635898438e+003,5.4116665039e+003,5.3644873047e+003,5.4006411133e+003,5.3733334961e+003,5.4593588867e+003,5.4833334961e+003,5.4314101563e+003,5.4388461914e+003,5.3942309570e+003,
3.2187500000e+000,5.1348715820e+003,5.3843588867e+003,5.3233334961e+003,5.2710258789e+003,5.3573076172e+003,5.3176923828e+003,5.2774360352e+003,5.3006411133e+003,5.2628203125e+003,5.3584614258e+003,5.3926923828e+003,5.3357690430e+003,5.3508974609e+003,5.3082050781e+003,
3.2265625000e+000,5.0865385742e+003,5.3397436523e+003,5.2748715820e+003,5.2266665039e+003,5.3197436523e+003,5.2700000000e+003,5.2355126953e+003,5.2556411133e+003,5.2184614258e+003,5.3057690430e+003,5.3433334961e+003,5.2891025391e+003,5.3032050781e+003,5.2652563477e+003,
3.2343750000e+000,4.9607690430e+003,5.2039741211e+003,5.1494873047e+003,5.0907690430e+003,5.1964101563e+003,5.1397436523e+003,5.1142309570e+003,5.1344873047e+003,5.1053847656e+003,5.1661538086e+003,5.2114101563e+003,5.1643588867e+003,5.1564101563e+003,5.1367949219e+003,
3.2421875000e+000,4.8785898438e+003,5.1097436523e+003,5.0680771484e+003,5.0033334961e+003,5.1043588867e+003,5.0591025391e+003,5.0344873047e+003,5.0552563477e+003,5.0287177734e+003,5.0778203125e+003,5.1241025391e+003,5.0803847656e+003,5.0603847656e+003,5.0488461914e+003,
3.2500000000e+000,4.6379487305e+003,4.8414101563e+003,4.8221796875e+003,4.7734614258e+003,4.8411538086e+003,4.8482050781e+003,4.8223076172e+003,4.8291025391e+003,4.8005126953e+003,4.8228203125e+003,4.8494873047e+003,4.8225639648e+003,4.8182050781e+003,4.7962822266e+003,
3.2578125000e+000,4.5275639648e+003,4.7228203125e+003,4.7015385742e+003,4.6551284180e+003,4.7283334961e+003,4.7415385742e+003,4.7257690430e+003,4.7244873047e+003,4.6964101563e+003,4.6961538086e+003,4.7280771484e+003,4.7030771484e+003,4.6926923828e+003,4.6794873047e+003,
3.2656250000e+000,4.5138461914e+003,4.7048715820e+003,4.6862822266e+003,4.6341025391e+003,4.7184614258e+003,4.7248715820e+003,4.7108974609e+003,4.7106411133e+003,4.6824360352e+003,4.6778203125e+003,4.7124360352e+003,4.6892309570e+003,4.6664101563e+003,4.6642309570e+003,
3.2734375000e+000,4.5102563477e+003,4.6956411133e+003,4.6800000000e+003,4.6239741211e+003,4.7170512695e+003,4.7183334961e+003,4.7033334961e+003,4.7053847656e+003,4.6788461914e+003,4.6717949219e+003,4.7024360352e+003,4.6826923828e+003,4.6555126953e+003,4.6584614258e+003,
3.2812500000e+000,4.5048715820e+003,4.6846152344e+003,4.6707690430e+003,4.6142309570e+003,4.7085898438e+003,4.7103847656e+003,4.6919228516e+003,4.6985898438e+003,4.6753847656e+003,4.6665385742e+003,4.6884614258e+003,4.6728203125e+003,4.6511538086e+003,4.6508974609e+003,
3.2890625000e+000,4.2530771484e+003,4.4067949219e+003,4.4076923828e+003,4.3603847656e+003,4.4057690430e+003,4.4426923828e+003,4.4151284180e+003,4.4389741211e+003,4.4229487305e+003,4.3969228516e+003,4.4233334961e+003,4.4075639648e+003,4.3958974609e+003,4.3917949219e+003,
3.2968750000e+000,4.1903847656e+003,4.3366665039e+003,4.3394873047e+003,4.2952563477e+003,4.3417949219e+003,4.3728203125e+003,4.3456411133e+003,4.3647436523e+003,4.3520512695e+003,4.3232050781e+003,4.3579487305e+003,4.3382050781e+003,4.3226923828e+003,4.3256411133e+003,
3.3046875000e+000,4.1312822266e+003,4.2544873047e+003,4.2574360352e+003,4.2151284180e+003,4.2710258789e+003,4.2785898438e+003,4.2592309570e+003,4.2687177734e+003,4.2678203125e+003,4.2462822266e+003,4.2766665039e+003,4.2632050781e+003,4.2491025391e+003,4.2566665039e+003,
3.3125000000e+000,4.0312819824e+003,4.1325639648e+003,4.1460258789e+003,4.1038461914e+003,4.1130771484e+003,4.1551284180e+003,4.1355126953e+003,4.1456411133e+003,4.1488461914e+003,4.1217949219e+003,4.1520512695e+003,4.1503847656e+003,4.1374360352e+003,4.1424360352e+003,
3.3203125000e+000,3.9843588867e+003,4.0774357910e+003,4.0984614258e+003,4.0534614258e+003,4.0573076172e+003,4.1012822266e+003,4.0828205566e+003,4.0882050781e+003,4.0932050781e+003,4.0638461914e+003,4.0956411133e+003,4.0971796875e+003,4.0865385742e+003,4.0921794434e+003,
3.3281250000e+000,3.9269230957e+003,3.9937180176e+003,4.0266667480e+003,3.9707692871e+003,4.0029487305e+003,4.0117949219e+003,4.0038461914e+003,3.9887180176e+003,3.9984614258e+003,3.9683332520e+003,4.0085898438e+003,4.0166667480e+003,4.0071794434e+003,4.0183332520e+003,
3.3359375000e+000,3.9501281738e+003,4.0111538086e+003,4.0419230957e+003,3.9919230957e+003,4.0251281738e+003,4.0306411133e+003,4.0239743652e+003,4.0062819824e+003,4.0153845215e+003,3.9811538086e+003,4.0275642090e+003,4.0329487305e+003,4.0208974609e+003,4.0341025391e+003,
3.3437500000e+000,4.0483332520e+003,4.1003847656e+003,4.1279487305e+003,4.0955129395e+003,4.0955129395e+003,4.1366665039e+003,4.1328203125e+003,4.1130771484e+003,4.1189741211e+003,4.0787180176e+003,4.1147436523e+003,4.1291025391e+003,4.0976923828e+003,4.1210258789e+003,
3.3515625000e+000,4.0814101563e+003,4.1334614258e+003,4.1583334961e+003,4.1239741211e+003,4.1279487305e+003,4.1728203125e+003,4.1701284180e+003,4.1525639648e+003,4.1573076172e+003,4.1184614258e+003,4.1458974609e+003,4.1637177734e+003,4.1288461914e+003,4.1526923828e+003,
3.3593750000e+000,4.1565385742e+003,4.2058974609e+003,4.2258974609e+003,4.1887177734e+003,4.2265385742e+003,4.2512822266e+003,4.2465385742e+003,4.2392309570e+003,4.2374360352e+003,4.1969228516e+003,4.2244873047e+003,4.2325639648e+003,4.2042309570e+003,4.2189741211e+003,
3.3671875000e+000,4.1869228516e+003,4.2330771484e+003,4.2533334961e+003,4.2187177734e+003,4.2661538086e+003,4.2819228516e+003,4.2747436523e+003,4.2725639648e+003,4.2660258789e+003,4.2230771484e+003,4.2569228516e+003,4.2553847656e+003,4.2339741211e+003,4.2438461914e+003,
3.3750000000e+000,4.1653847656e+003,4.2033334961e+003,4.2316665039e+003,4.2028203125e+003,4.2130771484e+003,4.2623076172e+003,4.2511538086e+003,4.2523076172e+003,4.2432050781e+003,4.1992309570e+003,4.2319228516e+003,4.2247436523e+003,4.2071796875e+003,4.2205126953e+003,
3.3828125000e+000,4.1125639648e+003,4.1462822266e+003,4.1791025391e+003,4.1479487305e+003,4.1501284180e+003,4.2108974609e+003,4.1987177734e+003,4.1988461914e+003,4.1928203125e+003,4.1487177734e+003,4.1753847656e+003,4.1752563477e+003,4.1503847656e+003,4.1683334961e+003,
3.3906250000e+000,4.0069230957e+003,4.0333332520e+003,4.0688461914e+003,4.0339743652e+003,4.0525642090e+003,4.0976923828e+003,4.0853845215e+003,4.0838461914e+003,4.0829487305e+003,4.0338461914e+003,4.0583332520e+003,4.0676923828e+003,4.0337180176e+003,4.0580769043e+003,
3.3984375000e+000,3.9976923828e+003,4.0223076172e+003,4.0541025391e+003,4.0193588867e+003,4.0502563477e+003,4.0780769043e+003,4.0673076172e+003,4.0651281738e+003,4.0656411133e+003,4.0143588867e+003,4.0416667480e+003,4.0500000000e+003,4.0206411133e+003,4.0439743652e+003,
3.4062500000e+000,4.0260256348e+003,4.0482050781e+003,4.0767949219e+003,4.0423076172e+003,4.0775642090e+003,4.0960258789e+003,4.0865385742e+003,4.0832050781e+003,4.0846154785e+003,4.0337180176e+003,4.0629487305e+003,4.0688461914e+003,4.0475642090e+003,4.0671794434e+003,
3.4140625000e+000,4.2048715820e+003,4.2187177734e+003,4.2424360352e+003,4.2052563477e+003,4.2215385742e+003,4.2494873047e+003,4.2370512695e+003,4.2380771484e+003,4.2332050781e+003,4.2144873047e+003,4.2510258789e+003,4.2500000000e+003,4.2358974609e+003,4.2483334961e+003,
3.4218750000e+000,4.1969228516e+003,4.2138461914e+003,4.2312822266e+003,4.1956411133e+003,4.2176923828e+003,4.2307690430e+003,4.2184614258e+003,4.2210258789e+003,4.2173076172e+003,4.2044873047e+003,4.2433334961e+003,4.2414101563e+003,4.2278203125e+003,4.2430771484e+003,
3.4296875000e+000,4.2417949219e+003,4.2552563477e+003,4.2744873047e+003,4.2373076172e+003,4.2585898438e+003,4.2620512695e+003,4.2476923828e+003,4.2356411133e+003,4.2376923828e+003,4.2253847656e+003,4.2648715820e+003,4.2747436523e+003,4.2511538086e+003,4.2774360352e+003,
